Time sep (ms?), Current (A)
0.0, -2.819e-08
2.002, -2.653e-08
4.004, -2.521e-08
6.006, -2.976e-08
8.008, -3.074e-08
10.01, -2.81e-08
12.012, -2.482e-08
14.014, -2.525e-08
16.016, -2.643e-08
18.018, -2.585e-08
20.02, -3.095e-08
22.022, -2.645e-08
24.024, -2.698e-08
26.026, -2.847e-08
28.028, -3.01e-08
30.03, -2.836e-08
32.032, -2.866e-08
34.034, -2.727e-08
36.036, -2.817e-08
38.038, -3.14e-08
40.04, -2.543e-08
42.042, -2.692e-08
44.044, -2.611e-08
46.046, -2.743e-08
48.048, -2.685e-08
50.05, -2.618e-08
52.052, -2.532e-08
54.054, -2.532e-08
56.056, -2.295e-08
58.058, -2.712e-08
60.06, -2.384e-08
62.062, -2.536e-08
64.064, -2.669e-08
66.066, -2.371e-08
68.068, -2.706e-08
70.07, -2.892e-08
72.072, -2.497e-08
74.074, -2.845e-08
76.076, -2.422e-08
78.078, -2.62e-08
80.08, -2.644e-08
82.082, -3.006e-08
84.084, -3.128e-08
86.086, -2.972e-08
88.088, -2.906e-08
90.09, -2.658e-08
92.092, -2.678e-08
94.094, -2.919e-08
96.096, -2.702e-08
98.098, -2.801e-08
100.1, -2.716e-08
102.1, -2.847e-08
104.1, -3.181e-08
106.11, -3.141e-08
108.11, -2.903e-08
110.11, -3.078e-08
112.11, -3.097e-08
114.11, -3.105e-08
116.12, -2.829e-08
118.12, -3.144e-08
120.12, -3.141e-08
122.12, -2.909e-08
124.12, -3.038e-08
126.13, -3.33e-08
128.13, -2.785e-08
130.13, -3.015e-08
132.13, -2.949e-08
134.13, -2.779e-08
136.14, -2.368e-08
138.14, -2.607e-08
140.14, -2.604e-08
142.14, -2.7e-08
144.14, -2.644e-08
146.15, -2.467e-08
148.15, -2.704e-08
150.15, -2.713e-08
152.15, -2.547e-08
154.15, -3.258e-08
156.16, -2.778e-08
158.16, -2.864e-08
160.16, -2.919e-08
162.16, -3.265e-08
164.16, -2.942e-08
166.17, -3.056e-08
168.17, -2.895e-08
170.17, -2.857e-08
172.17, -2.97e-08
174.17, -2.987e-08
176.18, -2.764e-08
178.18, -2.901e-08
180.18, -2.975e-08
182.18, -3.06e-08
184.18, -2.974e-08
186.19, -3.056e-08
188.19, -3.053e-08
190.19, -3.331e-08
192.19, -2.951e-08
194.19, -2.698e-08
196.2, -2.82e-08
198.2, -2.925e-08
200.2, -3.434e-08
202.2, -3.103e-08
204.2, -2.822e-08
206.21, -2.853e-08
208.21, -2.754e-08
210.21, -3.096e-08
212.21, -2.793e-08
214.21, -2.856e-08
216.22, -3.341e-08
218.22, -3.139e-08
220.22, -2.791e-08
222.22, -2.94e-08
224.22, -3.228e-08
226.23, -3.056e-08
228.23, -2.805e-08
230.23, -2.883e-08
232.23, -2.662e-08
234.23, -2.782e-08
236.24, -2.971e-08
238.24, -2.73e-08
240.24, -2.619e-08
242.24, -2.822e-08
244.24, -2.421e-08
246.25, -2.137e-08
248.25, -2.659e-08
250.25, -2.59e-08
252.25, -2.497e-08
254.25, -2.563e-08
256.26, -2.833e-08
258.26, -2.612e-08
260.26, -2.805e-08
262.26, -2.15e-08
264.26, -2.803e-08
266.27, -2.805e-08
268.27, -3.078e-08
270.27, -3.178e-08
272.27, -3.012e-08
274.27, -2.794e-08
276.28, -2.714e-08
278.28, -2.999e-08
280.28, -2.999e-08
282.28, -3.215e-08
284.28, -3.299e-08
286.29, -2.756e-08
288.29, -3.35e-08
290.29, -2.852e-08
292.29, -3.068e-08
294.29, -2.848e-08
296.3, -2.848e-08
298.3, -3.039e-08
300.3, -3.223e-08
302.3, -2.799e-08
304.3, -3.218e-08
306.31, -2.819e-08
308.31, -2.644e-08
310.31, -3.029e-08
312.31, -2.733e-08
314.31, -2.703e-08
316.32, -2.695e-08
318.32, -3.113e-08
320.32, -2.621e-08
322.32, -2.984e-08
324.32, -2.657e-08
326.33, -2.803e-08
328.33, -2.998e-08
330.33, -2.814e-08
332.33, -2.713e-08
334.33, -2.807e-08
336.34, -2.39e-08
338.34, -2.904e-08
340.34, -2.784e-08
342.34, -2.976e-08
344.34, -2.808e-08
346.35, -3.059e-08
348.35, -3.191e-08
350.35, -2.681e-08
352.35, -3.16e-08
354.35, -2.723e-08
356.36, -2.9e-08
358.36, -3.059e-08
360.36, -2.858e-08
362.36, -2.786e-08
364.36, -2.936e-08
366.37, -2.657e-08
368.37, -2.574e-08
370.37, -2.45e-08
372.37, -2.791e-08
374.37, -2.795e-08
376.38, -2.655e-08
378.38, -2.876e-08
380.38, -3.278e-08
382.38, -3.322e-08
384.38, -3.018e-08
386.39, -2.741e-08
388.39, -2.711e-08
390.39, -2.821e-08
392.39, -2.766e-08
394.39, -2.626e-08
396.4, -3.19e-08
398.4, -3.058e-08
400.4, -3.388e-08
402.4, -3.059e-08
404.4, -3.062e-08
406.41, -2.819e-08
408.41, -3.058e-08
410.41, -3.403e-08
412.41, -3.064e-08
414.41, -3.067e-08
416.42, -2.953e-08
418.42, -2.983e-08
420.42, -2.987e-08
422.42, -3.191e-08
424.42, -3.246e-08
426.43, -3.011e-08
428.43, -3.138e-08
430.43, -3.119e-08
432.43, -3.322e-08
434.43, -2.874e-08
436.44, -3.25e-08
438.44, -3.361e-08
440.44, -3.058e-08
442.44, -3.086e-08
444.44, -3.142e-08
446.45, -3.163e-08
448.45, -2.981e-08
450.45, -2.876e-08
452.45, -3.067e-08
454.45, -2.934e-08
456.46, -3.034e-08
458.46, -2.977e-08
460.46, -2.84e-08
462.46, -3.151e-08
464.46, -2.967e-08
466.47, -3.015e-08
468.47, -2.87e-08
470.47, -2.849e-08
472.47, -2.919e-08
474.47, -3.032e-08
476.48, -2.705e-08
478.48, -2.969e-08
480.48, -3.096e-08
482.48, -2.613e-08
484.48, -2.853e-08
486.49, -2.754e-08
488.49, -2.945e-08
490.49, -3.098e-08
492.49, -3.064e-08
494.49, -3.02e-08
496.5, -2.72e-08
498.5, -2.887e-08
500.5, -3.293e-08
502.5, -3.23e-08
504.5, -3.312e-08
506.51, -3.19e-08
508.51, -3.237e-08
510.51, -3.144e-08
512.51, -3.24e-08
514.51, -3.393e-08
516.52, -3.23e-08
518.52, -3.511e-08
520.52, -3.165e-08
522.52, -2.971e-08
524.52, -3.19e-08
526.53, -3.237e-08
528.53, -3.137e-08
530.53, -3.468e-08
532.53, -3.42e-08
534.53, -3.384e-08
536.54, -3.089e-08
538.54, -3.146e-08
540.54, -2.936e-08
542.54, -3.042e-08
544.54, -3.289e-08
546.55, -3.424e-08
548.55, -3.337e-08
550.55, -3.087e-08
552.55, -3.171e-08
554.55, -3.27e-08
556.56, -2.988e-08
558.56, -3.128e-08
560.56, -2.943e-08
562.56, -2.895e-08
564.56, -3.124e-08
566.57, -2.926e-08
568.57, -3.17e-08
570.57, -3.062e-08
572.57, -3.036e-08
574.57, -3.135e-08
576.58, -3.233e-08
578.58, -3.081e-08
580.58, -3.417e-08
582.58, -3.511e-08
584.58, -3.16e-08
586.59, -3.154e-08
588.59, -3.078e-08
590.59, -2.978e-08
592.59, -3.074e-08
594.59, -3.016e-08
596.6, -3.138e-08
598.6, -2.783e-08
600.6, -3.11e-08
602.6, -3.062e-08
604.6, -3.103e-08
606.61, -2.715e-08
608.61, -2.734e-08
610.61, -2.456e-08
612.61, -2.955e-08
614.61, -3.044e-08
616.62, -3.017e-08
618.62, -2.931e-08
620.62, -2.755e-08
622.62, -2.954e-08
624.62, -2.863e-08
626.63, -2.953e-08
628.63, -2.916e-08
630.63, -2.965e-08
632.63, -2.656e-08
634.63, -2.497e-08
636.64, -3.134e-08
638.64, -2.957e-08
640.64, -2.921e-08
642.64, -3.066e-08
644.64, -2.788e-08
646.65, -2.43e-08
648.65, -2.837e-08
650.65, -2.864e-08
652.65, -2.887e-08
654.65, -3.117e-08
656.66, -3.108e-08
658.66, -3.252e-08
660.66, -3.264e-08
662.66, -2.862e-08
664.66, -3.114e-08
666.67, -2.875e-08
668.67, -3.037e-08
670.67, -3.102e-08
672.67, -3.228e-08
674.67, -2.985e-08
676.68, -3.163e-08
678.68, -3.145e-08
680.68, -3.109e-08
682.68, -2.816e-08
684.68, -3.518e-08
686.69, -3.363e-08
688.69, -3.213e-08
690.69, -3.316e-08
692.69, -3.109e-08
694.69, -3.086e-08
696.7, -3.017e-08
698.7, -3.066e-08
700.7, -3.133e-08
702.7, -2.574e-08
704.7, -2.436e-08
706.71, -2.428e-08
708.71, -2.808e-08
710.71, -3.007e-08
712.71, -2.791e-08
714.71, -2.908e-08
716.72, -3.12e-08
718.72, -3.053e-08
720.72, -3.399e-08
722.72, -3.267e-08
724.72, -3.314e-08
726.73, -3.053e-08
728.73, -3.375e-08
730.73, -3.057e-08
732.73, -3.284e-08
734.73, -3.041e-08
736.74, -3.306e-08
738.74, -3.068e-08
740.74, -3.556e-08
742.74, -3.368e-08
744.74, -3.401e-08
746.75, -3.484e-08
748.75, -3.41e-08
750.75, -3.189e-08
752.75, -2.961e-08
754.75, -3.081e-08
756.76, -2.976e-08
758.76, -3.104e-08
760.76, -3.108e-08
762.76, -3.271e-08
764.76, -3.179e-08
766.77, -2.786e-08
768.77, -2.786e-08
770.77, -3.415e-08
772.77, -3.136e-08
774.77, -3.092e-08
776.78, -2.956e-08
778.78, -3.027e-08
780.78, -2.63e-08
782.78, -3.158e-08
784.78, -2.662e-08
786.79, -2.604e-08
788.79, -2.838e-08
790.79, -2.747e-08
792.79, -2.944e-08
794.79, -2.731e-08
796.8, -2.964e-08
798.8, -3.075e-08
800.8, -2.992e-08
802.8, -2.931e-08
804.8, -3.23e-08
806.81, -2.772e-08
808.81, -2.934e-08
810.81, -2.784e-08
812.81, -3.198e-08
814.81, -2.844e-08
816.82, -2.794e-08
818.82, -2.897e-08
820.82, -2.757e-08
822.82, -2.902e-08
824.82, -3.15e-08
826.83, -3.002e-08
828.83, -2.583e-08
830.83, -2.949e-08
832.83, -2.864e-08
834.83, -2.872e-08
836.84, -2.739e-08
838.84, -2.787e-08
840.84, -3.035e-08
842.84, -3.162e-08
844.84, -2.943e-08
846.85, -2.664e-08
848.85, -2.892e-08
850.85, -2.917e-08
852.85, -2.57e-08
854.85, -2.61e-08
856.86, -2.573e-08
858.86, -2.605e-08
860.86, -2.966e-08
862.86, -2.566e-08
864.86, -2.873e-08
866.87, -2.808e-08
868.87, -2.561e-08
870.87, -2.746e-08
872.87, -2.557e-08
874.87, -2.693e-08
876.88, -2.885e-08
878.88, -2.79e-08
880.88, -2.71e-08
882.88, -2.4e-08
884.88, -2.637e-08
886.89, -2.479e-08
888.89, -2.486e-08
890.89, -2.585e-08
892.89, -2.926e-08
894.89, -3.061e-08
896.9, -2.826e-08
898.9, -2.407e-08
900.9, -2.841e-08
902.9, -3.183e-08
904.9, -2.604e-08
906.91, -2.485e-08
908.91, -2.88e-08
910.91, -3.071e-08
912.91, -2.804e-08
914.91, -2.342e-08
916.92, -2.679e-08
918.92, -2.905e-08
920.92, -2.854e-08
922.92, -2.954e-08
924.92, -2.703e-08
926.93, -2.908e-08
928.93, -2.621e-08
930.93, -2.514e-08
932.93, -2.611e-08
934.93, -2.64e-08
936.94, -2.441e-08
938.94, -2.529e-08
940.94, -2.681e-08
942.94, -2.713e-08
944.94, -2.612e-08
946.95, -2.311e-08
948.95, -2.468e-08
950.95, -2.476e-08
952.95, -2.636e-08
954.95, -2.312e-08
956.96, -2.621e-08
958.96, -2.395e-08
960.96, -2.218e-08
962.96, -2.595e-08
964.96, -2.384e-08
966.97, -2.191e-08
968.97, -2.275e-08
970.97, -2.405e-08
972.97, -2.302e-08
974.97, -2.338e-08
976.98, -2.386e-08
978.98, -1.961e-08
980.98, -2.212e-08
982.98, -2.138e-08
984.98, -2.224e-08
986.99, -2.044e-08
988.99, -2.064e-08
990.99, -2.139e-08
992.99, -2.437e-08
994.99, -2.285e-08
997.0, -2.209e-08
999.0, -2.42e-08
1001.0, -2.863e-08
1003.0, -2.524e-08
1005.0, -2.273e-08
1007.0, -2.463e-08
1009.0, -2.577e-08
1011.0, -2.351e-08
1013.0, -2.34e-08
1015.0, -2.374e-08
1017.0, -2.424e-08
1019.0, -2.331e-08
1021.0, -2.556e-08
1023.0, -2.355e-08
1025.0, -2.312e-08
1027.0, -2.406e-08
1029.0, -1.963e-08
1031.0, -2.241e-08
1033.0, -2.019e-08
1035.0, -2.269e-08
1037.0, -2.196e-08
1039.0, -2.032e-08
1041.0, -2.495e-08
1043.0, -2.489e-08
1045.0, -2.191e-08
1047.0, -2.386e-08
1049.0, -2.34e-08
1051.0, -2.479e-08
1053.1, -2.333e-08
1055.1, -2.371e-08
1057.1, 2.5594e-06
1059.1, 4.7577e-06
1061.1, 4.6392e-06
1063.1, 4.8913e-06
1065.1, 4.6215e-06
1067.1, 4.9203e-06
1069.1, 4.7906e-06
1071.1, 4.912e-06
1073.1, 4.9277e-06
1075.1, 4.8021e-06
1077.1, 4.9304e-06
1079.1, 4.7337e-06
1081.1, 4.7345e-06
1083.1, 4.9504e-06
1085.1, 4.8472e-06
1087.1, 4.89e-06
1089.1, 4.8092e-06
1091.1, 4.7607e-06
1093.1, 4.7854e-06
1095.1, 4.9108e-06
1097.1, 4.8802e-06
1099.1, 4.9196e-06
1101.1, 4.8598e-06
1103.1, 4.7998e-06
1105.1, 4.8251e-06
1107.1, 4.9504e-06
1109.1, 4.7783e-06
1111.1, 4.8912e-06
1113.1, 4.9529e-06
1115.1, 4.935e-06
1117.1, 4.9076e-06
1119.1, 4.7542e-06
1121.1, 5.0666e-06
1123.1, 4.9629e-06
1125.1, 4.9273e-06
1127.1, 4.9777e-06
1129.1, 4.9282e-06
1131.1, 4.9643e-06
1133.1, 4.9352e-06
1135.1, 5.0624e-06
1137.1, 4.9116e-06
1139.1, 4.9459e-06
1141.1, 4.8139e-06
1143.1, 4.9287e-06
1145.1, 4.9321e-06
1147.1, 4.9064e-06
1149.1, 4.9493e-06
1151.1, 5.0218e-06
1153.2, 4.9349e-06
1155.2, 4.913e-06
1157.2, 4.899e-06
1159.2, 4.9232e-06
1161.2, 4.9122e-06
1163.2, 4.8767e-06
1165.2, 4.9191e-06
1167.2, 4.9156e-06
1169.2, 5.1013e-06
1171.2, 4.9108e-06
1173.2, 4.9778e-06
1175.2, 4.9037e-06
1177.2, 4.9248e-06
1179.2, 4.997e-06
1181.2, 4.8049e-06
1183.2, 4.8177e-06
1185.2, 5.0556e-06
1187.2, 4.9744e-06
1189.2, 4.909e-06
1191.2, 4.8958e-06
1193.2, 5.0174e-06
1195.2, 5.0379e-06
1197.2, 4.8161e-06
1199.2, 5.0019e-06
1201.2, 4.8834e-06
1203.2, 4.9165e-06
1205.2, 4.8725e-06
1207.2, 5.0877e-06
1209.2, 4.9536e-06
1211.2, 4.9002e-06
1213.2, 4.9163e-06
1215.2, 4.9238e-06
1217.2, 4.9966e-06
1219.2, 4.9243e-06
1221.2, 5.0068e-06
1223.2, 4.9464e-06
1225.2, 4.9193e-06
1227.2, 4.9574e-06
1229.2, 5.0098e-06
1231.2, 4.9703e-06
1233.2, 5.0969e-06
1235.2, 4.9487e-06
1237.2, 4.9112e-06
1239.2, 4.9482e-06
1241.2, 5.0228e-06
1243.2, 5.0635e-06
1245.2, 5.0722e-06
1247.2, 4.9527e-06
1249.2, 4.9682e-06
1251.2, 4.9946e-06
1253.3, 5.0298e-06
1255.3, 5.0213e-06
1257.3, 4.9573e-06
1259.3, 5.0826e-06
1261.3, 4.8447e-06
1263.3, 5.0127e-06
1265.3, 4.8108e-06
1267.3, 4.9772e-06
1269.3, 4.9919e-06
1271.3, 4.9426e-06
1273.3, 5.006e-06
1275.3, 4.951e-06
1277.3, 4.8738e-06
1279.3, 5.0003e-06
1281.3, 5.0229e-06
1283.3, 5.1226e-06
1285.3, 5.0393e-06
1287.3, 5.0403e-06
1289.3, 4.8449e-06
1291.3, 5.0611e-06
1293.3, 4.8431e-06
1295.3, 4.9656e-06
1297.3, 5.0946e-06
1299.3, 4.9723e-06
1301.3, 4.8591e-06
1303.3, 5.0815e-06
1305.3, 4.9468e-06
1307.3, 5.0263e-06
1309.3, 5.1058e-06
1311.3, 5.0044e-06
1313.3, 4.7332e-06
1315.3, 4.927e-06
1317.3, 4.9958e-06
1319.3, 5.1514e-06
1321.3, 5.0627e-06
1323.3, 4.9957e-06
1325.3, 5.0192e-06
1327.3, 4.8702e-06
1329.3, 5.0084e-06
1331.3, 5.0098e-06
1333.3, 4.9716e-06
1335.3, 5.0745e-06
1337.3, 5.0868e-06
1339.3, 4.8905e-06
1341.3, 4.9792e-06
1343.3, 4.9548e-06
1345.3, 5.085e-06
1347.3, 5.03e-06
1349.3, 5.0064e-06
1351.3, 4.9569e-06
1353.4, 5.0557e-06
1355.4, 4.8675e-06
1357.4, 5.0408e-06
1359.4, 5.1176e-06
1361.4, 4.9497e-06
1363.4, 4.8721e-06
1365.4, 4.9581e-06
1367.4, 5.1318e-06
1369.4, 4.9734e-06
1371.4, 4.842e-06
1373.4, 4.9498e-06
1375.4, 4.9297e-06
1377.4, 5.0651e-06
1379.4, 4.84e-06
1381.4, 5.0694e-06
1383.4, 5.0319e-06
1385.4, 5.0126e-06
1387.4, 4.9028e-06
1389.4, 4.9691e-06
1391.4, 4.9834e-06
1393.4, 4.9266e-06
1395.4, 4.9493e-06
1397.4, 5.025e-06
1399.4, 5.1511e-06
1401.4, 5.0194e-06
1403.4, 5.0336e-06
1405.4, 4.9834e-06
1407.4, 5.124e-06
1409.4, 5.0812e-06
1411.4, 5.0612e-06
1413.4, 5.0658e-06
1415.4, 4.9905e-06
1417.4, 5.0375e-06
1419.4, 4.9734e-06
1421.4, 4.9224e-06
1423.4, 4.9165e-06
1425.4, 5.01e-06
1427.4, 4.9646e-06
1429.4, 4.953e-06
1431.4, 4.9709e-06
1433.4, 5.1169e-06
1435.4, 5.0322e-06
1437.4, 5.0885e-06
1439.4, 5.0404e-06
1441.4, 5.025e-06
1443.4, 5.0982e-06
1445.4, 5.0783e-06
1447.4, 5.054e-06
1449.4, 5.1018e-06
1451.4, 5.057e-06
1453.5, 5.083e-06
1455.5, 4.9683e-06
1457.5, 4.945e-06
1459.5, 5.013e-06
1461.5, 5.0811e-06
1463.5, 4.997e-06
1465.5, 4.9646e-06
1467.5, 5.1564e-06
1469.5, 5.0359e-06
1471.5, 5.0063e-06
1473.5, 5.1196e-06
1475.5, 4.9933e-06
1477.5, 4.9867e-06
1479.5, 4.856e-06
1481.5, 5.0259e-06
1483.5, 5.058e-06
1485.5, 5.0459e-06
1487.5, 5.0178e-06
1489.5, 5.1565e-06
1491.5, 4.9602e-06
1493.5, 5.1052e-06
1495.5, 4.9639e-06
1497.5, 5.1173e-06
1499.5, 4.9228e-06
1501.5, 5.0683e-06
1503.5, 5.083e-06
1505.5, 4.9559e-06
1507.5, 5.0707e-06
1509.5, 5.0404e-06
1511.5, 4.9518e-06
1513.5, 5.1658e-06
1515.5, 5.0561e-06
1517.5, 4.8719e-06
1519.5, 5.0059e-06
1521.5, 5.0719e-06
1523.5, 4.9815e-06
1525.5, 4.9476e-06
1527.5, 5.0072e-06
1529.5, 4.9282e-06
1531.5, 5.1587e-06
1533.5, 4.9944e-06
1535.5, 5.0079e-06
1537.5, 5.089e-06
1539.5, 5.021e-06
1541.5, 4.9637e-06
1543.5, 5.073e-06
1545.5, 5.002e-06
1547.5, 5.0571e-06
1549.5, 4.9592e-06
1551.5, 5.1581e-06
1553.6, 5.0061e-06
1555.6, 5.0361e-06
1557.6, 4.9937e-06
1559.6, 5.0733e-06
1561.6, 5.0728e-06
1563.6, 5.0883e-06
1565.6, 5.0227e-06
1567.6, 5.0498e-06
1569.6, 4.9304e-06
1571.6, 5.1083e-06
1573.6, 4.9334e-06
1575.6, 4.9676e-06
1577.6, 5.0154e-06
1579.6, 4.8725e-06
1581.6, 5.034e-06
1583.6, 5.0073e-06
1585.6, 5.1243e-06
1587.6, 5.1082e-06
1589.6, 5.0111e-06
1591.6, 4.9136e-06
1593.6, 5.0583e-06
1595.6, 5.0738e-06
1597.6, 4.9865e-06
1599.6, 5.1148e-06
1601.6, 5.0862e-06
1603.6, 5.0365e-06
1605.6, 5.1557e-06
1607.6, 5.0621e-06
1609.6, 5.0569e-06
1611.6, 5.0545e-06
1613.6, 4.9274e-06
1615.6, 4.9683e-06
1617.6, 5.0666e-06
1619.6, 4.9977e-06
1621.6, 5.0053e-06
1623.6, 5.0533e-06
1625.6, 5.1165e-06
1627.6, 4.9843e-06
1629.6, 5.1724e-06
1631.6, 5.0737e-06
1633.6, 5.0621e-06
1635.6, 5.0808e-06
1637.6, 5.0175e-06
1639.6, 4.8968e-06
1641.6, 5.0294e-06
1643.6, 5.1326e-06
1645.6, 5.0258e-06
1647.6, 5.0543e-06
1649.6, 5.0965e-06
1651.6, 4.911e-06
1653.7, 5.0917e-06
1655.7, 5.0282e-06
1657.7, 5.1081e-06
1659.7, 5.0097e-06
1661.7, 4.9451e-06
1663.7, 5.0288e-06
1665.7, 5.1343e-06
1667.7, 4.9726e-06
1669.7, 4.9968e-06
1671.7, 5.0626e-06
1673.7, 5.1485e-06
1675.7, 5.0942e-06
1677.7, 5.1175e-06
1679.7, 5.0457e-06
1681.7, 4.9915e-06
1683.7, 5.0444e-06
1685.7, 5.0589e-06
1687.7, 4.9959e-06
1689.7, 5.0947e-06
1691.7, 5.0744e-06
1693.7, 4.9696e-06
1695.7, 5.0538e-06
1697.7, 5.098e-06
1699.7, 5.0614e-06
1701.7, 5.0417e-06
1703.7, 5.0691e-06
1705.7, 5.0104e-06
1707.7, 5.1097e-06
1709.7, 5.0291e-06
1711.7, 5.1769e-06
1713.7, 5.0729e-06
1715.7, 5.0723e-06
1717.7, 4.8783e-06
1719.7, 5.1529e-06
1721.7, 5.1418e-06
1723.7, 5.1515e-06
1725.7, 5.0499e-06
1727.7, 5.1633e-06
1729.7, 5.0631e-06
1731.7, 5.0678e-06
1733.7, 5.0835e-06
1735.7, 4.8509e-06
1737.7, 5.0656e-06
1739.7, 4.9591e-06
1741.7, 5.1081e-06
1743.7, 5.1267e-06
1745.7, 5.0421e-06
1747.7, 5.1245e-06
1749.7, 4.9836e-06
1751.7, 5.0423e-06
1753.8, 5.0967e-06
1755.8, 5.0509e-06
1757.8, 5.0504e-06
1759.8, 5.068e-06
1761.8, 5.0358e-06
1763.8, 5.0598e-06
1765.8, 5.1292e-06
1767.8, 5.0085e-06
1769.8, 4.9271e-06
1771.8, 5.0114e-06
1773.8, 4.9905e-06
1775.8, 5.0706e-06
1777.8, 5.105e-06
1779.8, 5.1035e-06
1781.8, 5.0264e-06
1783.8, 5.129e-06
1785.8, 4.9371e-06
1787.8, 4.9599e-06
1789.8, 5.0303e-06
1791.8, 5.0599e-06
1793.8, 5.1317e-06
1795.8, 4.9548e-06
1797.8, 5.1184e-06
1799.8, 4.9322e-06
1801.8, 5.0769e-06
1803.8, 5.0321e-06
1805.8, 5.0732e-06
1807.8, 5.0554e-06
1809.8, 5.0177e-06
1811.8, 5.0017e-06
1813.8, 5.1658e-06
1815.8, 5.0731e-06
1817.8, 4.9068e-06
1819.8, 5.1298e-06
1821.8, 5.1842e-06
1823.8, 5.0526e-06
1825.8, 5.0168e-06
1827.8, 5.088e-06
1829.8, 5.0833e-06
1831.8, 5.0068e-06
1833.8, 5.0005e-06
1835.8, 5.0327e-06
1837.8, 5.0641e-06
1839.8, 4.9413e-06
1841.8, 5.0739e-06
1843.8, 5.1879e-06
1845.8, 5.0026e-06
1847.8, 5.1773e-06
1849.8, 4.898e-06
1851.8, 5.1035e-06
1853.9, 5.0674e-06
1855.9, 5.0362e-06
1857.9, 4.9437e-06
1859.9, 5.1278e-06
1861.9, 5.1068e-06
1863.9, 5.0434e-06
1865.9, 5.0121e-06
1867.9, 5.1176e-06
1869.9, 4.9883e-06
1871.9, 5.0131e-06
1873.9, 5.0071e-06
1875.9, 4.9586e-06
1877.9, 4.9988e-06
1879.9, 4.991e-06
1881.9, 5.0854e-06
1883.9, 5.1356e-06
1885.9, 4.8796e-06
1887.9, 5.071e-06
1889.9, 5.0677e-06
1891.9, 4.8925e-06
1893.9, 5.0541e-06
1895.9, 5.0349e-06
1897.9, 5.1224e-06
1899.9, 5.0339e-06
1901.9, 5.0164e-06
1903.9, 5.1186e-06
1905.9, 5.0408e-06
1907.9, 5.0082e-06
1909.9, 5.0924e-06
1911.9, 5.0228e-06
1913.9, 4.9534e-06
1915.9, 5.0357e-06
1917.9, 5.0997e-06
1919.9, 5.0842e-06
1921.9, 5.1491e-06
1923.9, 5.1584e-06
1925.9, 5.1065e-06
1927.9, 4.9591e-06
1929.9, 5.0899e-06
1931.9, 5.0452e-06
1933.9, 5.1112e-06
1935.9, 4.9157e-06
1937.9, 5.0713e-06
1939.9, 5.0694e-06
1941.9, 5.0795e-06
1943.9, 5.093e-06
1945.9, 5.0078e-06
1947.9, 5.1581e-06
1949.9, 5.0672e-06
1951.9, 5.0713e-06
1954.0, 5.0615e-06
1956.0, 5.0059e-06
1958.0, 5.0166e-06
1960.0, 4.8967e-06
1962.0, 5.0501e-06
1964.0, 5.0805e-06
1966.0, 5.0255e-06
1968.0, 5.0356e-06
1970.0, 5.0718e-06
1972.0, 4.9881e-06
1974.0, 5.102e-06
1976.0, 5.0229e-06
1978.0, 5.2441e-06
1980.0, 5.0873e-06
1982.0, 5.0754e-06
1984.0, 5.0397e-06
1986.0, 5.1594e-06
1988.0, 5.0256e-06
1990.0, 5.041e-06
1992.0, 5.0286e-06
1994.0, 5.0102e-06
1996.0, 5.1166e-06
1998.0, 5.0623e-06
2000.0, 5.022e-06
2002.0, 5.134e-06
2004.0, 5.1629e-06
2006.0, 5.0204e-06
2008.0, 5.1342e-06
2010.0, 4.9979e-06
2012.0, 5.084e-06
2014.0, 4.9973e-06
2016.0, 4.9931e-06
2018.0, 5.0287e-06
2020.0, 5.1013e-06
2022.0, 5.1168e-06
2024.0, 5.0239e-06
2026.0, 4.9608e-06
2028.0, 5.0964e-06
2030.0, 5.0536e-06
2032.0, 5.0002e-06
2034.0, 4.9361e-06
2036.0, 5.0683e-06
2038.0, 5.0748e-06
2040.0, 5.1448e-06
2042.0, 5.0148e-06
2044.0, 5.0248e-06
2046.0, 5.066e-06
2048.0, 5.0085e-06
2050.0, 5.0701e-06
2052.0, 5.1635e-06
2054.1, 5.0501e-06
2056.1, 4.9966e-06
2058.1, 2.388e-06
2060.1, -1.437e-08
2062.1, -1.865e-08
2064.1, -1.753e-08
2066.1, -2.133e-08
2068.1, -2.186e-08
2070.1, -2.155e-08
2072.1, -2.082e-08
2074.1, -1.799e-08
2076.1, -1.758e-08
2078.1, -1.936e-08
2080.1, -1.757e-08
2082.1, -2.221e-08
2084.1, -2.215e-08
2086.1, -2.002e-08
2088.1, -2.109e-08
2090.1, -1.834e-08
2092.1, -2.113e-08
2094.1, -2.012e-08
2096.1, -2.165e-08
2098.1, -1.847e-08
2100.1, -1.728e-08
2102.1, -1.799e-08
2104.1, -2.124e-08
2106.1, -2.275e-08
2108.1, -2.245e-08
2110.1, -1.841e-08
2112.1, -1.948e-08
2114.1, -1.712e-08
2116.1, -1.778e-08
2118.1, -1.78e-08
2120.1, -1.861e-08
2122.1, -1.605e-08
2124.1, -1.884e-08
2126.1, -2.283e-08
2128.1, -2.117e-08
2130.1, -2.193e-08
2132.1, -2.281e-08
2134.1, -2.116e-08
2136.1, -2.305e-08
2138.1, -2.318e-08
2140.1, -2.332e-08
2142.1, -2.792e-08
2144.1, -2.605e-08
2146.1, -2.261e-08
2148.1, -2.315e-08
2150.1, -2.03e-08
2152.1, -2.339e-08
2154.2, -2.127e-08
2156.2, -1.894e-08
2158.2, -1.882e-08
2160.2, -2.189e-08
2162.2, -2.261e-08
2164.2, -2.089e-08
2166.2, -2.028e-08
2168.2, -1.878e-08
2170.2, -2.137e-08
2172.2, -2.405e-08
2174.2, -2.363e-08
2176.2, -1.994e-08
2178.2, -2.468e-08
2180.2, -2.344e-08
2182.2, -2.34e-08
2184.2, -2.183e-08
2186.2, -2.039e-08
2188.2, -2.171e-08
2190.2, -2.103e-08
2192.2, -2.331e-08
2194.2, -2.1e-08
2196.2, -2.336e-08
2198.2, -2.199e-08
2200.2, -1.866e-08
2202.2, -2.145e-08
2204.2, -2.31e-08
2206.2, -2.135e-08
2208.2, -1.969e-08
2210.2, -2.257e-08
2212.2, -2.428e-08
2214.2, -2.417e-08
2216.2, -2.237e-08
2218.2, -2.235e-08
2220.2, -2.108e-08
2222.2, -2.324e-08
2224.2, -2.192e-08
2226.2, -2.207e-08
2228.2, -2e-08
2230.2, -2.328e-08
2232.2, -2.116e-08
2234.2, -2.003e-08
2236.2, -2.368e-08
2238.2, -1.95e-08
2240.2, -2.305e-08
2242.2, -2.094e-08
2244.2, -2.068e-08
2246.2, -2.427e-08
2248.2, -2.258e-08
2250.2, -2.175e-08
2252.2, -1.822e-08
2254.3, -2.338e-08
2256.3, -2.267e-08
2258.3, -2.241e-08
2260.3, -2.286e-08
2262.3, -2.521e-08
2264.3, -2.066e-08
2266.3, -2.15e-08
2268.3, -1.763e-08
2270.3, -1.742e-08
2272.3, -2.098e-08
2274.3, -1.993e-08
2276.3, -1.583e-08
2278.3, -1.939e-08
2280.3, -2.02e-08
2282.3, -2.207e-08
2284.3, -2.018e-08
2286.3, -1.983e-08
2288.3, -1.943e-08
2290.3, -1.85e-08
2292.3, -2.138e-08
2294.3, -2.355e-08
2296.3, -2.18e-08
2298.3, -1.867e-08
2300.3, -2.171e-08
2302.3, -2.151e-08
2304.3, -2.202e-08
2306.3, -2.326e-08
2308.3, -2.222e-08
2310.3, -2.148e-08
2312.3, -2.202e-08
2314.3, -2.062e-08
2316.3, -2.155e-08
2318.3, -2.266e-08
2320.3, -2.115e-08
2322.3, -2.114e-08
2324.3, -2.391e-08
2326.3, -2.15e-08
2328.3, -1.986e-08
2330.3, -1.634e-08
2332.3, -2.191e-08
2334.3, -2.223e-08
2336.3, -2.366e-08
2338.3, -2.196e-08
2340.3, -2.021e-08
2342.3, -1.889e-08
2344.3, -1.862e-08
2346.3, -2.123e-08
2348.3, -2.172e-08
2350.3, -2.272e-08
2352.3, -2.055e-08
2354.4, -2.226e-08
2356.4, -2.572e-08
2358.4, -2.361e-08
2360.4, -2.151e-08
2362.4, -2.22e-08
2364.4, -2.487e-08
2366.4, -2.58e-08
2368.4, -2.667e-08
2370.4, -2.496e-08
2372.4, -2.377e-08
2374.4, -2.565e-08
2376.4, -2.811e-08
2378.4, -2.558e-08
2380.4, -2.374e-08
2382.4, -2.47e-08
2384.4, -2.699e-08
2386.4, -2.501e-08
2388.4, -2.604e-08
2390.4, -2.852e-08
2392.4, -2.613e-08
2394.4, -2.68e-08
2396.4, -2.651e-08
2398.4, -2.326e-08
2400.4, -2.153e-08
2402.4, -2.43e-08
2404.4, -2.651e-08
2406.4, -2.206e-08
2408.4, -2.642e-08
2410.4, -2.447e-08
2412.4, -2.416e-08
2414.4, -2.663e-08
2416.4, -2.49e-08
2418.4, -2.71e-08
2420.4, -3.034e-08
2422.4, -2.347e-08
2424.4, -2.296e-08
2426.4, -2.412e-08
2428.4, -1.953e-08
2430.4, -2.437e-08
2432.4, -2.425e-08
2434.4, -2.431e-08
2436.4, -2.439e-08
2438.4, -2.584e-08
2440.4, -2.144e-08
2442.4, -2.685e-08
2444.4, -2.894e-08
2446.4, -2.377e-08
2448.4, -2.463e-08
2450.4, -2.553e-08
2452.4, -2.13e-08
2454.5, -2.309e-08
2456.5, -2.162e-08
2458.5, -2.444e-08
2460.5, -2.57e-08
2462.5, -2.692e-08
2464.5, -2.882e-08
2466.5, -2.734e-08
2468.5, -2.453e-08
2470.5, -2.456e-08
2472.5, -2.685e-08
2474.5, -2.508e-08
2476.5, -2.851e-08
2478.5, -2.219e-08
2480.5, -2.487e-08
2482.5, -2.395e-08
2484.5, -2.152e-08
2486.5, -2.471e-08
2488.5, -1.987e-08
2490.5, -1.884e-08
2492.5, -2.183e-08
2494.5, -1.976e-08
2496.5, -1.674e-08
2498.5, -2.267e-08
2500.5, -2.013e-08
2502.5, -2.295e-08
2504.5, -2.138e-08
2506.5, -2.291e-08
2508.5, -2.059e-08
2510.5, -2.337e-08
2512.5, -1.96e-08
2514.5, -1.969e-08
2516.5, -2.568e-08
2518.5, -2.3e-08
2520.5, -2.122e-08
2522.5, -2.259e-08
2524.5, -1.916e-08
2526.5, -2.208e-08
2528.5, -2.174e-08
2530.5, -2.274e-08
2532.5, -2.387e-08
2534.5, -2.138e-08
2536.5, -2.089e-08
2538.5, -2.4e-08
2540.5, -2.266e-08
2542.5, -2.181e-08
2544.5, -2.423e-08
2546.5, -2.57e-08
2548.5, -2.21e-08
2550.5, -1.971e-08
2552.5, -2.494e-08
2554.6, -2.061e-08
2556.6, -2.148e-08
2558.6, -2.117e-08
2560.6, -2.159e-08
2562.6, -2.257e-08
2564.6, -2.356e-08
2566.6, -2.182e-08
2568.6, -2.147e-08
2570.6, -1.827e-08
2572.6, -1.937e-08
2574.6, -1.901e-08
2576.6, -1.848e-08
2578.6, -1.634e-08
2580.6, -1.768e-08
2582.6, -2.244e-08
2584.6, -2.126e-08
2586.6, -2.387e-08
2588.6, -1.684e-08
2590.6, -1.903e-08
2592.6, -1.991e-08
2594.6, -2.448e-08
2596.6, -2.24e-08
2598.6, -2.446e-08
2600.6, -2.333e-08
2602.6, -2.062e-08
2604.6, -2.338e-08
2606.6, -2.143e-08
2608.6, -2.084e-08
2610.6, -2.005e-08
2612.6, -2.664e-08
2614.6, -2.272e-08
2616.6, -2.212e-08
2618.6, -2.558e-08
2620.6, -2.337e-08
2622.6, -2.389e-08
2624.6, -1.944e-08
2626.6, -2.334e-08
2628.6, -2.459e-08
2630.6, -2.323e-08
2632.6, -2.184e-08
2634.6, -2.329e-08
2636.6, -2.531e-08
2638.6, -2.36e-08
2640.6, -2.224e-08
2642.6, -2.385e-08
2644.6, -2.575e-08
2646.6, -2.09e-08
2648.6, -2.22e-08
2650.6, -2.304e-08
2652.6, -2.532e-08
2654.7, -2.063e-08
2656.7, -2.205e-08
2658.7, -2.314e-08
2660.7, -1.811e-08
2662.7, -2.525e-08
2664.7, -2.239e-08
2666.7, -2.234e-08
2668.7, -1.955e-08
2670.7, -1.716e-08
2672.7, -2.324e-08
2674.7, -2.416e-08
2676.7, -1.903e-08
2678.7, -1.843e-08
2680.7, -2.213e-08
2682.7, -2.288e-08
2684.7, -2.289e-08
2686.7, -2.334e-08
2688.7, -2.111e-08
2690.7, -2.347e-08
2692.7, -1.978e-08
2694.7, -1.925e-08
2696.7, -1.827e-08
2698.7, -1.896e-08
2700.7, -2.112e-08
2702.7, -2.164e-08
2704.7, -2.442e-08
2706.7, -2.362e-08
2708.7, -2.362e-08
2710.7, -2.11e-08
2712.7, -2.064e-08
2714.7, -2.384e-08
2716.7, -2.259e-08
2718.7, -2.334e-08
2720.7, -1.956e-08
2722.7, -2.046e-08
2724.7, -2.237e-08
2726.7, -2.509e-08
2728.7, -2.755e-08
2730.7, -2.503e-08
2732.7, -2.307e-08
2734.7, -2.38e-08
2736.7, -2.62e-08
2738.7, -2.343e-08
2740.7, -2.167e-08
2742.7, -2.347e-08
2744.7, -2.213e-08
2746.7, -2.373e-08
2748.7, -2.22e-08
2750.7, -2.054e-08
2752.7, -2.371e-08
2754.8, -2.33e-08
2756.8, -2.586e-08
2758.8, -2.331e-08
2760.8, -2.312e-08
2762.8, -2.549e-08
2764.8, -2.573e-08
2766.8, -2.629e-08
2768.8, -2.345e-08
2770.8, -2.213e-08
2772.8, -2.288e-08
2774.8, -2.285e-08
2776.8, -2.576e-08
2778.8, -2.31e-08
2780.8, -2.363e-08
2782.8, -2.54e-08
2784.8, -2.472e-08
2786.8, -2.574e-08
2788.8, -2.827e-08
2790.8, -2.452e-08
2792.8, -2.277e-08
2794.8, -2.293e-08
2796.8, -2.583e-08
2798.8, -1.951e-08
2800.8, -2.315e-08
2802.8, -2.54e-08
2804.8, -2.44e-08
2806.8, -2.547e-08
2808.8, -2.3e-08
2810.8, -2.519e-08
2812.8, -2.695e-08
2814.8, -2.635e-08
2816.8, -2.489e-08
2818.8, -2.26e-08
2820.8, -2.225e-08
2822.8, -2.513e-08
2824.8, -2.332e-08
2826.8, -2.519e-08
2828.8, -2.384e-08
2830.8, -2.352e-08
2832.8, -2.414e-08
2834.8, -2.294e-08
2836.8, -2.361e-08
2838.8, -2.218e-08
2840.8, -2.041e-08
2842.8, -2.167e-08
2844.8, -1.988e-08
2846.8, -2.648e-08
2848.8, -2.498e-08
2850.8, -2.597e-08
2852.8, -2.805e-08
2854.9, -2.742e-08
2856.9, -2.562e-08
2858.9, -2.744e-08
2860.9, -2.496e-08
2862.9, -1.933e-08
2864.9, -2.114e-08
2866.9, -2.098e-08
2868.9, -2.577e-08
2870.9, -2.246e-08
2872.9, -2.57e-08
2874.9, -2.853e-08
2876.9, -2.477e-08
2878.9, -2.432e-08
2880.9, -2.858e-08
2882.9, -2.478e-08
2884.9, -2.754e-08
2886.9, -2.727e-08
2888.9, -2.66e-08
2890.9, -2.699e-08
2892.9, -2.928e-08
2894.9, -2.694e-08
2896.9, -2.488e-08
2898.9, -2.482e-08
2900.9, -2.84e-08
2902.9, -2.874e-08
2904.9, -3.02e-08
2906.9, -2.684e-08
2908.9, -2.343e-08
2910.9, -2.11e-08
2912.9, -2.797e-08
2914.9, -2.525e-08
2916.9, -2.274e-08
2918.9, -2.509e-08
2920.9, -2.449e-08
2922.9, -2.506e-08
2924.9, -2.673e-08
2926.9, -2.865e-08
2928.9, -2.606e-08
2930.9, -2.687e-08
2932.9, -2.649e-08
2934.9, -2.634e-08
2936.9, -2.678e-08
2938.9, -2.632e-08
2940.9, -2.298e-08
2942.9, -2.11e-08
2944.9, -2.57e-08
2946.9, -2.546e-08
2948.9, -2.736e-08
2950.9, -2.398e-08
2952.9, -2.298e-08
2955.0, -2.836e-08
2957.0, -2.477e-08
2959.0, -2.564e-08
2961.0, -2.571e-08
2963.0, -2.753e-08
2965.0, -2.759e-08
2967.0, -2.792e-08
2969.0, -3.023e-08
2971.0, -3.276e-08
2973.0, -3.176e-08
2975.0, -2.581e-08
2977.0, -2.709e-08
2979.0, -2.61e-08
2981.0, -2.608e-08
2983.0, -2.365e-08
2985.0, -2.696e-08
2987.0, -2.573e-08
2989.0, -2.933e-08
2991.0, -2.431e-08
2993.0, -2.754e-08
2995.0, -2.718e-08
2997.0, -2.487e-08
2999.0, -2.854e-08
3001.0, -2.648e-08
3003.0, -2.805e-08
3005.0, -2.892e-08
3007.0, -2.828e-08
3009.0, -2.55e-08
3011.0, -1.981e-08
3013.0, -2.458e-08
3015.0, -1.891e-08
3017.0, -1.996e-08
3019.0, -2.438e-08
3021.0, -2.175e-08
3023.0, -2.113e-08
3025.0, -2.662e-08
3027.0, -2.191e-08
3029.0, -2.342e-08
3031.0, -2.316e-08
3033.0, -2.553e-08
3035.0, -1.898e-08
3037.0, -2.019e-08
3039.0, -2.242e-08
3041.0, -2.284e-08
3043.0, -1.966e-08
3045.0, -2.109e-08
3047.0, -2.335e-08
3049.0, -2.144e-08
3051.0, -2.342e-08
3053.0, -2.358e-08
3055.1, -2.132e-08
3057.1, -2.212e-08
3059.1, -2.382e-08
3061.1, -2.095e-08
3063.1, -2.624e-08
3065.1, -2.852e-08
3067.1, -2.918e-08
3069.1, -2.543e-08
3071.1, -2.843e-08
3073.1, -2.21e-08
3075.1, -2.314e-08
3077.1, -2.235e-08
3079.1, -2.315e-08
3081.1, -3.223e-08
3083.1, -2.533e-08
3085.1, -2.277e-08
3087.1, -2.5e-08
3089.1, -2.404e-08
3091.1, -2.121e-08
3093.1, -2.289e-08
3095.1, -2.352e-08
3097.1, -2.241e-08
3099.1, -2.084e-08
3101.1, -2.393e-08
3103.1, -2.114e-08
3105.1, -2.471e-08
3107.1, -2.152e-08
3109.1, -2.318e-08
3111.1, -2.193e-08
3113.1, -2.187e-08
3115.1, 4.8687e-06
3117.1, 4.89e-06
3119.1, 4.8538e-06
3121.1, 4.9117e-06
3123.1, 4.9695e-06
3125.1, 4.9375e-06
3127.1, 4.9897e-06
3129.1, 4.6743e-06
3131.1, 4.8071e-06
3133.1, 4.7803e-06
3135.1, 4.7902e-06
3137.1, 4.6384e-06
3139.1, 4.8511e-06
3141.1, 4.8771e-06
3143.1, 4.9374e-06
3145.1, 4.9705e-06
3147.1, 4.7626e-06
3149.1, 4.7189e-06
3151.1, 4.8913e-06
3153.1, 4.8208e-06
3155.2, 4.8835e-06
3157.2, 4.9055e-06
3159.2, 4.8181e-06
3161.2, 4.9759e-06
3163.2, 4.9197e-06
3165.2, 4.809e-06
3167.2, 4.8214e-06
3169.2, 4.9252e-06
3171.2, 4.8329e-06
3173.2, 4.9524e-06
3175.2, 5.0612e-06
3177.2, 4.8025e-06
3179.2, 4.6935e-06
3181.2, 4.9171e-06
3183.2, 4.8582e-06
3185.2, 4.9397e-06
3187.2, 4.9594e-06
3189.2, 4.8587e-06
3191.2, 4.9058e-06
3193.2, 4.9777e-06
3195.2, 5.0722e-06
3197.2, 4.9066e-06
3199.2, 4.8211e-06
3201.2, 4.8439e-06
3203.2, 4.9239e-06
3205.2, 4.9131e-06
3207.2, 4.9945e-06
3209.2, 4.8718e-06
3211.2, 4.9961e-06
3213.2, 4.9355e-06
3215.2, 4.718e-06
3217.2, 4.9737e-06
3219.2, 4.8949e-06
3221.2, 4.9772e-06
3223.2, 4.8478e-06
3225.2, 5.0388e-06
3227.2, 4.9758e-06
3229.2, 4.7838e-06
3231.2, 4.837e-06
3233.2, 4.8543e-06
3235.2, 4.9074e-06
3237.2, 4.9432e-06
3239.2, 4.8382e-06
3241.2, 5.0024e-06
3243.2, 4.931e-06
3245.2, 5.0313e-06
3247.2, 4.9531e-06
3249.2, 4.7887e-06
3251.2, 4.8478e-06
3253.2, 5.012e-06
3255.3, 4.9369e-06
3257.3, 4.9101e-06
3259.3, 4.9252e-06
3261.3, 4.8645e-06
3263.3, 4.9969e-06
3265.3, 4.9688e-06
3267.3, 4.8533e-06
3269.3, 4.8593e-06
3271.3, 4.8785e-06
3273.3, 4.8943e-06
3275.3, 4.9948e-06
3277.3, 4.8344e-06
3279.3, 5.0341e-06
3281.3, 5.1162e-06
3283.3, 4.8825e-06
3285.3, 4.9186e-06
3287.3, 4.9476e-06
3289.3, 4.9674e-06
3291.3, 5.0667e-06
3293.3, 4.9613e-06
3295.3, 4.9628e-06
3297.3, 4.9862e-06
3299.3, 4.8833e-06
3301.3, 4.8349e-06
3303.3, 4.9829e-06
3305.3, 4.8886e-06
3307.3, 4.9405e-06
3309.3, 5.1233e-06
3311.3, 4.993e-06
3313.3, 4.9386e-06
3315.3, 5.0818e-06
3317.3, 5.0663e-06
3319.3, 4.9085e-06
3321.3, 4.9791e-06
3323.3, 4.9492e-06
3325.3, 4.8501e-06
3327.3, 4.9685e-06
3329.3, 4.8759e-06
3331.3, 4.9885e-06
3333.3, 4.9348e-06
3335.3, 4.921e-06
3337.3, 4.9052e-06
3339.3, 4.9099e-06
3341.3, 5.0761e-06
3343.3, 4.836e-06
3345.3, 5.0522e-06
3347.3, 5.0008e-06
3349.3, 5.162e-06
3351.3, 5.0188e-06
3353.3, 4.9591e-06
3355.4, 4.9603e-06
3357.4, 4.8578e-06
3359.4, 5.0754e-06
3361.4, 4.9332e-06
3363.4, 5.0766e-06
3365.4, 4.9715e-06
3367.4, 4.9667e-06
3369.4, 5.1333e-06
3371.4, 5.0796e-06
3373.4, 4.9854e-06
3375.4, 5.0587e-06
3377.4, 4.9531e-06
3379.4, 5.0427e-06
3381.4, 4.9094e-06
3383.4, 5.0314e-06
3385.4, 5.0742e-06
3387.4, 4.9761e-06
3389.4, 5.0339e-06
3391.4, 4.999e-06
3393.4, 5.0474e-06
3395.4, 4.9121e-06
3397.4, 5.0614e-06
3399.4, 4.8841e-06
3401.4, 4.9426e-06
3403.4, 4.9609e-06
3405.4, 4.9796e-06
3407.4, 5.1556e-06
3409.4, 5.0536e-06
3411.4, 4.9288e-06
3413.4, 5.0563e-06
3415.4, 5.0281e-06
3417.4, 4.9619e-06
3419.4, 5.0241e-06
3421.4, 4.954e-06
3423.4, 4.9481e-06
3425.4, 5.0087e-06
3427.4, 4.802e-06
3429.4, 5.0338e-06
3431.4, 5.009e-06
3433.4, 5.0324e-06
3435.4, 4.9186e-06
3437.4, 5.0174e-06
3439.4, 4.9816e-06
3441.4, 5.0088e-06
3443.4, 4.8737e-06
3445.4, 5.0368e-06
3447.4, 4.9375e-06
3449.4, 5.0314e-06
3451.4, 4.8853e-06
3453.4, 4.9136e-06
3455.5, 4.9446e-06
3457.5, 5.0191e-06
3459.5, 5.0429e-06
3461.5, 5.0406e-06
3463.5, 4.9884e-06
3465.5, 5.0312e-06
3467.5, 5.0482e-06
3469.5, 5.0403e-06
3471.5, 5.0188e-06
3473.5, 5.0558e-06
3475.5, 5.0028e-06
3477.5, 4.9534e-06
3479.5, 5.0802e-06
3481.5, 5.1059e-06
3483.5, 4.9441e-06
3485.5, 4.9215e-06
3487.5, 4.9813e-06
3489.5, 5.0122e-06
3491.5, 4.7677e-06
3493.5, 4.9768e-06
3495.5, 5.0302e-06
3497.5, 4.9472e-06
3499.5, 4.9886e-06
3501.5, 4.9488e-06
3503.5, 5.0212e-06
3505.5, 5.0244e-06
3507.5, 5.021e-06
3509.5, 5.0185e-06
3511.5, 4.9486e-06
3513.5, 4.9765e-06
3515.5, 5.0289e-06
3517.5, 5.0206e-06
3519.5, 5.0502e-06
3521.5, 4.9665e-06
3523.5, 5.0425e-06
3525.5, 4.9218e-06
3527.5, 5.1338e-06
3529.5, 5.1087e-06
3531.5, 5.1061e-06
3533.5, 4.9413e-06
3535.5, 4.9903e-06
3537.5, 4.9019e-06
3539.5, 5.1598e-06
3541.5, 4.9019e-06
3543.5, 4.8658e-06
3545.5, 4.9592e-06
3547.5, 5.0092e-06
3549.5, 5.027e-06
3551.5, 5.1005e-06
3553.5, 4.8266e-06
3555.6, 5.0738e-06
3557.6, 4.923e-06
3559.6, 5.0747e-06
3561.6, 5.0976e-06
3563.6, 5.0055e-06
3565.6, 5.0538e-06
3567.6, 5.1235e-06
3569.6, 5.082e-06
3571.6, 4.8626e-06
3573.6, 4.9879e-06
3575.6, 4.9875e-06
3577.6, 5.0404e-06
3579.6, 5.0443e-06
3581.6, 4.9242e-06
3583.6, 4.9307e-06
3585.6, 5.0256e-06
3587.6, 4.9485e-06
3589.6, 4.9536e-06
3591.6, 5.042e-06
3593.6, 5.0639e-06
3595.6, 5.1256e-06
3597.6, 5.1294e-06
3599.6, 5.0871e-06
3601.6, 5.0932e-06
3603.6, 5.0842e-06
3605.6, 5.0593e-06
3607.6, 5.0268e-06
3609.6, 5.023e-06
3611.6, 4.9927e-06
3613.6, 5.1017e-06
3615.6, 4.9833e-06
3617.6, 5.1221e-06
3619.6, 4.9078e-06
3621.6, 4.9961e-06
3623.6, 5.0944e-06
3625.6, 5.1334e-06
3627.6, 4.9384e-06
3629.6, 4.9337e-06
3631.6, 5.0558e-06
3633.6, 5.1987e-06
3635.6, 4.9101e-06
3637.6, 5.006e-06
3639.6, 5.0302e-06
3641.6, 5.0967e-06
3643.6, 5.1494e-06
3645.6, 5.0586e-06
3647.6, 4.8972e-06
3649.6, 5.0569e-06
3651.6, 5.0756e-06
3653.6, 5.0439e-06
3655.7, 5.02e-06
3657.7, 5.109e-06
3659.7, 4.9771e-06
3661.7, 5.0261e-06
3663.7, 5.1071e-06
3665.7, 5.0754e-06
3667.7, 4.9494e-06
3669.7, 4.9946e-06
3671.7, 5.1019e-06
3673.7, 5.1078e-06
3675.7, 5.0422e-06
3677.7, 4.9719e-06
3679.7, 4.9808e-06
3681.7, 4.9964e-06
3683.7, 5.1358e-06
3685.7, 4.995e-06
3687.7, 4.9159e-06
3689.7, 5.0587e-06
3691.7, 5.1083e-06
3693.7, 4.9875e-06
3695.7, 4.9624e-06
3697.7, 5.0866e-06
3699.7, 5.0303e-06
3701.7, 5.1104e-06
3703.7, 4.9935e-06
3705.7, 4.9512e-06
3707.7, 4.9496e-06
3709.7, 4.9976e-06
3711.7, 5.0539e-06
3713.7, 4.964e-06
3715.7, 4.9756e-06
3717.7, 4.9627e-06
3719.7, 5.1125e-06
3721.7, 5.123e-06
3723.7, 5.0275e-06
3725.7, 5.0338e-06
3727.7, 5.172e-06
3729.7, 5.0488e-06
3731.7, 5.1131e-06
3733.7, 5.1013e-06
3735.7, 5.0452e-06
3737.7, 5.0871e-06
3739.7, 5.0271e-06
3741.7, 4.9852e-06
3743.7, 5.1016e-06
3745.7, 5.0564e-06
3747.7, 4.9213e-06
3749.7, 5.1237e-06
3751.7, 5.1514e-06
3753.7, 5.0216e-06
3755.8, 5.0024e-06
3757.8, 5.0392e-06
3759.8, 5.0947e-06
3761.8, 5.0457e-06
3763.8, 5.0815e-06
3765.8, 5.0707e-06
3767.8, 5.0618e-06
3769.8, 4.9583e-06
3771.8, 4.9367e-06
3773.8, 5.0862e-06
3775.8, 5.0011e-06
3777.8, 5.0285e-06
3779.8, 5.0399e-06
3781.8, 5.0878e-06
3783.8, 5.0567e-06
3785.8, 4.9885e-06
3787.8, 5.0918e-06
3789.8, 5.0505e-06
3791.8, 5.0588e-06
3793.8, 5.0884e-06
3795.8, 4.9977e-06
3797.8, 5.1447e-06
3799.8, 4.9874e-06
3801.8, 4.9649e-06
3803.8, 5.1176e-06
3805.8, 5.0359e-06
3807.8, 5.0935e-06
3809.8, 4.9948e-06
3811.8, 5.1233e-06
3813.8, 4.9729e-06
3815.8, 4.8926e-06
3817.8, 5.1077e-06
3819.8, 4.9196e-06
3821.8, 5.1168e-06
3823.8, 4.9211e-06
3825.8, 5.017e-06
3827.8, 5.13e-06
3829.8, 4.9019e-06
3831.8, 5.1111e-06
3833.8, 5.0477e-06
3835.8, 5.1369e-06
3837.8, 5.0786e-06
3839.8, 4.9168e-06
3841.8, 5.0553e-06
3843.8, 5.0373e-06
3845.8, 5.1213e-06
3847.8, 4.9932e-06
3849.8, 5.0251e-06
3851.8, 4.9941e-06
3853.8, 5.0089e-06
3855.9, 5.1303e-06
3857.9, 5.0873e-06
3859.9, 5.101e-06
3861.9, 4.9939e-06
3863.9, 5.0244e-06
3865.9, 5.0033e-06
3867.9, 5.149e-06
3869.9, 5.1348e-06
3871.9, 5.0764e-06
3873.9, 5.0515e-06
3875.9, 5.1155e-06
3877.9, 5.163e-06
3879.9, 5.0508e-06
3881.9, 5.0019e-06
3883.9, 5.0212e-06
3885.9, 5.1175e-06
3887.9, 4.9962e-06
3889.9, 5.0289e-06
3891.9, 5.0214e-06
3893.9, 5.0873e-06
3895.9, 4.9913e-06
3897.9, 5.069e-06
3899.9, 4.9098e-06
3901.9, 5.104e-06
3903.9, 5.1174e-06
3905.9, 5.0856e-06
3907.9, 4.9579e-06
3909.9, 5.0854e-06
3911.9, 5.0182e-06
3913.9, 5.171e-06
3915.9, 5.0612e-06
3917.9, 5.0896e-06
3919.9, 4.9654e-06
3921.9, 5.0486e-06
3923.9, 5.1652e-06
3925.9, 5.0235e-06
3927.9, 4.9584e-06
3929.9, 4.9968e-06
3931.9, 4.9827e-06
3933.9, 5.0334e-06
3935.9, 5.1207e-06
3937.9, 4.9769e-06
3939.9, 5.084e-06
3941.9, 5.1084e-06
3943.9, 5.009e-06
3945.9, 4.9544e-06
3947.9, 5.0538e-06
3949.9, 5.0705e-06
3951.9, 5.0393e-06
3953.9, 5.0409e-06
3956.0, 4.9775e-06
3958.0, 5.0313e-06
3960.0, 5.118e-06
3962.0, 5.0547e-06
3964.0, 5.105e-06
3966.0, 5.0949e-06
3968.0, 5.0226e-06
3970.0, 5.1078e-06
3972.0, 4.9812e-06
3974.0, 5.0306e-06
3976.0, 5.0626e-06
3978.0, 5.0953e-06
3980.0, 5.0978e-06
3982.0, 5.0806e-06
3984.0, 5.1198e-06
3986.0, 5.0318e-06
3988.0, 5.0266e-06
3990.0, 5.1519e-06
3992.0, 5.0071e-06
3994.0, 5.0426e-06
3996.0, 5.1718e-06
3998.0, 5.1157e-06
4000.0, 5.0985e-06
4002.0, 5.1273e-06
4004.0, 4.9896e-06
4006.0, 4.9168e-06
4008.0, 5.1002e-06
4010.0, 5.0888e-06
4012.0, 5.0309e-06
4014.0, 5.0411e-06
4016.0, 5.0947e-06
4018.0, 5.0618e-06
4020.0, 5.0612e-06
4022.0, 5.0599e-06
4024.0, 5.0501e-06
4026.0, 4.8543e-06
4028.0, 5.0842e-06
4030.0, 5.123e-06
4032.0, 4.9503e-06
4034.0, 5.0011e-06
4036.0, 4.999e-06
4038.0, 5.0534e-06
4040.0, 5.0433e-06
4042.0, 4.992e-06
4044.0, 5.0022e-06
4046.0, 4.9857e-06
4048.0, 5.0552e-06
4050.0, 5.0112e-06
4052.0, 5.0972e-06
4054.0, 5.0917e-06
4056.1, 5.1557e-06
4058.1, 5.0413e-06
4060.1, 5.1412e-06
4062.1, 4.942e-06
4064.1, 5.0383e-06
4066.1, 5.016e-06
4068.1, 5.0502e-06
4070.1, 5.0458e-06
4072.1, 5.1148e-06
4074.1, 4.9654e-06
4076.1, 5.0157e-06
4078.1, 5.0969e-06
4080.1, 5.1313e-06
4082.1, 4.916e-06
4084.1, 4.9652e-06
4086.1, 5.1126e-06
4088.1, 4.9321e-06
4090.1, 5.0404e-06
4092.1, 5.1469e-06
4094.1, 5.0594e-06
4096.1, 5.0621e-06
4098.1, 5.0696e-06
4100.1, 4.9837e-06
4102.1, 4.985e-06
4104.1, 5.0433e-06
4106.1, 4.9938e-06
4108.1, 4.9829e-06
4110.1, 5.1954e-06
4112.1, 5.0362e-06
4114.1, 5.051e-06
4116.1, 2.35e-09
4118.1, -1.966e-08
4120.1, -2.336e-08
4122.1, -2.235e-08
4124.1, -1.753e-08
4126.1, -2.21e-08
4128.1, -2.278e-08
4130.1, -2.139e-08
4132.1, -2.208e-08
4134.1, -1.892e-08
4136.1, -1.887e-08
4138.1, -1.729e-08
4140.1, -1.781e-08
4142.1, -1.966e-08
4144.1, -1.949e-08
4146.1, -1.753e-08
4148.1, -2.05e-08
4150.1, -1.804e-08
4152.1, -1.778e-08
4154.1, -1.807e-08
4156.2, -1.931e-08
4158.2, -1.866e-08
4160.2, -2.039e-08
4162.2, -1.837e-08
4164.2, -2.308e-08
4166.2, -1.928e-08
4168.2, -2.099e-08
4170.2, -1.915e-08
4172.2, -1.74e-08
4174.2, -1.745e-08
4176.2, -1.801e-08
4178.2, -1.714e-08
4180.2, -1.616e-08
4182.2, -1.848e-08
4184.2, -1.7e-08
4186.2, -1.628e-08
4188.2, -1.732e-08
4190.2, -1.557e-08
4192.2, -1.845e-08
4194.2, -1.956e-08
4196.2, -1.938e-08
4198.2, -2.261e-08
4200.2, -2.167e-08
4202.2, -1.943e-08
4204.2, -1.961e-08
4206.2, -2.094e-08
4208.2, -2.098e-08
4210.2, -1.853e-08
4212.2, -1.992e-08
4214.2, -1.921e-08
4216.2, -1.956e-08
4218.2, -2.14e-08
4220.2, -1.961e-08
4222.2, -1.902e-08
4224.2, -2.068e-08
4226.2, -1.826e-08
4228.2, -2.069e-08
4230.2, -2.128e-08
4232.2, -2.165e-08
4234.2, -2.696e-08
4236.2, -2.243e-08
4238.2, -2.216e-08
4240.2, -1.891e-08
4242.2, -2.365e-08
4244.2, -2.27e-08
4246.2, -2.263e-08
4248.2, -2.224e-08
4250.2, -2.339e-08
4252.2, -2.198e-08
4254.2, -2.182e-08
4256.3, -1.83e-08
4258.3, -1.847e-08
4260.3, -1.962e-08
4262.3, -2.183e-08
4264.3, -2.061e-08
4266.3, -1.787e-08
4268.3, -2.146e-08
4270.3, -2.189e-08
4272.3, -2.348e-08
4274.3, -2.165e-08
4276.3, -2.566e-08
4278.3, -2.197e-08
4280.3, -2.1e-08
4282.3, -2.383e-08
4284.3, -1.933e-08
4286.3, -2.016e-08
4288.3, -2.132e-08
4290.3, -2.265e-08
4292.3, -2.303e-08
4294.3, -2.422e-08
4296.3, -2.261e-08
4298.3, -2.164e-08
4300.3, -2.434e-08
4302.3, -2.388e-08
4304.3, -2.244e-08
4306.3, -2.187e-08
4308.3, -2.288e-08
4310.3, -2.204e-08
4312.3, -2.127e-08
4314.3, -2.315e-08
4316.3, -2.147e-08
4318.3, -2.149e-08
4320.3, -1.937e-08
4322.3, -2.035e-08
4324.3, -1.89e-08
4326.3, -2.128e-08
4328.3, -2.204e-08
4330.3, -2.135e-08
4332.3, -1.729e-08
4334.3, -2.176e-08
4336.3, -1.901e-08
4338.3, -2.088e-08
4340.3, -2.612e-08
4342.3, -2.303e-08
4344.3, -1.96e-08
4346.3, -2.511e-08
4348.3, -2.545e-08
4350.3, -2.326e-08
4352.3, -2.199e-08
4354.3, -2.42e-08
4356.4, -2.32e-08
4358.4, -2.404e-08
4360.4, -2.585e-08
4362.4, -2.683e-08
4364.4, -2.449e-08
4366.4, -2.425e-08
4368.4, -2.415e-08
4370.4, -2.435e-08
4372.4, -2.5e-08
4374.4, -2.518e-08
4376.4, -2.927e-08
4378.4, -2.583e-08
4380.4, -2.12e-08
4382.4, -2.376e-08
4384.4, -2.301e-08
4386.4, -2.327e-08
4388.4, -2.238e-08
4390.4, -2.266e-08
4392.4, -2.534e-08
4394.4, -2.05e-08
4396.4, -2.366e-08
4398.4, -1.991e-08
4400.4, -2.206e-08
4402.4, -2.375e-08
4404.4, -2.048e-08
4406.4, -2.002e-08
4408.4, -2.322e-08
4410.4, -2.174e-08
4412.4, -2.398e-08
4414.4, -2.096e-08
4416.4, -2.069e-08
4418.4, -2.4e-08
4420.4, -2.146e-08
4422.4, -2.399e-08
4424.4, -2.766e-08
4426.4, -2.097e-08
4428.4, -2.46e-08
4430.4, -2.222e-08
4432.4, -2.348e-08
4434.4, -2.58e-08
4436.4, -2.575e-08
4438.4, -2.76e-08
4440.4, -2.427e-08
4442.4, -2.785e-08
4444.4, -2.887e-08
4446.4, -2.876e-08
4448.4, -2.54e-08
4450.4, -2.687e-08
4452.4, -2.627e-08
4454.4, -2.676e-08
4456.5, -2.382e-08
4458.5, -2.215e-08
4460.5, -2.23e-08
4462.5, -2.197e-08
4464.5, -2.318e-08
4466.5, -2.217e-08
4468.5, -2.611e-08
4470.5, -2.133e-08
4472.5, -2.138e-08
4474.5, -2.187e-08
4476.5, -2.367e-08
4478.5, -2.087e-08
4480.5, -2.025e-08
4482.5, -2.17e-08
4484.5, -1.827e-08
4486.5, -1.683e-08
4488.5, -2.005e-08
4490.5, -1.9e-08
4492.5, -2.149e-08
4494.5, -2.001e-08
4496.5, -2.26e-08
4498.5, -2.002e-08
4500.5, -2.016e-08
4502.5, -2.255e-08
4504.5, -2.075e-08
4506.5, -1.941e-08
4508.5, -2.403e-08
4510.5, -2.544e-08
4512.5, -2.242e-08
4514.5, -2.464e-08
4516.5, -2.449e-08
4518.5, -2.294e-08
4520.5, -2.39e-08
4522.5, -2.254e-08
4524.5, -2.279e-08
4526.5, -1.937e-08
4528.5, -1.87e-08
4530.5, -2.292e-08
4532.5, -1.98e-08
4534.5, -2.308e-08
4536.5, -1.976e-08
4538.5, -1.965e-08
4540.5, -2.053e-08
4542.5, -1.907e-08
4544.5, -1.871e-08
4546.5, -2.274e-08
4548.5, -2.329e-08
4550.5, -2.441e-08
4552.5, -2.241e-08
4554.5, -2.369e-08
4556.6, -2.179e-08
4558.6, -2.572e-08
4560.6, -2.195e-08
4562.6, -2.118e-08
4564.6, -2.19e-08
4566.6, -2.069e-08
4568.6, -2.313e-08
4570.6, -2.16e-08
4572.6, -2.132e-08
4574.6, -2.217e-08
4576.6, -1.889e-08
4578.6, -2.57e-08
4580.6, -2.324e-08
4582.6, -2.715e-08
4584.6, -2.581e-08
4586.6, -2.317e-08
4588.6, -2.635e-08
4590.6, -2.452e-08
4592.6, -2.301e-08
4594.6, -2.394e-08
4596.6, -2.626e-08
4598.6, -2.439e-08
4600.6, -2.471e-08
4602.6, -2.711e-08
4604.6, -2.422e-08
4606.6, -2.558e-08
4608.6, -2.656e-08
4610.6, -2.707e-08
4612.6, -2.787e-08
4614.6, -2.747e-08
4616.6, -3.154e-08
4618.6, -3.013e-08
4620.6, -2.563e-08
4622.6, -2.783e-08
4624.6, -2.926e-08
4626.6, -2.848e-08
4628.6, -3.015e-08
4630.6, -2.963e-08
4632.6, -2.513e-08
4634.6, -2.845e-08
4636.6, -3.096e-08
4638.6, -2.878e-08
4640.6, -2.859e-08
4642.6, -2.806e-08
4644.6, -2.563e-08
4646.6, -2.793e-08
4648.6, -2.809e-08
4650.6, -2.406e-08
4652.6, -2.538e-08
4654.6, -2.556e-08
4656.7, -2.652e-08
4658.7, -2.635e-08
4660.7, -2.596e-08
4662.7, -2.76e-08
4664.7, -3.047e-08
4666.7, -3.384e-08
4668.7, -3.385e-08
4670.7, -2.828e-08
4672.7, -2.984e-08
4674.7, -3.092e-08
4676.7, -3.287e-08
4678.7, -3.342e-08
4680.7, -3.356e-08
4682.7, -3.115e-08
4684.7, -2.788e-08
4686.7, -3.145e-08
4688.7, -3.127e-08
4690.7, -3.06e-08
4692.7, -2.84e-08
4694.7, -2.62e-08
4696.7, -2.973e-08
4698.7, -2.858e-08
4700.7, -2.895e-08
4702.7, -2.861e-08
4704.7, -3.018e-08
4706.7, -2.929e-08
4708.7, -3.527e-08
4710.7, -3.275e-08
4712.7, -3.201e-08
4714.7, -3.317e-08
4716.7, -3.201e-08
4718.7, -3.445e-08
4720.7, -2.984e-08
4722.7, -3.147e-08
4724.7, -3.308e-08
4726.7, -3.144e-08
4728.7, -3.235e-08
4730.7, -3.048e-08
4732.7, -2.894e-08
4734.7, -3.371e-08
4736.7, -3.183e-08
4738.7, -3.18e-08
4740.7, -3.114e-08
4742.7, -2.915e-08
4744.7, -3.039e-08
4746.7, -2.838e-08
4748.7, -3.267e-08
4750.7, -3.18e-08
4752.7, -3.154e-08
4754.7, -2.919e-08
4756.8, -3.396e-08
4758.8, -3.174e-08
4760.8, -2.908e-08
4762.8, -3.208e-08
4764.8, -3.158e-08
4766.8, -3.066e-08
4768.8, -3.342e-08
4770.8, -3.49e-08
4772.8, -2.958e-08
4774.8, -2.841e-08
4776.8, -3.007e-08
4778.8, -3.146e-08
4780.8, -2.818e-08
4782.8, -3.147e-08
4784.8, -2.798e-08
4786.8, -2.998e-08
4788.8, -2.977e-08
4790.8, -3.139e-08
4792.8, -3.2e-08
4794.8, -2.807e-08
4796.8, -2.936e-08
4798.8, -2.786e-08
4800.8, -2.938e-08
4802.8, -2.653e-08
4804.8, -2.798e-08
4806.8, -3.332e-08
4808.8, -2.851e-08
4810.8, -2.945e-08
4812.8, -2.491e-08
4814.8, -2.857e-08
4816.8, -3.152e-08
4818.8, -2.471e-08
4820.8, -2.892e-08
4822.8, -2.723e-08
4824.8, -2.586e-08
4826.8, -2.783e-08
4828.8, -2.64e-08
4830.8, -2.737e-08
4832.8, -2.782e-08
4834.8, -2.662e-08
4836.8, -2.722e-08
4838.8, -3.042e-08
4840.8, -2.936e-08
4842.8, -2.28e-08
4844.8, -2.822e-08
4846.8, -2.639e-08
4848.8, -2.665e-08
4850.8, -3.205e-08
4852.8, -2.646e-08
4854.8, -2.835e-08
4856.9, -2.22e-08
4858.9, -2.624e-08
4860.9, -2.696e-08
4862.9, -2.68e-08
4864.9, -2.895e-08
4866.9, -2.637e-08
4868.9, -2.883e-08
4870.9, -2.936e-08
4872.9, -2.846e-08
4874.9, -2.458e-08
4876.9, -2.787e-08
4878.9, -2.713e-08
4880.9, -2.65e-08
4882.9, -2.647e-08
4884.9, -2.569e-08
4886.9, -2.53e-08
4888.9, -2.644e-08
4890.9, -2.876e-08
4892.9, -2.649e-08
4894.9, -2.612e-08
4896.9, -2.6e-08
4898.9, -2.831e-08
4900.9, -2.522e-08
4902.9, -2.637e-08
4904.9, -2.814e-08
4906.9, -2.872e-08
4908.9, -3.071e-08
4910.9, -3.131e-08
4912.9, -2.755e-08
4914.9, -3.162e-08
4916.9, -3.297e-08
4918.9, -3.116e-08
4920.9, -3.109e-08
4922.9, -2.927e-08
4924.9, -3.291e-08
4926.9, -3.111e-08
4928.9, -3.154e-08
4930.9, -3.055e-08
4932.9, -2.712e-08
4934.9, -3.196e-08
4936.9, -3.419e-08
4938.9, -3.442e-08
4940.9, -3.341e-08
4942.9, -3.007e-08
4944.9, -3.051e-08
4946.9, -3.147e-08
4948.9, -3.402e-08
4950.9, -3.19e-08
4952.9, -2.898e-08
4954.9, -3.049e-08
4957.0, -2.624e-08
4959.0, -2.531e-08
4961.0, -2.643e-08
4963.0, -3.002e-08
4965.0, -2.88e-08
4967.0, -2.901e-08
4969.0, -3.269e-08
4971.0, -3.005e-08
4973.0, -2.806e-08
4975.0, -2.703e-08
4977.0, -2.816e-08
4979.0, -2.688e-08
4981.0, -2.542e-08
4983.0, -2.938e-08
4985.0, -2.915e-08
4987.0, -2.631e-08
4989.0, -2.782e-08
4991.0, -3.218e-08
4993.0, -2.921e-08
4995.0, -2.72e-08
4997.0, -2.785e-08
4999.0, -2.998e-08
5001.0, -3.098e-08
5003.0, -3.039e-08
5005.0, -2.955e-08
5007.0, -2.917e-08
5009.0, -2.769e-08
5011.0, -2.844e-08
5013.0, -2.53e-08
5015.0, -2.618e-08
5017.0, -2.758e-08
5019.0, -2.711e-08
5021.0, -2.64e-08
5023.0, -2.719e-08
5025.0, -3.023e-08
5027.0, -3.346e-08
5029.0, -2.78e-08
5031.0, -2.94e-08
5033.0, -2.813e-08
5035.0, -2.86e-08
5037.0, -3.188e-08
5039.0, -3.207e-08
5041.0, -2.991e-08
5043.0, -3.027e-08
5045.0, -2.684e-08
5047.0, -2.921e-08
5049.0, -3.189e-08
5051.0, -3.442e-08
5053.0, -3.062e-08
5055.0, -3.053e-08
5057.1, -2.909e-08
5059.1, -2.946e-08
5061.1, -2.96e-08
5063.1, -3.128e-08
5065.1, -3.143e-08
5067.1, -3.366e-08
5069.1, -3.089e-08
5071.1, -2.714e-08
5073.1, -2.964e-08
5075.1, -2.911e-08
5077.1, -2.674e-08
5079.1, -2.363e-08
5081.1, -2.562e-08
5083.1, -2.658e-08
5085.1, -2.643e-08
5087.1, -2.688e-08
5089.1, -2.638e-08
5091.1, -3.077e-08
5093.1, -2.544e-08
5095.1, -2.749e-08
5097.1, -2.831e-08
5099.1, -2.855e-08
5101.1, -3.043e-08
5103.1, -2.667e-08
5105.1, -2.734e-08
5107.1, -3.05e-08
5109.1, -2.719e-08
5111.1, -2.691e-08
5113.1, -2.376e-08
5115.1, -2.394e-08
5117.1, -2.459e-08
5119.1, -2.797e-08
5121.1, -2.565e-08
5123.1, -2.298e-08
5125.1, -2.686e-08
5127.1, -2.689e-08
5129.1, -2.526e-08
5131.1, -2.866e-08
5133.1, -2.717e-08
5135.1, -2.547e-08
5137.1, -2.886e-08
5139.1, -3.092e-08
5141.1, -2.695e-08
5143.1, -2.65e-08
5145.1, -2.814e-08
5147.1, -2.574e-08
5149.1, -2.722e-08
5151.1, -2.826e-08
5153.1, -2.584e-08
5155.1, -2.191e-08
5157.2, -2.458e-08
5159.2, -2.179e-08
5161.2, -2.529e-08
5163.2, -2.654e-08
5165.2, -2.541e-08
5167.2, -2.304e-08
5169.2, -2.367e-08
5171.2, -2.499e-08
5173.2, -2.574e-08
5175.2, -2.435e-08
5177.2, -2.342e-08
5179.2, -2.305e-08
5181.2, -2.538e-08
5183.2, -2.491e-08
5185.2, -1.843e-08
5187.2, -2.057e-08
5189.2, -2.121e-08
5191.2, -1.966e-08
5193.2, -2.352e-08
5195.2, -1.978e-08
5197.2, -2.203e-08
5199.2, -2.413e-08
5201.2, -2.124e-08
5203.2, -2.536e-08
5205.2, -2.242e-08
5207.2, -2.552e-08
5209.2, -2.513e-08
5211.2, -2.554e-08
5213.2, -2.345e-08
5215.2, -2.125e-08
5217.2, -2.177e-08
5219.2, -2.645e-08
5221.2, -2.308e-08
5223.2, -2.064e-08
5225.2, -2.145e-08
5227.2, -2.201e-08
5229.2, -2.42e-08
5231.2, -2.248e-08
5233.2, -2.465e-08
5235.2, -2.425e-08
5237.2, -2.082e-08
5239.2, -1.96e-08
5241.2, -2.206e-08
5243.2, -2.285e-08
5245.2, -2.503e-08
5247.2, -2.187e-08
5249.2, -2.245e-08
5251.2, -2.535e-08
5253.2, -2.3e-08
5255.2, -2.358e-08
5257.3, -2.136e-08
5259.3, -2.194e-08
5261.3, -2.185e-08
5263.3, -2.198e-08
5265.3, -2.437e-08
5267.3, -2.413e-08
5269.3, -2.304e-08
5271.3, -2.323e-08
5273.3, -2.115e-08
5275.3, -2.395e-08
5277.3, -2.393e-08
5279.3, -2.414e-08
5281.3, -2.082e-08
5283.3, -2.229e-08
5285.3, -2.185e-08
5287.3, -2.531e-08
5289.3, -2.135e-08
5291.3, -1.961e-08
5293.3, -1.938e-08
5295.3, -2.317e-08
5297.3, -2.056e-08
5299.3, -2.211e-08
5301.3, -2.637e-08
5303.3, -2.143e-08
5305.3, -2.246e-08
5307.3, -2.213e-08
5309.3, -2.426e-08
5311.3, -2.328e-08
5313.3, -2.458e-08
5315.3, -2.476e-08
5317.3, -2.525e-08
5319.3, -2.364e-08
5321.3, -2.333e-08
5323.3, -2.303e-08
5325.3, -2.045e-08
5327.3, -2.438e-08
5329.3, -2.656e-08
5331.3, -2.497e-08
5333.3, -2.407e-08
5335.3, -1.964e-08
5337.3, -1.747e-08
5339.3, -1.886e-08
5341.3, -2.321e-08
5343.3, -2.287e-08
5345.3, -2.141e-08
5347.3, -1.964e-08
5349.3, -2.133e-08
5351.3, -2.565e-08
5353.3, -2.326e-08
5355.3, -2.047e-08
5357.4, -2.184e-08
5359.4, -2.129e-08
5361.4, -1.987e-08
5363.4, -2.42e-08
5365.4, -2.567e-08
5367.4, -2.548e-08
5369.4, -2.219e-08
5371.4, -2.22e-08
5373.4, -2.51e-08
5375.4, -2.098e-08
5377.4, -2.081e-08
5379.4, -2.508e-08
5381.4, -2.317e-08
5383.4, -2.307e-08
5385.4, -2.379e-08
5387.4, -1.914e-08
5389.4, -2.011e-08
5391.4, -2.239e-08
5393.4, -2.528e-08
5395.4, -2.2e-08
5397.4, -2.259e-08
5399.4, -2.305e-08
5401.4, -2.557e-08
5403.4, -2.55e-08
5405.4, -2.459e-08
5407.4, -2.739e-08
5409.4, -2.716e-08
5411.4, -2.527e-08
5413.4, -2.681e-08
5415.4, -2.447e-08
5417.4, -2.436e-08
5419.4, -2.655e-08
5421.4, -2.443e-08
5423.4, -2.618e-08
5425.4, -2.95e-08
5427.4, -2.592e-08
5429.4, -2.592e-08
5431.4, -2.745e-08
5433.4, -2.699e-08
5435.4, -2.799e-08
5437.4, -2.589e-08
5439.4, -2.417e-08
5441.4, -2.598e-08
5443.4, -2.318e-08
5445.4, -2.285e-08
5447.4, -2.799e-08
5449.4, -2.7e-08
5451.4, -2.574e-08
5453.4, -2.824e-08
5455.4, -2.441e-08
5457.5, -2.637e-08
5459.5, -2.408e-08
5461.5, -2.62e-08
5463.5, -2.459e-08
5465.5, -3.004e-08
5467.5, -2.78e-08
5469.5, -2.855e-08
5471.5, -2.981e-08
5473.5, -2.677e-08
5475.5, -2.812e-08
5477.5, -2.562e-08
5479.5, -2.547e-08
5481.5, -2.569e-08
5483.5, -2.62e-08
5485.5, -2.681e-08
5487.5, -2.529e-08
5489.5, -2.519e-08
5491.5, -2.743e-08
5493.5, -2.411e-08
5495.5, -2.457e-08
5497.5, -2.633e-08
5499.5, -2.479e-08
5501.5, -2.404e-08
5503.5, -2.42e-08
5505.5, -2.32e-08
5507.5, -2.72e-08
5509.5, -2.896e-08
5511.5, -2.792e-08
5513.5, -2.607e-08
5515.5, -2.939e-08
5517.5, -2.488e-08
5519.5, -2.572e-08
5521.5, -2.973e-08
5523.5, -2.725e-08
5525.5, -2.478e-08
5527.5, -3.055e-08
5529.5, -2.782e-08
5531.5, -2.737e-08
5533.5, -2.881e-08
5535.5, -3.059e-08
5537.5, -2.974e-08
5539.5, -3.004e-08
5541.5, -2.764e-08
5543.5, -3.048e-08
5545.5, -2.789e-08
5547.5, -2.57e-08
5549.5, -2.564e-08
5551.5, -2.725e-08
5553.5, -2.89e-08
5555.5, -2.607e-08
5557.6, -2.579e-08
5559.6, -2.455e-08
5561.6, -3.057e-08
5563.6, -2.629e-08
5565.6, -2.787e-08
5567.6, -3.083e-08
5569.6, -2.804e-08
5571.6, -2.612e-08
5573.6, -2.718e-08
5575.6, -2.609e-08
5577.6, -2.882e-08
5579.6, -2.675e-08
5581.6, -3.036e-08
5583.6, -2.417e-08
5585.6, -2.602e-08
5587.6, -2.575e-08
5589.6, -2.716e-08
5591.6, -2.835e-08
5593.6, -2.761e-08
5595.6, -2.709e-08
5597.6, -3.006e-08
5599.6, -2.977e-08
5601.6, -3.064e-08
5603.6, -2.927e-08
5605.6, -2.896e-08
5607.6, -3.068e-08
5609.6, -3.269e-08
5611.6, -3.19e-08
5613.6, -3.305e-08
5615.6, -2.705e-08
5617.6, -2.597e-08
5619.6, -2.919e-08
5621.6, -2.744e-08
5623.6, -2.734e-08
5625.6, -2.618e-08
5627.6, -2.76e-08
5629.6, -2.803e-08
5631.6, -2.968e-08
5633.6, -2.473e-08
5635.6, -2.653e-08
5637.6, -2.471e-08
5639.6, -2.793e-08
5641.6, -3.066e-08
5643.6, -3.027e-08
5645.6, -2.888e-08
5647.6, -2.793e-08
5649.6, -3.078e-08
5651.6, -3.135e-08
5653.6, -2.822e-08
5655.6, -3.326e-08
5657.7, -3.187e-08
5659.7, -3.355e-08
5661.7, -2.841e-08
5663.7, -2.94e-08
5665.7, -2.876e-08
5667.7, -3.242e-08
5669.7, -3.085e-08
5671.7, -3.062e-08
5673.7, -2.754e-08
5675.7, -2.985e-08
5677.7, -2.847e-08
5679.7, -3.106e-08
5681.7, -2.795e-08
5683.7, -2.921e-08
5685.7, -2.932e-08
5687.7, -2.844e-08
5689.7, -2.809e-08
5691.7, -2.865e-08
5693.7, -2.845e-08
5695.7, -2.726e-08
5697.7, -2.503e-08
5699.7, -2.77e-08
5701.7, -3.192e-08
5703.7, -2.794e-08
5705.7, -2.788e-08
5707.7, -2.825e-08
5709.7, -2.787e-08
5711.7, -2.994e-08
5713.7, -2.765e-08
5715.7, -2.641e-08
5717.7, -2.919e-08
5719.7, -2.808e-08
5721.7, -2.807e-08
5723.7, -2.978e-08
5725.7, -3.03e-08
5727.7, -2.975e-08
5729.7, -2.879e-08
5731.7, -2.849e-08
5733.7, -2.869e-08
5735.7, -2.929e-08
5737.7, -2.587e-08
5739.7, -3.065e-08
5741.7, -3.043e-08
5743.7, -3.041e-08
5745.7, -3.126e-08
5747.7, -3.106e-08
5749.7, -3.047e-08
5751.7, -3.015e-08
5753.7, -2.948e-08
5755.7, -2.68e-08
5757.8, -2.654e-08
5759.8, -2.525e-08
5761.8, -2.688e-08
5763.8, -2.669e-08
5765.8, -2.666e-08
5767.8, -2.262e-08
5769.8, -2.535e-08
5771.8, -2.749e-08
5773.8, -2.646e-08
5775.8, -2.634e-08
5777.8, -2.572e-08
5779.8, -2.822e-08
5781.8, -2.49e-08
5783.8, -2.319e-08
5785.8, -2.157e-08
5787.8, -2.437e-08
5789.8, -2.258e-08
5791.8, -2.677e-08
5793.8, -2.305e-08
5795.8, -2.262e-08
5797.8, -2.696e-08
5799.8, -2.511e-08
5801.8, -2.696e-08
5803.8, -2.884e-08
5805.8, -2.556e-08
5807.8, -2.689e-08
5809.8, -2.718e-08
5811.8, -2.699e-08
5813.8, -2.7e-08
5815.8, -2.118e-08
5817.8, -2.543e-08
5819.8, -2.852e-08
5821.8, -2.44e-08
5823.8, -2.431e-08
5825.8, -2.444e-08
5827.8, -3.039e-08
5829.8, -2.858e-08
5831.8, -2.619e-08
5833.8, -2.372e-08
5835.8, -2.308e-08
5837.8, -2.59e-08
5839.8, -2.647e-08
5841.8, -2.337e-08
5843.8, -2.433e-08
5845.8, -2.392e-08
5847.8, -2.234e-08
5849.8, -2.811e-08
5851.8, -2.279e-08
5853.8, -2.175e-08
5855.8, -2.614e-08
5857.9, -2.657e-08
5859.9, -2.28e-08
5861.9, -2.53e-08
5863.9, -2.563e-08
5865.9, -2.851e-08
5867.9, -2.555e-08
5869.9, -2.593e-08
5871.9, -2.76e-08
5873.9, -2.512e-08
5875.9, -2.538e-08
5877.9, -2.567e-08
5879.9, -2.412e-08
5881.9, -2.336e-08
5883.9, -2.109e-08
5885.9, -2.261e-08
5887.9, -2.458e-08
5889.9, -2.667e-08
5891.9, -2.626e-08
5893.9, -2.726e-08
5895.9, -2.06e-08
5897.9, -2.205e-08
5899.9, -2.702e-08
5901.9, -2.484e-08
5903.9, -2.259e-08
5905.9, -2.815e-08
5907.9, -2.814e-08
5909.9, -2.83e-08
5911.9, -3.149e-08
5913.9, -2.576e-08
5915.9, -2.661e-08
5917.9, -2.459e-08
5919.9, -2.114e-08
5921.9, -2.257e-08
5923.9, -2.604e-08
5925.9, -2.598e-08
5927.9, -2.646e-08
5929.9, -2.604e-08
5931.9, -2.54e-08
5933.9, -2.292e-08
5935.9, -1.882e-08
5937.9, -2.61e-08
5939.9, -2.698e-08
5941.9, -2.258e-08
5943.9, -2.021e-08
5945.9, -2.522e-08
5947.9, -2.537e-08
5949.9, -2.983e-08
5951.9, -2.733e-08
5953.9, -2.886e-08
5955.9, -2.611e-08
5958.0, -2.593e-08
5960.0, -2.573e-08
5962.0, -2.801e-08
5964.0, -2.695e-08
5966.0, -2.675e-08
5968.0, -2.248e-08
5970.0, -2.331e-08
5972.0, -2.505e-08
5974.0, -2.257e-08
5976.0, -1.892e-08
5978.0, -2.306e-08
5980.0, -2.285e-08
5982.0, -2.369e-08
5984.0, -2.095e-08
5986.0, -2.288e-08
5988.0, -2.482e-08
5990.0, -2.451e-08
5992.0, -2.75e-08
5994.0, -2.595e-08
5996.0, -2.432e-08
5998.0, -2.702e-08
6000.0, -2.62e-08
6002.0, -2.41e-08
6004.0, -2.286e-08
6006.0, -2.653e-08
6008.0, -2.561e-08
6010.0, -2.823e-08
6012.0, -2.974e-08
6014.0, -2.537e-08
6016.0, -2.547e-08
6018.0, -2.554e-08
6020.0, -2.608e-08
6022.0, -2.684e-08
6024.0, -2.559e-08
6026.0, -2.53e-08
6028.0, -2.408e-08
6030.0, -2.125e-08
6032.0, -2.307e-08
6034.0, -2.54e-08
6036.0, -2.273e-08
6038.0, -2.442e-08
6040.0, -2.361e-08
6042.0, -2.075e-08
6044.0, -2.207e-08
6046.0, -2.594e-08
6048.0, -2.164e-08
6050.0, -2.201e-08
6052.0, -2.304e-08
6054.0, -2.365e-08
6056.0, -2.153e-08
6058.1, -2.287e-08
6060.1, -1.965e-08
6062.1, -2.318e-08
6064.1, -2.013e-08
6066.1, -2.062e-08
6068.1, -2.145e-08
6070.1, -2.385e-08
6072.1, -2.082e-08
6074.1, -2.268e-08
6076.1, -2.816e-08
6078.1, -2.102e-08
6080.1, -2.32e-08
6082.1, -2.215e-08
6084.1, -1.948e-08
6086.1, -2.105e-08
6088.1, -2.009e-08
6090.1, -2.432e-08
6092.1, -2.144e-08
6094.1, -2.227e-08
6096.1, -2.308e-08
6098.1, -2.329e-08
6100.1, -2.121e-08
6102.1, -2.316e-08
6104.1, -2.304e-08
6106.1, -2.329e-08
6108.1, -2.366e-08
6110.1, -2.001e-08
6112.1, -2.305e-08
6114.1, -2.497e-08
6116.1, -2.405e-08
6118.1, -2.248e-08
6120.1, -2.249e-08
6122.1, -2.059e-08
6124.1, -2.281e-08
6126.1, -2.377e-08
6128.1, -2.322e-08
6130.1, -2.366e-08
6132.1, -2.805e-08
6134.1, -2.68e-08
6136.1, -2.307e-08
6138.1, -2.06e-08
6140.1, -2.312e-08
6142.1, -2.059e-08
6144.1, -2.213e-08
6146.1, -2.555e-08
6148.1, -2.283e-08
6150.1, -2.506e-08
6152.1, -2.334e-08
6154.1, -2.194e-08
6156.1, -2.101e-08
6158.2, -2.11e-08
6160.2, -2.459e-08
6162.2, -2.29e-08
6164.2, -2.347e-08
6166.2, -2.44e-08
6168.2, -2.37e-08
6170.2, -2.497e-08
6172.2, -2.464e-08
6174.2, -2.35e-08
6176.2, -2.087e-08
6178.2, -2.267e-08
6180.2, -2.609e-08
6182.2, -2.326e-08
6184.2, -2.464e-08
6186.2, -2.191e-08
6188.2, -1.958e-08
6190.2, -2.177e-08
6192.2, -2.091e-08
6194.2, -2.049e-08
6196.2, -2.263e-08
6198.2, -2.202e-08
6200.2, -2.276e-08
6202.2, -2.247e-08
6204.2, -2.38e-08
6206.2, -2.14e-08
6208.2, -2.193e-08
6210.2, -2.443e-08
6212.2, -2.349e-08
6214.2, -2.744e-08
6216.2, -2.409e-08
6218.2, -2.633e-08
6220.2, -2.406e-08
6222.2, -2.497e-08
6224.2, -2.329e-08
6226.2, -2.61e-08
6228.2, -2.482e-08
6230.2, -2.655e-08
6232.2, -2.7e-08
6234.2, 2.4788e-06
6236.2, 5.0356e-06
6238.2, 4.7362e-06
6240.2, 4.8634e-06
6242.2, 4.9065e-06
6244.2, 4.7332e-06
6246.2, 4.9119e-06
6248.2, 4.8456e-06
6250.2, 4.8413e-06
6252.2, 4.8366e-06
6254.2, 4.9138e-06
6256.2, 4.8376e-06
6258.3, 4.8948e-06
6260.3, 4.8909e-06
6262.3, 4.8405e-06
6264.3, 4.8816e-06
6266.3, 4.8695e-06
6268.3, 4.8572e-06
6270.3, 4.9622e-06
6272.3, 4.9495e-06
6274.3, 4.8433e-06
6276.3, 4.909e-06
6278.3, 4.8747e-06
6280.3, 4.9028e-06
6282.3, 4.8147e-06
6284.3, 4.7944e-06
6286.3, 4.767e-06
6288.3, 4.8842e-06
6290.3, 5.0198e-06
6292.3, 4.9224e-06
6294.3, 4.865e-06
6296.3, 4.6823e-06
6298.3, 4.9259e-06
6300.3, 4.7599e-06
6302.3, 4.837e-06
6304.3, 4.8709e-06
6306.3, 4.8406e-06
6308.3, 4.8368e-06
6310.3, 4.9608e-06
6312.3, 4.934e-06
6314.3, 4.9909e-06
6316.3, 4.8814e-06
6318.3, 4.972e-06
6320.3, 5.035e-06
6322.3, 4.9487e-06
6324.3, 4.9939e-06
6326.3, 4.8502e-06
6328.3, 5.0425e-06
6330.3, 4.8776e-06
6332.3, 5.0573e-06
6334.3, 4.9514e-06
6336.3, 5.0461e-06
6338.3, 4.9637e-06
6340.3, 4.9813e-06
6342.3, 4.9077e-06
6344.3, 4.9e-06
6346.3, 4.944e-06
6348.3, 4.8558e-06
6350.3, 4.8872e-06
6352.3, 4.915e-06
6354.3, 4.8704e-06
6356.3, 5.0289e-06
6358.4, 5.038e-06
6360.4, 4.944e-06
6362.4, 5.0465e-06
6364.4, 4.9304e-06
6366.4, 4.9161e-06
6368.4, 5.0084e-06
6370.4, 4.9798e-06
6372.4, 4.9218e-06
6374.4, 5.0424e-06
6376.4, 4.915e-06
6378.4, 4.8328e-06
6380.4, 4.9021e-06
6382.4, 4.8434e-06
6384.4, 4.9938e-06
6386.4, 5.0493e-06
6388.4, 4.9877e-06
6390.4, 5.0166e-06
6392.4, 4.944e-06
6394.4, 4.8081e-06
6396.4, 4.8905e-06
6398.4, 4.9538e-06
6400.4, 4.9564e-06
6402.4, 4.9488e-06
6404.4, 4.8922e-06
6406.4, 4.9612e-06
6408.4, 5.0035e-06
6410.4, 4.8949e-06
6412.4, 4.9066e-06
6414.4, 5.0685e-06
6416.4, 4.8743e-06
6418.4, 5.0014e-06
6420.4, 4.8679e-06
6422.4, 5.0457e-06
6424.4, 5.0006e-06
6426.4, 4.969e-06
6428.4, 5.0659e-06
6430.4, 4.8727e-06
6432.4, 5.0114e-06
6434.4, 5.057e-06
6436.4, 4.9541e-06
6438.4, 5.0051e-06
6440.4, 5.0473e-06
6442.4, 4.9882e-06
6444.4, 5.0438e-06
6446.4, 5.0548e-06
6448.4, 4.9743e-06
6450.4, 5.0474e-06
6452.4, 5.0699e-06
6454.4, 5.0218e-06
6456.4, 5.0142e-06
6458.5, 4.9265e-06
6460.5, 4.974e-06
6462.5, 5.0126e-06
6464.5, 4.9219e-06
6466.5, 4.9131e-06
6468.5, 5.0159e-06
6470.5, 5.0099e-06
6472.5, 4.9846e-06
6474.5, 4.8611e-06
6476.5, 4.993e-06
6478.5, 4.9143e-06
6480.5, 4.9429e-06
6482.5, 4.8535e-06
6484.5, 5.037e-06
6486.5, 4.9954e-06
6488.5, 5.0952e-06
6490.5, 5.024e-06
6492.5, 4.9551e-06
6494.5, 4.8888e-06
6496.5, 4.934e-06
6498.5, 5.0259e-06
6500.5, 4.8964e-06
6502.5, 5.0063e-06
6504.5, 4.9215e-06
6506.5, 4.9968e-06
6508.5, 4.9952e-06
6510.5, 4.9894e-06
6512.5, 5.0703e-06
6514.5, 5.1049e-06
6516.5, 4.9491e-06
6518.5, 5.0504e-06
6520.5, 4.7944e-06
6522.5, 5.0619e-06
6524.5, 4.9572e-06
6526.5, 5.055e-06
6528.5, 5.0113e-06
6530.5, 5.0905e-06
6532.5, 4.9998e-06
6534.5, 4.989e-06
6536.5, 4.9909e-06
6538.5, 4.954e-06
6540.5, 5.1076e-06
6542.5, 5.0178e-06
6544.5, 5.0492e-06
6546.5, 4.9549e-06
6548.5, 5.0592e-06
6550.5, 5.0269e-06
6552.5, 5.1495e-06
6554.5, 4.8993e-06
6556.5, 4.9189e-06
6558.6, 4.9668e-06
6560.6, 4.9679e-06
6562.6, 4.9734e-06
6564.6, 4.9244e-06
6566.6, 5.1239e-06
6568.6, 5.0427e-06
6570.6, 5.0443e-06
6572.6, 5.1065e-06
6574.6, 5.1355e-06
6576.6, 4.9285e-06
6578.6, 5.0368e-06
6580.6, 4.8871e-06
6582.6, 5.0558e-06
6584.6, 4.9429e-06
6586.6, 4.9573e-06
6588.6, 5.0858e-06
6590.6, 4.9864e-06
6592.6, 5.0883e-06
6594.6, 5.0384e-06
6596.6, 5.0036e-06
6598.6, 5.0956e-06
6600.6, 5.0754e-06
6602.6, 4.9593e-06
6604.6, 5.0545e-06
6606.6, 4.8634e-06
6608.6, 5.0091e-06
6610.6, 5.0043e-06
6612.6, 4.9547e-06
6614.6, 4.9748e-06
6616.6, 5.1236e-06
6618.6, 5.0935e-06
6620.6, 5.0263e-06
6622.6, 4.9895e-06
6624.6, 5.0129e-06
6626.6, 5.0748e-06
6628.6, 4.9732e-06
6630.6, 4.9465e-06
6632.6, 5.0417e-06
6634.6, 5.0484e-06
6636.6, 5.0317e-06
6638.6, 5.1111e-06
6640.6, 4.8779e-06
6642.6, 5.0865e-06
6644.6, 5.1716e-06
6646.6, 4.9579e-06
6648.6, 4.981e-06
6650.6, 4.9275e-06
6652.6, 4.997e-06
6654.6, 4.9798e-06
6656.6, 4.9907e-06
6658.7, 4.9606e-06
6660.7, 5.0456e-06
6662.7, 5.0281e-06
6664.7, 4.9165e-06
6666.7, 5.0602e-06
6668.7, 5.0873e-06
6670.7, 5.1692e-06
6672.7, 5.102e-06
6674.7, 4.9594e-06
6676.7, 4.9999e-06
6678.7, 4.961e-06
6680.7, 5e-06
6682.7, 4.9663e-06
6684.7, 5.0297e-06
6686.7, 4.9269e-06
6688.7, 5.0485e-06
6690.7, 5.0718e-06
6692.7, 5.0878e-06
6694.7, 5.0104e-06
6696.7, 5.0074e-06
6698.7, 5.0446e-06
6700.7, 4.9535e-06
6702.7, 4.9136e-06
6704.7, 4.9618e-06
6706.7, 5.0354e-06
6708.7, 5.0433e-06
6710.7, 5.1245e-06
6712.7, 4.9589e-06
6714.7, 5.1136e-06
6716.7, 5.1667e-06
6718.7, 5.0168e-06
6720.7, 5.0696e-06
6722.7, 4.9933e-06
6724.7, 5.013e-06
6726.7, 5.0972e-06
6728.7, 4.9776e-06
6730.7, 4.9589e-06
6732.7, 5.0653e-06
6734.7, 5.023e-06
6736.7, 5.0947e-06
6738.7, 4.9996e-06
6740.7, 5.0042e-06
6742.7, 5.0615e-06
6744.7, 4.8898e-06
6746.7, 5.0341e-06
6748.7, 4.8761e-06
6750.7, 5.1362e-06
6752.7, 4.959e-06
6754.7, 4.9738e-06
6756.7, 5.0761e-06
6758.8, 5.0361e-06
6760.8, 5.0336e-06
6762.8, 4.9275e-06
6764.8, 5.0721e-06
6766.8, 5.1124e-06
6768.8, 4.9397e-06
6770.8, 5.0361e-06
6772.8, 5.0921e-06
6774.8, 5.0651e-06
6776.8, 5.089e-06
6778.8, 5.1193e-06
6780.8, 5.0784e-06
6782.8, 5.0149e-06
6784.8, 5.028e-06
6786.8, 5.0152e-06
6788.8, 5.0414e-06
6790.8, 5.0188e-06
6792.8, 5.1074e-06
6794.8, 5.087e-06
6796.8, 5.031e-06
6798.8, 5.0831e-06
6800.8, 5.1081e-06
6802.8, 5.0593e-06
6804.8, 4.9989e-06
6806.8, 5.0129e-06
6808.8, 5.0891e-06
6810.8, 5.0262e-06
6812.8, 5.0947e-06
6814.8, 4.8461e-06
6816.8, 5.0002e-06
6818.8, 4.9499e-06
6820.8, 5.0406e-06
6822.8, 5.0497e-06
6824.8, 5.0503e-06
6826.8, 5.0201e-06
6828.8, 5.0809e-06
6830.8, 5.0297e-06
6832.8, 5.0711e-06
6834.8, 5.0229e-06
6836.8, 5.0931e-06
6838.8, 5.1533e-06
6840.8, 4.9767e-06
6842.8, 5.1059e-06
6844.8, 5.1181e-06
6846.8, 5.1195e-06
6848.8, 5.0589e-06
6850.8, 5.0176e-06
6852.8, 5.1277e-06
6854.8, 5.0734e-06
6856.8, 5.0656e-06
6858.9, 5.1201e-06
6860.9, 4.9908e-06
6862.9, 5.0334e-06
6864.9, 5.0364e-06
6866.9, 5.0125e-06
6868.9, 5.1522e-06
6870.9, 4.9997e-06
6872.9, 5.1189e-06
6874.9, 5.0537e-06
6876.9, 5.0163e-06
6878.9, 5.09e-06
6880.9, 5.0085e-06
6882.9, 5.1422e-06
6884.9, 5.1276e-06
6886.9, 4.8865e-06
6888.9, 5.0714e-06
6890.9, 4.9446e-06
6892.9, 5.112e-06
6894.9, 5.0978e-06
6896.9, 5.1457e-06
6898.9, 5.0409e-06
6900.9, 4.981e-06
6902.9, 5.1167e-06
6904.9, 5.0981e-06
6906.9, 5.0726e-06
6908.9, 5.1104e-06
6910.9, 5.119e-06
6912.9, 5.058e-06
6914.9, 5.0499e-06
6916.9, 5.0557e-06
6918.9, 5.0315e-06
6920.9, 5.1297e-06
6922.9, 5.0622e-06
6924.9, 5.0304e-06
6926.9, 5.1274e-06
6928.9, 5.1668e-06
6930.9, 5.0558e-06
6932.9, 5.0053e-06
6934.9, 5.1192e-06
6936.9, 5.0401e-06
6938.9, 5.0307e-06
6940.9, 5.0873e-06
6942.9, 5.0667e-06
6944.9, 5.0094e-06
6946.9, 5.1111e-06
6948.9, 5.1323e-06
6950.9, 5.0981e-06
6952.9, 5.0075e-06
6954.9, 5.1069e-06
6956.9, 5.0127e-06
6959.0, 4.9742e-06
6961.0, 4.9818e-06
6963.0, 4.9467e-06
6965.0, 5.064e-06
6967.0, 4.9925e-06
6969.0, 4.9826e-06
6971.0, 5.0861e-06
6973.0, 5.0364e-06
6975.0, 5.1448e-06
6977.0, 5.0619e-06
6979.0, 5.0828e-06
6981.0, 5.0598e-06
6983.0, 5.0473e-06
6985.0, 5.0336e-06
6987.0, 4.9767e-06
6989.0, 5.0301e-06
6991.0, 5.095e-06
6993.0, 5.1357e-06
6995.0, 5.0843e-06
6997.0, 5.0376e-06
6999.0, 5.2688e-06
7001.0, 5.0823e-06
7003.0, 5.0449e-06
7005.0, 5.0238e-06
7007.0, 5.0443e-06
7009.0, 5.0975e-06
7011.0, 5.1656e-06
7013.0, 5.1074e-06
7015.0, 5.0589e-06
7017.0, 5.0174e-06
7019.0, 5.0408e-06
7021.0, 5.0579e-06
7023.0, 5.0616e-06
7025.0, 5.0018e-06
7027.0, 5.0684e-06
7029.0, 5.072e-06
7031.0, 5.0523e-06
7033.0, 4.9845e-06
7035.0, 5.0084e-06
7037.0, 4.9389e-06
7039.0, 4.9163e-06
7041.0, 5.1165e-06
7043.0, 5.0789e-06
7045.0, 4.9987e-06
7047.0, 5.0263e-06
7049.0, 5.0645e-06
7051.0, 5.0328e-06
7053.0, 4.9314e-06
7055.0, 5.0998e-06
7057.0, 5.1234e-06
7059.1, 5.0989e-06
7061.1, 5.0296e-06
7063.1, 5.0323e-06
7065.1, 5.0484e-06
7067.1, 5.1591e-06
7069.1, 5.1637e-06
7071.1, 4.9362e-06
7073.1, 4.9867e-06
7075.1, 4.9911e-06
7077.1, 5.0743e-06
7079.1, 5.0082e-06
7081.1, 4.9801e-06
7083.1, 4.9646e-06
7085.1, 5.0586e-06
7087.1, 5.0169e-06
7089.1, 5.1515e-06
7091.1, 5.0846e-06
7093.1, 5.148e-06
7095.1, 5.074e-06
7097.1, 5.078e-06
7099.1, 5.0176e-06
7101.1, 5.0976e-06
7103.1, 5.0676e-06
7105.1, 5.0786e-06
7107.1, 5.0157e-06
7109.1, 5.1044e-06
7111.1, 5.1822e-06
7113.1, 5.1132e-06
7115.1, 5.1116e-06
7117.1, 5.107e-06
7119.1, 5.1185e-06
7121.1, 5.1092e-06
7123.1, 5.103e-06
7125.1, 5.0375e-06
7127.1, 5.1268e-06
7129.1, 5.0817e-06
7131.1, 5.1386e-06
7133.1, 4.9851e-06
7135.1, 5.1418e-06
7137.1, 5.0621e-06
7139.1, 5.0282e-06
7141.1, 5.0443e-06
7143.1, 5.1595e-06
7145.1, 5.0973e-06
7147.1, 4.902e-06
7149.1, 5.0752e-06
7151.1, 5.0467e-06
7153.1, 5.1538e-06
7155.1, 5.116e-06
7157.1, 5.0933e-06
7159.2, 5.1642e-06
7161.2, 5.1179e-06
7163.2, 5.1315e-06
7165.2, 5.098e-06
7167.2, 5.1018e-06
7169.2, 5.0251e-06
7171.2, 5.0953e-06
7173.2, 5.1631e-06
7175.2, 5.1223e-06
7177.2, 5.1141e-06
7179.2, 5.0008e-06
7181.2, 5.0588e-06
7183.2, 5.0672e-06
7185.2, 5.1047e-06
7187.2, 5.0511e-06
7189.2, 4.8594e-06
7191.2, 5.1449e-06
7193.2, 5.1351e-06
7195.2, 5.1658e-06
7197.2, 5.004e-06
7199.2, 5.1342e-06
7201.2, 5.16e-06
7203.2, 5.033e-06
7205.2, 5.0807e-06
7207.2, 5.1318e-06
7209.2, 5.0782e-06
7211.2, 4.9627e-06
7213.2, 5.0481e-06
7215.2, 4.9842e-06
7217.2, 5.0247e-06
7219.2, 5.0639e-06
7221.2, 5.1063e-06
7223.2, 4.953e-06
7225.2, 5.0944e-06
7227.2, 5.0621e-06
7229.2, 5.0907e-06
7231.2, 5.1088e-06
7233.2, 5.1583e-06
7235.2, 2.4089e-06
7237.2, -1.533e-08
7239.2, -1.528e-08
7241.2, -1.846e-08
7243.2, -2.211e-08
7245.2, -1.87e-08
7247.2, -2.12e-08
7249.2, -2.273e-08
7251.2, -1.991e-08
7253.2, -2.252e-08
7255.2, -1.974e-08
7257.2, -2.177e-08
7259.3, -2.042e-08
7261.3, -2.005e-08
7263.3, -1.846e-08
7265.3, -2.018e-08
7267.3, -1.795e-08
7269.3, -1.846e-08
7271.3, -1.847e-08
7273.3, -2.276e-08
7275.3, -2.135e-08
7277.3, -1.872e-08
7279.3, -1.939e-08
7281.3, -2.085e-08
7283.3, -1.924e-08
7285.3, -2.049e-08
7287.3, -2.063e-08
7289.3, -1.961e-08
7291.3, -1.631e-08
7293.3, -1.911e-08
7295.3, -1.629e-08
7297.3, -2.215e-08
7299.3, -2.01e-08
7301.3, -2.089e-08
7303.3, -2.005e-08
7305.3, -2.014e-08
7307.3, -1.913e-08
7309.3, -2.089e-08
7311.3, -1.902e-08
7313.3, -1.836e-08
7315.3, -2.239e-08
7317.3, -2.358e-08
7319.3, -2.413e-08
7321.3, -2.269e-08
7323.3, -1.933e-08
7325.3, -2.04e-08
7327.3, -2.22e-08
7329.3, -1.994e-08
7331.3, -1.991e-08
7333.3, -2.244e-08
7335.3, -2.089e-08
7337.3, -2.054e-08
7339.3, -1.757e-08
7341.3, -1.837e-08
7343.3, -2.239e-08
7345.3, -2.35e-08
7347.3, -2.145e-08
7349.3, -2.082e-08
7351.3, -2.063e-08
7353.3, -2.557e-08
7355.3, -2.411e-08
7357.3, -2.248e-08
7359.4, -2.398e-08
7361.4, -2.58e-08
7363.4, -2.631e-08
7365.4, -2.048e-08
7367.4, -1.97e-08
7369.4, -2.342e-08
7371.4, -2.159e-08
7373.4, -2.159e-08
7375.4, -2.116e-08
7377.4, -2.019e-08
7379.4, -2.023e-08
7381.4, -2.295e-08
7383.4, -2.258e-08
7385.4, -1.746e-08
7387.4, -1.964e-08
7389.4, -2.19e-08
7391.4, -1.906e-08
7393.4, -2.113e-08
7395.4, -2.155e-08
7397.4, -2.094e-08
7399.4, -1.77e-08
7401.4, -1.856e-08
7403.4, -2.188e-08
7405.4, -2.064e-08
7407.4, -2.708e-08
7409.4, -2.363e-08
7411.4, -2.34e-08
7413.4, -2.425e-08
7415.4, -2.26e-08
7417.4, -2.111e-08
7419.4, -2.13e-08
7421.4, -2.206e-08
7423.4, -2.154e-08
7425.4, -2.187e-08
7427.4, -2.056e-08
7429.4, -2.323e-08
7431.4, -2.434e-08
7433.4, -2.263e-08
7435.4, -2.255e-08
7437.4, -2.432e-08
7439.4, -2.295e-08
7441.4, -2.536e-08
7443.4, -2.517e-08
7445.4, -2.438e-08
7447.4, -2.548e-08
7449.4, -2.382e-08
7451.4, -2.262e-08
7453.4, -2.264e-08
7455.4, -2.126e-08
7457.4, -2.185e-08
7459.5, -2.034e-08
7461.5, -2.211e-08
7463.5, -2.318e-08
7465.5, -2.185e-08
7467.5, -2.329e-08
7469.5, -1.96e-08
7471.5, -2.277e-08
7473.5, -2.038e-08
7475.5, -2.063e-08
7477.5, -2.141e-08
7479.5, -2.151e-08
7481.5, -2.388e-08
7483.5, -2.469e-08
7485.5, -2.32e-08
7487.5, -2.134e-08
7489.5, -1.752e-08
7491.5, -2.193e-08
7493.5, -2.212e-08
7495.5, -2.346e-08
7497.5, -1.796e-08
7499.5, -1.781e-08
7501.5, -2.058e-08
7503.5, -2.001e-08
7505.5, -2.204e-08
7507.5, -1.865e-08
7509.5, -1.971e-08
7511.5, -1.953e-08
7513.5, -1.968e-08
7515.5, -1.837e-08
7517.5, -2.098e-08
7519.5, -1.913e-08
7521.5, -2.195e-08
7523.5, -2.173e-08
7525.5, -2.355e-08
7527.5, -2.129e-08
7529.5, -1.82e-08
7531.5, -2.153e-08
7533.5, -1.93e-08
7535.5, -2.339e-08
7537.5, -1.989e-08
7539.5, -2.267e-08
7541.5, -2.485e-08
7543.5, -2.407e-08
7545.5, -2.298e-08
7547.5, -2.674e-08
7549.5, -2.488e-08
7551.5, -2.248e-08
7553.5, -2.173e-08
7555.5, -2.105e-08
7557.5, -2.574e-08
7559.6, -2.032e-08
7561.6, -2.617e-08
7563.6, -2.188e-08
7565.6, -2.294e-08
7567.6, -1.999e-08
7569.6, -2.017e-08
7571.6, -2.103e-08
7573.6, -2.02e-08
7575.6, -1.962e-08
7577.6, -2.175e-08
7579.6, -1.991e-08
7581.6, -2.05e-08
7583.6, -1.821e-08
7585.6, -1.912e-08
7587.6, -2.133e-08
7589.6, -2.354e-08
7591.6, -2.461e-08
7593.6, -2.444e-08
7595.6, -2.246e-08
7597.6, -2.222e-08
7599.6, -2.47e-08
7601.6, -2.421e-08
7603.6, -2.375e-08
7605.6, -2.232e-08
7607.6, -2.131e-08
7609.6, -2.062e-08
7611.6, -2.379e-08
7613.6, -2.595e-08
7615.6, -2.49e-08
7617.6, -2.455e-08
7619.6, -2.271e-08
7621.6, -2.256e-08
7623.6, -2.285e-08
7625.6, -2.117e-08
7627.6, -2.089e-08
7629.6, -2.53e-08
7631.6, -2.638e-08
7633.6, -2.523e-08
7635.6, -2.444e-08
7637.6, -2.317e-08
7639.6, -2.175e-08
7641.6, -2.47e-08
7643.6, -2.512e-08
7645.6, -2.554e-08
7647.6, -2.379e-08
7649.6, -2.275e-08
7651.6, -2.378e-08
7653.6, -2.406e-08
7655.6, -2.767e-08
7657.6, -2.439e-08
7659.7, -2.293e-08
7661.7, -2.534e-08
7663.7, -2.513e-08
7665.7, -2.675e-08
7667.7, -2.755e-08
7669.7, -2.329e-08
7671.7, -2.57e-08
7673.7, -2.737e-08
7675.7, -2.623e-08
7677.7, -2.301e-08
7679.7, -2.512e-08
7681.7, -2.433e-08
7683.7, -2.541e-08
7685.7, -2.466e-08
7687.7, -2.88e-08
7689.7, -2.529e-08
7691.7, -2.401e-08
7693.7, -2.272e-08
7695.7, -2.165e-08
7697.7, -2.148e-08
7699.7, -2.363e-08
7701.7, -2.433e-08
7703.7, -2.415e-08
7705.7, -2.437e-08
7707.7, -2.571e-08
7709.7, -2.506e-08
7711.7, -2.597e-08
7713.7, -2.762e-08
7715.7, -2.364e-08
7717.7, -2.407e-08
7719.7, -2.455e-08
7721.7, -2.456e-08
7723.7, -2.448e-08
7725.7, -2.349e-08
7727.7, -2.299e-08
7729.7, -2.66e-08
7731.7, -2.372e-08
7733.7, -2.998e-08
7735.7, -2.699e-08
7737.7, -2.535e-08
7739.7, -2.559e-08
7741.7, -2.614e-08
7743.7, -2.473e-08
7745.7, -2.225e-08
7747.7, -2.617e-08
7749.7, -2.71e-08
7751.7, -3.069e-08
7753.7, -2.742e-08
7755.7, -2.787e-08
7757.7, -2.726e-08
7759.8, -2.534e-08
7761.8, -3.178e-08
7763.8, -2.845e-08
7765.8, -3.041e-08
7767.8, -2.662e-08
7769.8, -2.961e-08
7771.8, -2.798e-08
7773.8, -3.09e-08
7775.8, -3.019e-08
7777.8, -2.873e-08
7779.8, -2.771e-08
7781.8, -2.911e-08
7783.8, -2.633e-08
7785.8, -2.599e-08
7787.8, -2.579e-08
7789.8, -3.099e-08
7791.8, -2.589e-08
7793.8, -2.59e-08
7795.8, -3.185e-08
7797.8, -2.63e-08
7799.8, -2.808e-08
7801.8, -2.676e-08
7803.8, -2.97e-08
7805.8, -3.236e-08
7807.8, -2.454e-08
7809.8, -2.898e-08
7811.8, -2.739e-08
7813.8, -2.876e-08
7815.8, -2.781e-08
7817.8, -2.775e-08
7819.8, -2.731e-08
7821.8, -3.126e-08
7823.8, -3.14e-08
7825.8, -3.004e-08
7827.8, -2.687e-08
7829.8, -2.774e-08
7831.8, -2.974e-08
7833.8, -2.558e-08
7835.8, -2.793e-08
7837.8, -2.694e-08
7839.8, -2.555e-08
7841.8, -2.521e-08
7843.8, -2.659e-08
7845.8, -2.673e-08
7847.8, -2.973e-08
7849.8, -2.864e-08
7851.8, -2.779e-08
7853.8, -3.076e-08
7855.8, -2.615e-08
7857.8, -2.979e-08
7859.9, -3.185e-08
7861.9, -3.402e-08
7863.9, -2.854e-08
7865.9, -2.957e-08
7867.9, -3.019e-08
7869.9, -3.012e-08
7871.9, -3.257e-08
7873.9, -3.545e-08
7875.9, -2.857e-08
7877.9, -3.205e-08
7879.9, -2.933e-08
7881.9, -3.382e-08
7883.9, -3.223e-08
7885.9, -3.111e-08
7887.9, -2.755e-08
7889.9, -3.391e-08
7891.9, -2.919e-08
7893.9, -3.053e-08
7895.9, -2.9e-08
7897.9, -2.951e-08
7899.9, -2.736e-08
7901.9, -2.777e-08
7903.9, -2.804e-08
7905.9, -3.187e-08
7907.9, -3.021e-08
7909.9, -3.032e-08
7911.9, -2.748e-08
7913.9, -3.039e-08
7915.9, -2.514e-08
7917.9, -2.812e-08
7919.9, -2.589e-08
7921.9, -2.825e-08
7923.9, -2.597e-08
7925.9, -2.349e-08
7927.9, -2.8e-08
7929.9, -2.97e-08
7931.9, -2.574e-08
7933.9, -2.607e-08
7935.9, -2.978e-08
7937.9, -2.7e-08
7939.9, -2.806e-08
7941.9, -2.615e-08
7943.9, -3.107e-08
7945.9, -2.851e-08
7947.9, -2.854e-08
7949.9, -2.693e-08
7951.9, -2.681e-08
7953.9, -3.067e-08
7955.9, -3.138e-08
7957.9, -2.945e-08
7960.0, -2.746e-08
7962.0, -2.948e-08
7964.0, -2.962e-08
7966.0, -2.804e-08
7968.0, -3.017e-08
7970.0, -2.856e-08
7972.0, -3.042e-08
7974.0, -2.873e-08
7976.0, -2.955e-08
7978.0, -3.001e-08
7980.0, -2.882e-08
7982.0, -2.749e-08
7984.0, -2.945e-08
7986.0, -2.912e-08
7988.0, -2.854e-08
7990.0, -3.387e-08
7992.0, -3.087e-08
7994.0, -3.134e-08
7996.0, -2.883e-08
7998.0, -2.811e-08
8000.0, -2.79e-08
8002.0, -2.625e-08
8004.0, -3.129e-08
8006.0, -2.747e-08
8008.0, -2.797e-08
8010.0, -3.04e-08
8012.0, -2.967e-08
8014.0, -2.887e-08
8016.0, -2.94e-08
8018.0, -2.881e-08
8020.0, -2.757e-08
8022.0, -2.969e-08
8024.0, -2.952e-08
8026.0, -2.89e-08
8028.0, -2.681e-08
8030.0, -2.607e-08
8032.0, -2.54e-08
8034.0, -2.564e-08
8036.0, -2.507e-08
8038.0, -2.553e-08
8040.0, -2.666e-08
8042.0, -2.453e-08
8044.0, -2.739e-08
8046.0, -2.456e-08
8048.0, -2.884e-08
8050.0, -2.741e-08
8052.0, -2.542e-08
8054.0, -2.799e-08
8056.0, -2.486e-08
8058.0, -2.469e-08
8060.1, -2.664e-08
8062.1, -2.371e-08
8064.1, -2.368e-08
8066.1, -2.977e-08
8068.1, -3.031e-08
8070.1, -2.819e-08
8072.1, -3.066e-08
8074.1, -2.963e-08
8076.1, -3.265e-08
8078.1, -2.706e-08
8080.1, -2.851e-08
8082.1, -2.573e-08
8084.1, -2.82e-08
8086.1, -2.98e-08
8088.1, -3.065e-08
8090.1, -3.047e-08
8092.1, -2.7e-08
8094.1, -2.971e-08
8096.1, -2.904e-08
8098.1, -2.776e-08
8100.1, -3.127e-08
8102.1, -2.807e-08
8104.1, -2.696e-08
8106.1, -3.05e-08
8108.1, -2.545e-08
8110.1, -2.68e-08
8112.1, -3.109e-08
8114.1, -2.612e-08
8116.1, -2.974e-08
8118.1, -3.058e-08
8120.1, -2.858e-08
8122.1, -3.254e-08
8124.1, -2.846e-08
8126.1, -2.648e-08
8128.1, -2.891e-08
8130.1, -2.881e-08
8132.1, -2.702e-08
8134.1, -2.986e-08
8136.1, -3.018e-08
8138.1, -2.814e-08
8140.1, -2.52e-08
8142.1, -2.44e-08
8144.1, -2.481e-08
8146.1, -2.722e-08
8148.1, -2.265e-08
8150.1, -2.564e-08
8152.1, -2.57e-08
8154.1, -2.784e-08
8156.1, -2.765e-08
8158.1, -2.57e-08
8160.2, -2.407e-08
8162.2, -2.645e-08
8164.2, -2.738e-08
8166.2, -2.665e-08
8168.2, -2.724e-08
8170.2, -2.828e-08
8172.2, -2.485e-08
8174.2, -2.628e-08
8176.2, -2.762e-08
8178.2, -2.619e-08
8180.2, -2.585e-08
8182.2, -2.795e-08
8184.2, -2.633e-08
8186.2, -2.397e-08
8188.2, -2.745e-08
8190.2, -2.82e-08
8192.2, -2.685e-08
8194.2, -2.735e-08
8196.2, -2.554e-08
8198.2, -2.942e-08
8200.2, -2.73e-08
8202.2, -2.562e-08
8204.2, -2.622e-08
8206.2, -2.527e-08
8208.2, -2.323e-08
8210.2, -2.525e-08
8212.2, -2.242e-08
8214.2, -2.409e-08
8216.2, -2.584e-08
8218.2, -2.466e-08
8220.2, -2.678e-08
8222.2, -2.488e-08
8224.2, -2.43e-08
8226.2, -2.411e-08
8228.2, -2.414e-08
8230.2, -2.76e-08
8232.2, -2.602e-08
8234.2, -2.391e-08
8236.2, -2.51e-08
8238.2, -2.339e-08
8240.2, -2.408e-08
8242.2, -2.532e-08
8244.2, -2.542e-08
8246.2, -2.639e-08
8248.2, -2.215e-08
8250.2, -2.019e-08
8252.2, -2.409e-08
8254.2, -2.52e-08
8256.2, -2.444e-08
8258.2, -2.259e-08
8260.3, -2.349e-08
8262.3, -2.644e-08
8264.3, -2.484e-08
8266.3, -2.363e-08
8268.3, -2.361e-08
8270.3, -2.185e-08
8272.3, -2.713e-08
8274.3, -2.668e-08
8276.3, -2.62e-08
8278.3, -2.751e-08
8280.3, -2.578e-08
8282.3, -2.506e-08
8284.3, -2.389e-08
8286.3, -2.103e-08
8288.3, -2.4e-08
8290.3, -2.554e-08
8292.3, -2.314e-08
8294.3, -2.89e-08
8296.3, -2.541e-08
8298.3, -2.466e-08
8300.3, -2.482e-08
8302.3, -2.706e-08
8304.3, -2.474e-08
8306.3, -2.628e-08
8308.3, -2.43e-08
8310.3, -2.728e-08
8312.3, -2.507e-08
8314.3, -2.738e-08
8316.3, -2.494e-08
8318.3, -2.572e-08
8320.3, -2.408e-08
8322.3, -2.571e-08
8324.3, -2.801e-08
8326.3, -2.806e-08
8328.3, -2.344e-08
8330.3, -2.593e-08
8332.3, -2.414e-08
8334.3, -2.459e-08
8336.3, -2.566e-08
8338.3, -2.143e-08
8340.3, -2.051e-08
8342.3, -1.893e-08
8344.3, -2.361e-08
8346.3, -2.094e-08
8348.3, -1.91e-08
8350.3, -2.392e-08
8352.3, -2.164e-08
8354.3, -2.212e-08
8356.3, -2.129e-08
8358.3, -2.333e-08
8360.4, -2.162e-08
8362.4, -2.449e-08
8364.4, -2.327e-08
8366.4, -2.492e-08
8368.4, -2.684e-08
8370.4, -1.829e-08
8372.4, -2.425e-08
8374.4, -2.538e-08
8376.4, -2.65e-08
8378.4, -2.342e-08
8380.4, -2.668e-08
8382.4, -2.204e-08
8384.4, 4.9654e-06
8386.4, 4.8333e-06
8388.4, 4.8449e-06
8390.4, 4.8433e-06
8392.4, 4.939e-06
8394.4, 4.8714e-06
8396.4, 4.942e-06
8398.4, 4.7695e-06
8400.4, 4.8512e-06
8402.4, 4.9465e-06
8404.4, 4.8081e-06
8406.4, 5.0237e-06
8408.4, 4.7604e-06
8410.4, 4.8453e-06
8412.4, 4.8776e-06
8414.4, 4.9481e-06
8416.4, 4.8212e-06
8418.4, 4.983e-06
8420.4, 4.9701e-06
8422.4, 4.9888e-06
8424.4, 4.8999e-06
8426.4, 4.97e-06
8428.4, 4.7819e-06
8430.4, 5.0016e-06
8432.4, 4.8259e-06
8434.4, 4.8862e-06
8436.4, 4.9287e-06
8438.4, 4.9845e-06
8440.4, 4.8935e-06
8442.4, 5.0642e-06
8444.4, 4.859e-06
8446.4, 4.9834e-06
8448.4, 4.9989e-06
8450.4, 4.9944e-06
8452.4, 4.9207e-06
8454.4, 4.9676e-06
8456.4, 4.9511e-06
8458.4, 4.8538e-06
8460.5, 4.793e-06
8462.5, 4.9467e-06
8464.5, 4.88e-06
8466.5, 4.981e-06
8468.5, 4.8647e-06
8470.5, 4.9467e-06
8472.5, 4.957e-06
8474.5, 4.9864e-06
8476.5, 4.9325e-06
8478.5, 4.9527e-06
8480.5, 4.9633e-06
8482.5, 4.9473e-06
8484.5, 5.0478e-06
8486.5, 4.9151e-06
8488.5, 4.9042e-06
8490.5, 5.0292e-06
8492.5, 5.0247e-06
8494.5, 4.9582e-06
8496.5, 4.9894e-06
8498.5, 5.027e-06
8500.5, 4.9983e-06
8502.5, 4.9972e-06
8504.5, 4.988e-06
8506.5, 4.9685e-06
8508.5, 5.028e-06
8510.5, 5.0453e-06
8512.5, 4.9388e-06
8514.5, 4.9665e-06
8516.5, 4.9901e-06
8518.5, 5.0738e-06
8520.5, 4.8751e-06
8522.5, 5.1073e-06
8524.5, 5.1021e-06
8526.5, 4.9745e-06
8528.5, 5.0032e-06
8530.5, 4.9982e-06
8532.5, 5.0285e-06
8534.5, 4.9643e-06
8536.5, 4.8127e-06
8538.5, 5.0831e-06
8540.5, 4.9763e-06
8542.5, 4.9182e-06
8544.5, 4.9977e-06
8546.5, 4.9991e-06
8548.5, 4.8661e-06
8550.5, 5.0848e-06
8552.5, 4.918e-06
8554.5, 5.0184e-06
8556.5, 4.9963e-06
8558.5, 5.1057e-06
8560.6, 5.0093e-06
8562.6, 4.9714e-06
8564.6, 4.9913e-06
8566.6, 4.9412e-06
8568.6, 4.8722e-06
8570.6, 4.9837e-06
8572.6, 4.9155e-06
8574.6, 4.8868e-06
8576.6, 5.0026e-06
8578.6, 5.01e-06
8580.6, 5.1361e-06
8582.6, 4.9529e-06
8584.6, 5.0711e-06
8586.6, 4.948e-06
8588.6, 5.0519e-06
8590.6, 4.955e-06
8592.6, 5.0008e-06
8594.6, 5.1304e-06
8596.6, 5.1014e-06
8598.6, 4.9865e-06
8600.6, 5.1302e-06
8602.6, 5.0426e-06
8604.6, 5.0536e-06
8606.6, 5.0831e-06
8608.6, 5.0349e-06
8610.6, 4.9915e-06
8612.6, 4.9536e-06
8614.6, 5.0678e-06
8616.6, 4.9917e-06
8618.6, 5.0232e-06
8620.6, 5.027e-06
8622.6, 5.0846e-06
8624.6, 5.0802e-06
8626.6, 4.9763e-06
8628.6, 4.995e-06
8630.6, 5.0977e-06
8632.6, 4.9951e-06
8634.6, 4.9866e-06
8636.6, 5.1039e-06
8638.6, 5.1125e-06
8640.6, 5.1581e-06
8642.6, 4.9257e-06
8644.6, 4.9747e-06
8646.6, 5.0537e-06
8648.6, 5.0675e-06
8650.6, 4.8976e-06
8652.6, 5.025e-06
8654.6, 4.8945e-06
8656.6, 5.0424e-06
8658.6, 5.0888e-06
8660.7, 4.9382e-06
8662.7, 5.0103e-06
8664.7, 5.1394e-06
8666.7, 5.0933e-06
8668.7, 5.042e-06
8670.7, 5.0048e-06
8672.7, 4.9146e-06
8674.7, 5.0199e-06
8676.7, 4.9561e-06
8678.7, 5.0482e-06
8680.7, 4.9907e-06
8682.7, 4.9703e-06
8684.7, 4.9256e-06
8686.7, 5.0337e-06
8688.7, 5.0208e-06
8690.7, 4.9891e-06
8692.7, 5.125e-06
8694.7, 5.0213e-06
8696.7, 5.1287e-06
8698.7, 5.0626e-06
8700.7, 4.8584e-06
8702.7, 5.0204e-06
8704.7, 5.1263e-06
8706.7, 4.8036e-06
8708.7, 4.9081e-06
8710.7, 5.0686e-06
8712.7, 5.0885e-06
8714.7, 4.9626e-06
8716.7, 4.9628e-06
8718.7, 5.1041e-06
8720.7, 4.9906e-06
8722.7, 4.9232e-06
8724.7, 5.0383e-06
8726.7, 4.9537e-06
8728.7, 5.007e-06
8730.7, 5.0428e-06
8732.7, 5.0297e-06
8734.7, 5.072e-06
8736.7, 5.0338e-06
8738.7, 4.9668e-06
8740.7, 4.9648e-06
8742.7, 5.11e-06
8744.7, 4.9679e-06
8746.7, 4.9391e-06
8748.7, 5.0225e-06
8750.7, 5.0671e-06
8752.7, 5.0104e-06
8754.7, 5.2299e-06
8756.7, 5.0258e-06
8758.7, 4.9299e-06
8760.8, 4.9359e-06
8762.8, 5.0996e-06
8764.8, 5.0762e-06
8766.8, 5.138e-06
8768.8, 5.0699e-06
8770.8, 4.9459e-06
8772.8, 5.0858e-06
8774.8, 5.0796e-06
8776.8, 5.0232e-06
8778.8, 5.1266e-06
8780.8, 5.026e-06
8782.8, 5.1105e-06
8784.8, 4.9849e-06
8786.8, 5.0174e-06
8788.8, 5.0471e-06
8790.8, 5.034e-06
8792.8, 5.0406e-06
8794.8, 5.1072e-06
8796.8, 5.0617e-06
8798.8, 4.9496e-06
8800.8, 5.1686e-06
8802.8, 5.0007e-06
8804.8, 4.9506e-06
8806.8, 5.1235e-06
8808.8, 5.0138e-06
8810.8, 5.1156e-06
8812.8, 5.0655e-06
8814.8, 5.0816e-06
8816.8, 5.0035e-06
8818.8, 5.0215e-06
8820.8, 5.15e-06
8822.8, 5.023e-06
8824.8, 5.0419e-06
8826.8, 5.0593e-06
8828.8, 5.0925e-06
8830.8, 5.0548e-06
8832.8, 4.9716e-06
8834.8, 5.0284e-06
8836.8, 5.1004e-06
8838.8, 5.0113e-06
8840.8, 5.061e-06
8842.8, 5.1343e-06
8844.8, 5.0809e-06
8846.8, 5.0694e-06
8848.8, 5.1199e-06
8850.8, 5.0373e-06
8852.8, 4.9602e-06
8854.8, 5.1034e-06
8856.8, 5.1043e-06
8858.8, 5.0162e-06
8860.9, 5.1473e-06
8862.9, 5.1228e-06
8864.9, 5.0776e-06
8866.9, 5.1096e-06
8868.9, 5.1857e-06
8870.9, 5.0655e-06
8872.9, 5.0883e-06
8874.9, 5.0653e-06
8876.9, 5.0309e-06
8878.9, 4.9948e-06
8880.9, 5.068e-06
8882.9, 5.0845e-06
8884.9, 5.0433e-06
8886.9, 4.9782e-06
8888.9, 5.0021e-06
8890.9, 4.9793e-06
8892.9, 5.0969e-06
8894.9, 5.0791e-06
8896.9, 5.0878e-06
8898.9, 5.0553e-06
8900.9, 5.1204e-06
8902.9, 5.2208e-06
8904.9, 5.1993e-06
8906.9, 4.9802e-06
8908.9, 5.0475e-06
8910.9, 5.1529e-06
8912.9, 5.01e-06
8914.9, 4.9484e-06
8916.9, 5.0397e-06
8918.9, 5.0823e-06
8920.9, 5.0757e-06
8922.9, 4.9786e-06
8924.9, 5.1014e-06
8926.9, 5.0646e-06
8928.9, 5.1409e-06
8930.9, 5.1167e-06
8932.9, 5.1573e-06
8934.9, 5.088e-06
8936.9, 5.102e-06
8938.9, 5.0894e-06
8940.9, 5.1245e-06
8942.9, 4.9991e-06
8944.9, 5.0699e-06
8946.9, 5.0602e-06
8948.9, 5.0856e-06
8950.9, 5.0838e-06
8952.9, 5.0832e-06
8954.9, 5.1027e-06
8956.9, 5.0419e-06
8958.9, 5.1128e-06
8961.0, 5.0804e-06
8963.0, 5.105e-06
8965.0, 4.9621e-06
8967.0, 5.1071e-06
8969.0, 5.1328e-06
8971.0, 5.0946e-06
8973.0, 5.0312e-06
8975.0, 5.1061e-06
8977.0, 5.0971e-06
8979.0, 5.0942e-06
8981.0, 5.0949e-06
8983.0, 5.0843e-06
8985.0, 5.1303e-06
8987.0, 4.9738e-06
8989.0, 5.0622e-06
8991.0, 5.1464e-06
8993.0, 5.091e-06
8995.0, 4.9888e-06
8997.0, 5.125e-06
8999.0, 5.0321e-06
9001.0, 5.0321e-06
9003.0, 5.1536e-06
9005.0, 5.0678e-06
9007.0, 5.0079e-06
9009.0, 4.9901e-06
9011.0, 5.0583e-06
9013.0, 5.0685e-06
9015.0, 5.0732e-06
9017.0, 5.0097e-06
9019.0, 5.0164e-06
9021.0, 5.1175e-06
9023.0, 4.987e-06
9025.0, 5.1195e-06
9027.0, 4.9918e-06
9029.0, 5.1105e-06
9031.0, 5.0038e-06
9033.0, 5.0968e-06
9035.0, 5.1001e-06
9037.0, 5.056e-06
9039.0, 5.0425e-06
9041.0, 5.1952e-06
9043.0, 5.0375e-06
9045.0, 5.0765e-06
9047.0, 5.0506e-06
9049.0, 5.0134e-06
9051.0, 5.1056e-06
9053.0, 5.0737e-06
9055.0, 5.0635e-06
9057.0, 5.0288e-06
9059.0, 5.1278e-06
9061.1, 5.0315e-06
9063.1, 5.0497e-06
9065.1, 5.0332e-06
9067.1, 5.0276e-06
9069.1, 5.0617e-06
9071.1, 4.9752e-06
9073.1, 5.1272e-06
9075.1, 5.0026e-06
9077.1, 5.093e-06
9079.1, 5.0583e-06
9081.1, 5.0188e-06
9083.1, 5.0469e-06
9085.1, 5.0498e-06
9087.1, 5.1044e-06
9089.1, 5.117e-06
9091.1, 5.1673e-06
9093.1, 5.0887e-06
9095.1, 4.9993e-06
9097.1, 5.1201e-06
9099.1, 5.1735e-06
9101.1, 5.0154e-06
9103.1, 5.0743e-06
9105.1, 5.1097e-06
9107.1, 5.0632e-06
9109.1, 5.1018e-06
9111.1, 5.0747e-06
9113.1, 5.0908e-06
9115.1, 5.0488e-06
9117.1, 5.1335e-06
9119.1, 4.9959e-06
9121.1, 5.0716e-06
9123.1, 5.1556e-06
9125.1, 5.0463e-06
9127.1, 5.0817e-06
9129.1, 5.0687e-06
9131.1, 5.1157e-06
9133.1, 5.1941e-06
9135.1, 4.8856e-06
9137.1, 5.0499e-06
9139.1, 5.0301e-06
9141.1, 5.1055e-06
9143.1, 5.0633e-06
9145.1, 5.1221e-06
9147.1, 4.9812e-06
9149.1, 5.0643e-06
9151.1, 5.2017e-06
9153.1, 5.105e-06
9155.1, 5.0525e-06
9157.1, 5.0066e-06
9159.1, 5.1368e-06
9161.2, 5.0554e-06
9163.2, 5.1483e-06
9165.2, 4.9355e-06
9167.2, 5.0841e-06
9169.2, 5.0617e-06
9171.2, 5.095e-06
9173.2, 5.0893e-06
9175.2, 5.0329e-06
9177.2, 5.1357e-06
9179.2, 5.0325e-06
9181.2, 4.9085e-06
9183.2, 5.0481e-06
9185.2, 5.0608e-06
9187.2, 5.0263e-06
9189.2, 5.1116e-06
9191.2, 5.127e-06
9193.2, 5.1324e-06
9195.2, 4.9962e-06
9197.2, 5.0764e-06
9199.2, 4.9801e-06
9201.2, 4.9835e-06
9203.2, 5.0395e-06
9205.2, 5.0889e-06
9207.2, 5.0722e-06
9209.2, 5.1567e-06
9211.2, 5.0502e-06
9213.2, 5.1539e-06
9215.2, 4.9496e-06
9217.2, 4.99e-06
9219.2, 5.0916e-06
9221.2, 5.1069e-06
9223.2, 5.0479e-06
9225.2, 5.0834e-06
9227.2, 5.0425e-06
9229.2, 5.0822e-06
9231.2, 4.9062e-06
9233.2, 5.0038e-06
9235.2, 5.0324e-06
9237.2, 5.1083e-06
9239.2, 5.1877e-06
9241.2, 5.0979e-06
9243.2, 5.1057e-06
9245.2, 5.0911e-06
9247.2, 5.0631e-06
9249.2, 5.1952e-06
9251.2, 5.0746e-06
9253.2, 5.032e-06
9255.2, 5.1889e-06
9257.2, 5.0615e-06
9259.2, 5.0278e-06
9261.3, 5.0525e-06
9263.3, 5.069e-06
9265.3, 5.0139e-06
9267.3, 5.0933e-06
9269.3, 5.0529e-06
9271.3, 5.1153e-06
9273.3, 5.0718e-06
9275.3, 5.1061e-06
9277.3, 4.9567e-06
9279.3, 5.0646e-06
9281.3, 5.1244e-06
9283.3, 5.1698e-06
9285.3, 5.1264e-06
9287.3, 5.0883e-06
9289.3, 4.9242e-06
9291.3, 5.0345e-06
9293.3, 5.0792e-06
9295.3, 5.0474e-06
9297.3, 5.1265e-06
9299.3, 4.9741e-06
9301.3, 5.0791e-06
9303.3, 5.0006e-06
9305.3, 4.9258e-06
9307.3, 4.9854e-06
9309.3, 5.1675e-06
9311.3, 5.058e-06
9313.3, 5.0589e-06
9315.3, 4.9992e-06
9317.3, 5.0705e-06
9319.3, 5.0638e-06
9321.3, 5.045e-06
9323.3, 5.0198e-06
9325.3, 4.995e-06
9327.3, 4.9862e-06
9329.3, 5.0901e-06
9331.3, 5.015e-06
9333.3, 5.0947e-06
9335.3, 5.0917e-06
9337.3, 5.1179e-06
9339.3, 5.023e-06
9341.3, 5.1209e-06
9343.3, 5.0016e-06
9345.3, 5.0612e-06
9347.3, 5.0177e-06
9349.3, 5.0433e-06
9351.3, 5.0612e-06
9353.3, 5.0061e-06
9355.3, 5.0814e-06
9357.3, 4.9405e-06
9359.3, 5.1032e-06
9361.4, 5.1214e-06
9363.4, 4.9158e-06
9365.4, 5.0563e-06
9367.4, 5.0262e-06
9369.4, 5.1075e-06
9371.4, 4.9599e-06
9373.4, 5.0062e-06
9375.4, 4.8924e-06
9377.4, 5.0562e-06
9379.4, 5.1448e-06
9381.4, 5.0499e-06
9383.4, 5.0633e-06
9385.4, -1.316e-08
9387.4, -2.11e-08
9389.4, -2.089e-08
9391.4, -2.049e-08
9393.4, -1.789e-08
9395.4, -1.979e-08
9397.4, -1.868e-08
9399.4, -1.655e-08
9401.4, -2.004e-08
9403.4, -2.386e-08
9405.4, -2.138e-08
9407.4, -2.198e-08
9409.4, -2.271e-08
9411.4, -2.496e-08
9413.4, -2.43e-08
9415.4, -2.8e-08
9417.4, -2.073e-08
9419.4, -2.315e-08
9421.4, -1.701e-08
9423.4, -1.657e-08
9425.4, -1.951e-08
9427.4, -2.222e-08
9429.4, -2.094e-08
9431.4, -2.109e-08
9433.4, -2.017e-08
9435.4, -2.514e-08
9437.4, -2.101e-08
9439.4, -2.099e-08
9441.4, -2.082e-08
9443.4, -2.191e-08
9445.4, -2.326e-08
9447.4, -2.435e-08
9449.4, -2.6e-08
9451.4, -2.247e-08
9453.4, -2.313e-08
9455.4, -2.371e-08
9457.4, -2.336e-08
9459.4, -2.621e-08
9461.5, -2.327e-08
9463.5, -2.256e-08
9465.5, -2.425e-08
9467.5, -2.49e-08
9469.5, -2.294e-08
9471.5, -2.437e-08
9473.5, -2.65e-08
9475.5, -2.617e-08
9477.5, -2.433e-08
9479.5, -2.462e-08
9481.5, -2.892e-08
9483.5, -2.907e-08
9485.5, -2.617e-08
9487.5, -2.404e-08
9489.5, -2.494e-08
9491.5, -2.567e-08
9493.5, -2.696e-08
9495.5, -2.121e-08
9497.5, -2.538e-08
9499.5, -2.426e-08
9501.5, -2.527e-08
9503.5, -2.656e-08
9505.5, -2.344e-08
9507.5, -2.512e-08
9509.5, -2.354e-08
9511.5, -2.488e-08
9513.5, -2.347e-08
9515.5, -2.432e-08
9517.5, -2.753e-08
9519.5, -2.089e-08
9521.5, -2.464e-08
9523.5, -2.482e-08
9525.5, -2.731e-08
9527.5, -2.39e-08
9529.5, -2.421e-08
9531.5, -2.49e-08
9533.5, -1.969e-08
9535.5, -2.203e-08
9537.5, -2.256e-08
9539.5, -2.257e-08
9541.5, -2.48e-08
9543.5, -2.466e-08
9545.5, -2.65e-08
9547.5, -2.346e-08
9549.5, -2.276e-08
9551.5, -2.152e-08
9553.5, -2.232e-08
9555.5, -2.358e-08
9557.5, -2.466e-08
9559.5, -2.432e-08
9561.6, -2.35e-08
9563.6, -2.379e-08
9565.6, -2.428e-08
9567.6, -2.35e-08
9569.6, -2.157e-08
9571.6, -2.514e-08
9573.6, -2.231e-08
9575.6, -2.439e-08
9577.6, -2.333e-08
9579.6, -2.283e-08
9581.6, -2.469e-08
9583.6, -2.497e-08
9585.6, -2.326e-08
9587.6, -2.311e-08
9589.6, -2.287e-08
9591.6, -2.661e-08
9593.6, -2.273e-08
9595.6, -2.342e-08
9597.6, -2.284e-08
9599.6, -2.109e-08
9601.6, -2.023e-08
9603.6, -2.344e-08
9605.6, -2.863e-08
9607.6, -2.658e-08
9609.6, -2.465e-08
9611.6, -2.084e-08
9613.6, -1.957e-08
9615.6, -2.183e-08
9617.6, -2.229e-08
9619.6, -2.331e-08
9621.6, -2.53e-08
9623.6, -2.363e-08
9625.6, -2.137e-08
9627.6, -2.288e-08
9629.6, -2.055e-08
9631.6, -2.303e-08
9633.6, -2.188e-08
9635.6, -2.246e-08
9637.6, -2.104e-08
9639.6, -2.125e-08
9641.6, -2.004e-08
9643.6, -2.377e-08
9645.6, -2.309e-08
9647.6, -1.987e-08
9649.6, -2.227e-08
9651.6, -2.189e-08
9653.6, -2.324e-08
9655.6, -1.649e-08
9657.6, -2.024e-08
9659.6, -1.95e-08
9661.7, -2.054e-08
9663.7, -1.984e-08
9665.7, -2.307e-08
9667.7, -2.125e-08
9669.7, -1.858e-08
9671.7, -1.853e-08
9673.7, -2.279e-08
9675.7, -2.174e-08
9677.7, -2.422e-08
9679.7, -2.003e-08
9681.7, -2.148e-08
9683.7, -2.419e-08
9685.7, -2.591e-08
9687.7, -2.429e-08
9689.7, -2.218e-08
9691.7, -2.25e-08
9693.7, -2.411e-08
9695.7, -2.268e-08
9697.7, -2.385e-08
9699.7, -2.1e-08
9701.7, -2.47e-08
9703.7, -2.565e-08
9705.7, -2.724e-08
9707.7, -2.346e-08
9709.7, -2.553e-08
9711.7, -2.608e-08
9713.7, -2.48e-08
9715.7, -2.511e-08
9717.7, -2.648e-08
9719.7, -2.726e-08
9721.7, -2.68e-08
9723.7, -2.34e-08
9725.7, -2.257e-08
9727.7, -2.203e-08
9729.7, -2.523e-08
9731.7, -2.6e-08
9733.7, -2.808e-08
9735.7, -2.363e-08
9737.7, -2.365e-08
9739.7, -2.297e-08
9741.7, -2.336e-08
9743.7, -2.299e-08
9745.7, -2.702e-08
9747.7, -2.741e-08
9749.7, -2.646e-08
9751.7, -2.186e-08
9753.7, -2.441e-08
9755.7, -2.49e-08
9757.7, -2.258e-08
9759.7, -2.653e-08
9761.8, -2.41e-08
9763.8, -2.127e-08
9765.8, -2.489e-08
9767.8, -2.071e-08
9769.8, -2.077e-08
9771.8, -2.042e-08
9773.8, -2.158e-08
9775.8, -2.214e-08
9777.8, -2.009e-08
9779.8, -2.693e-08
9781.8, -2.388e-08
9783.8, -2.607e-08
9785.8, -2.717e-08
9787.8, -2.948e-08
9789.8, -2.297e-08
9791.8, -2.399e-08
9793.8, -2.362e-08
9795.8, -2.638e-08
9797.8, -2.487e-08
9799.8, -2.218e-08
9801.8, -2.539e-08
9803.8, -2.354e-08
9805.8, -2.503e-08
9807.8, -2.291e-08
9809.8, -2.441e-08
9811.8, -2.601e-08
9813.8, -2.449e-08
9815.8, -2.43e-08
9817.8, -2.574e-08
9819.8, -2.789e-08
9821.8, -2.86e-08
9823.8, -2.545e-08
9825.8, -2.644e-08
9827.8, -2.823e-08
9829.8, -2.952e-08
9831.8, -2.764e-08
9833.8, -2.95e-08
9835.8, -2.952e-08
9837.8, -3.012e-08
9839.8, -2.829e-08
9841.8, -2.864e-08
9843.8, -2.653e-08
9845.8, -2.71e-08
9847.8, -2.742e-08
9849.8, -2.56e-08
9851.8, -2.671e-08
9853.8, -2.63e-08
9855.8, -2.8e-08
9857.8, -2.653e-08
9859.8, -2.863e-08
9861.9, -2.952e-08
9863.9, -2.497e-08
9865.9, -2.562e-08
9867.9, -2.249e-08
9869.9, -2.375e-08
9871.9, -2.352e-08
9873.9, -2.324e-08
9875.9, -2.638e-08
9877.9, -2.557e-08
9879.9, -2.714e-08
9881.9, -2.28e-08
9883.9, -2.734e-08
9885.9, -2.575e-08
9887.9, -2.895e-08
9889.9, -2.55e-08
9891.9, -2.766e-08
9893.9, -2.886e-08
9895.9, -2.394e-08
9897.9, -2.665e-08
9899.9, -2.841e-08
9901.9, -2.799e-08
9903.9, -2.656e-08
9905.9, -3.007e-08
9907.9, -2.948e-08
9909.9, -2.69e-08
9911.9, -2.62e-08
9913.9, -2.758e-08
9915.9, -2.647e-08
9917.9, -2.956e-08
9919.9, -3.05e-08
9921.9, -2.65e-08
9923.9, -2.779e-08
9925.9, -2.651e-08
9927.9, -2.638e-08
9929.9, -2.656e-08
9931.9, -2.743e-08
9933.9, -2.408e-08
9935.9, -2.888e-08
9937.9, -2.495e-08
9939.9, -2.675e-08
9941.9, -2.516e-08
9943.9, -2.736e-08
9945.9, -2.54e-08
9947.9, -2.714e-08
9949.9, -2.346e-08
9951.9, -2.43e-08
9953.9, -2.33e-08
9955.9, -2.553e-08
9957.9, -2.755e-08
9959.9, -2.586e-08
9962.0, -2.559e-08
9964.0, -2.585e-08
9966.0, -2.337e-08
9968.0, -2.474e-08
9970.0, -2.563e-08
9972.0, -2.446e-08
9974.0, -2.601e-08
9976.0, -2.462e-08
9978.0, -2.523e-08
9980.0, -2.667e-08
9982.0, -2.577e-08
9984.0, -2.475e-08
9986.0, -2.551e-08
9988.0, -2.353e-08
9990.0, -2.092e-08
9992.0, -2.344e-08
9994.0, -2.42e-08
9996.0, -2.292e-08
9998.0, -2.627e-08
10000.0, -2.647e-08
10002.0, -2.562e-08
10004.0, -2.156e-08
10006.0, -2.008e-08
10008.0, -2.394e-08
10010.0, -2.427e-08
10012.0, -2.16e-08
10014.0, -2.291e-08
10016.0, -2.165e-08
10018.0, -2.066e-08
10020.0, -2.214e-08
10022.0, -2.285e-08
10024.0, -2.601e-08
10026.0, -2.538e-08
10028.0, -2.619e-08
10030.0, -2.735e-08
10032.0, -2.813e-08
10034.0, -2.37e-08
10036.0, -2.393e-08
10038.0, -2.947e-08
10040.0, -2.688e-08
10042.0, -2.739e-08
10044.0, -2.768e-08
10046.0, -2.482e-08
10048.0, -2.749e-08
10050.0, -2.589e-08
10052.0, -2.809e-08
10054.0, -2.534e-08
10056.0, -2.93e-08
10058.0, -2.932e-08
10060.0, -2.956e-08
10062.0, -2.487e-08
10064.0, -2.375e-08
10066.0, -2.81e-08
10068.0, -2.846e-08
10070.0, -2.853e-08
10072.0, -2.64e-08
10074.0, -2.823e-08
10076.0, -2.716e-08
10078.0, -2.92e-08
10080.0, -2.59e-08
10082.0, -2.344e-08
10084.0, -2.427e-08
10086.0, -2.473e-08
10088.0, -2.444e-08
10090.0, -2.662e-08
10092.0, -2.36e-08
10094.0, -2.073e-08
10096.0, -2.736e-08
10098.0, -2.704e-08
10100.0, -2.876e-08
10102.0, -2.768e-08
10104.0, -2.802e-08
10106.0, -2.624e-08
10108.0, -2.622e-08
10110.0, -2.72e-08
10112.0, -2.845e-08
10114.0, -2.656e-08
10116.0, -2.262e-08
10118.0, -2.885e-08
10120.0, -2.834e-08
10122.0, -2.452e-08
10124.0, -2.34e-08
10126.0, -2.76e-08
10128.0, -2.6e-08
10130.0, -2.733e-08
10132.0, -2.871e-08
10134.0, -2.685e-08
10136.0, -2.742e-08
10138.0, -2.701e-08
10140.0, -2.884e-08
10142.0, -2.507e-08
10144.0, -2.47e-08
10146.0, -2.545e-08
10148.0, -2.373e-08
10150.0, -2.248e-08
10152.0, -2.332e-08
10154.0, -2.622e-08
10156.0, -2.373e-08
10158.0, -2.453e-08
10160.0, -2.534e-08
10162.0, -1.936e-08
10164.0, -2.35e-08
10166.0, -2.56e-08
10168.0, -2.197e-08
10170.0, -2.442e-08
10172.0, -2.651e-08
10174.0, -2.674e-08
10176.0, -2.785e-08
10178.0, -2.699e-08
10180.0, -2.733e-08
10182.0, -2.923e-08
10184.0, -2.881e-08
10186.0, -2.809e-08
10188.0, -3.024e-08
10190.0, -2.646e-08
10192.0, -2.915e-08
10194.0, -2.582e-08
10196.0, -3.239e-08
10198.0, -2.705e-08
10200.0, -2.985e-08
10202.0, -2.9e-08
10204.0, -2.577e-08
10206.0, -2.749e-08
10208.0, -2.743e-08
10210.0, -2.801e-08
10212.0, -3.025e-08
10214.0, -2.852e-08
10216.0, -2.932e-08
10218.0, -2.579e-08
10220.0, -2.901e-08
10222.0, -2.99e-08
10224.0, -2.566e-08
10226.0, -2.891e-08
10228.0, -2.829e-08
10230.0, -2.98e-08
10232.0, -2.896e-08
10234.0, -2.929e-08
10236.0, -2.94e-08
10238.0, -2.966e-08
10240.0, -2.967e-08
10242.0, -2.743e-08
10244.0, -2.739e-08
10246.0, -2.966e-08
10248.0, -2.693e-08
10250.0, -2.663e-08
10252.0, -2.449e-08
10254.0, -2.655e-08
10256.0, -2.413e-08
10258.0, -2.52e-08
10260.0, -2.842e-08
10262.0, -2.71e-08
10264.0, -2.798e-08
10266.0, -2.657e-08
10268.0, -2.43e-08
10270.0, -2.6e-08
10272.0, -2.513e-08
10274.0, -2.173e-08
10276.0, -2.742e-08
10278.0, -2.506e-08
10280.0, -2.512e-08
10282.0, -2.404e-08
10284.0, -2.234e-08
10286.0, -2.706e-08
10288.0, -2.667e-08
10290.0, -2.848e-08
10292.0, -2.7e-08
10294.0, -2.336e-08
10296.0, -2.642e-08
10298.0, -2.513e-08
10300.0, -2.777e-08
10302.0, -2.548e-08
10304.0, -2.426e-08
10306.0, -2.605e-08
10308.0, -2.834e-08
10310.0, -2.799e-08
10312.0, -2.839e-08
10314.0, -2.836e-08
10316.0, -2.53e-08
10318.0, -2.723e-08
10320.0, -2.813e-08
10322.0, -2.768e-08
10324.0, -3.076e-08
10326.0, -2.986e-08
10328.0, -2.961e-08
10330.0, -2.705e-08
10332.0, -2.839e-08
10334.0, -2.74e-08
10336.0, -2.779e-08
10338.0, -2.828e-08
10340.0, -2.591e-08
10342.0, -3.047e-08
10344.0, -2.728e-08
10346.0, -2.731e-08
10348.0, -2.677e-08
10350.0, -2.73e-08
10352.0, -2.799e-08
10354.0, -2.591e-08
10356.0, -2.646e-08
10358.0, -2.724e-08
10360.0, -2.827e-08
10362.0, -2.741e-08
10364.0, -2.711e-08
10366.0, -3.043e-08
10368.0, -2.566e-08
10370.0, -2.915e-08
10372.0, -3.152e-08
10374.0, -2.84e-08
10376.0, -2.731e-08
10378.0, -2.823e-08
10380.0, -2.544e-08
10382.0, -2.982e-08
10384.0, -2.826e-08
10386.0, -2.693e-08
10388.0, -3.179e-08
10390.0, -2.89e-08
10392.0, -2.966e-08
10394.0, -2.897e-08
10396.0, -2.808e-08
10398.0, -2.779e-08
10400.0, -3.013e-08
10402.0, -2.434e-08
10404.0, -2.752e-08
10406.0, -2.713e-08
10408.0, -2.763e-08
10410.0, -2.471e-08
10412.0, -2.689e-08
10414.0, -2.896e-08
10416.0, -2.777e-08
10418.0, -2.726e-08
10420.0, -3.059e-08
10422.0, -2.783e-08
10424.0, -2.633e-08
10426.0, -2.973e-08
10428.0, -2.773e-08
10430.0, -3.257e-08
10432.0, -2.85e-08
10434.0, -2.943e-08
10436.0, -3.027e-08
10438.0, -2.67e-08
10440.0, -2.809e-08
10442.0, -2.724e-08
10444.0, -2.724e-08
10446.0, -2.707e-08
10448.0, -2.943e-08
10450.0, -2.963e-08
10452.0, -2.728e-08
10454.0, -3.051e-08
10456.0, -3.109e-08
10458.0, -3.248e-08
10460.0, -3.083e-08
10462.0, -3.165e-08
10464.0, -3.365e-08
10466.0, 3.509e-06
10468.0, 4.6052e-06
10470.0, 4.6721e-06
10472.0, 4.6304e-06
10474.0, 4.7333e-06
10476.0, 4.7504e-06
10478.0, 4.6882e-06
10480.0, 4.8189e-06
10482.0, 4.7409e-06
10484.0, 4.7633e-06
10486.0, 4.7597e-06
10488.0, 4.8359e-06
10490.0, 4.7852e-06
10492.0, 4.8672e-06
10494.0, 4.8935e-06
10496.0, 4.8795e-06
10498.0, 4.7971e-06
10500.0, 4.6735e-06
10502.0, 4.7286e-06
10504.0, 4.7632e-06
10506.0, 4.7395e-06
10508.0, 4.7873e-06
10510.0, 4.8482e-06
10513.0, 4.9186e-06
10515.0, 4.8026e-06
10517.0, 4.871e-06
10519.0, 4.7852e-06
10521.0, 4.7393e-06
10523.0, 4.7576e-06
10525.0, 4.7357e-06
10527.0, 4.7659e-06
10529.0, 4.7037e-06
10531.0, 4.8462e-06
10533.0, 4.8251e-06
10535.0, 4.7839e-06
10537.0, 4.8882e-06
10539.0, 4.7478e-06
10541.0, 4.8222e-06
10543.0, 4.8674e-06
10545.0, 4.8323e-06
10547.0, 4.7478e-06
10549.0, 4.8288e-06
10551.0, 4.81e-06
10553.0, 4.8151e-06
10555.0, 4.8285e-06
10557.0, 4.7808e-06
10559.0, 4.7337e-06
10561.0, 4.8131e-06
10563.0, 4.7432e-06
10565.0, 4.7809e-06
10567.0, 4.8687e-06
10569.0, 4.7288e-06
10571.0, 4.9718e-06
10573.0, 4.8661e-06
10575.0, 4.8643e-06
10577.0, 4.8795e-06
10579.0, 4.7193e-06
10581.0, 4.7391e-06
10583.0, 4.8719e-06
10585.0, 4.8277e-06
10587.0, 4.8823e-06
10589.0, 4.8432e-06
10591.0, 4.9509e-06
10593.0, 4.8178e-06
10595.0, 4.8376e-06
10597.0, 4.9378e-06
10599.0, 4.8242e-06
10601.0, 4.8373e-06
10603.0, 4.8904e-06
10605.0, 4.7461e-06
10607.0, 4.9438e-06
10609.0, 4.826e-06
10611.0, 4.8354e-06
10613.0, 4.8298e-06
10615.0, 5.0056e-06
10617.0, 4.8923e-06
10619.0, 4.8095e-06
10621.0, 4.8358e-06
10623.0, 4.8805e-06
10625.0, 4.8351e-06
10627.0, 4.797e-06
10629.0, 4.8895e-06
10631.0, 4.8371e-06
10633.0, 4.8043e-06
10635.0, 4.8478e-06
10637.0, 4.7628e-06
10639.0, 4.8007e-06
10641.0, 4.7848e-06
10643.0, 4.8628e-06
10645.0, 4.9324e-06
10647.0, 4.8172e-06
10649.0, 4.8472e-06
10651.0, 4.8429e-06
10653.0, 4.9244e-06
10655.0, 4.7867e-06
10657.0, 4.9708e-06
10659.0, 4.9748e-06
10661.0, 4.9215e-06
10663.0, 4.877e-06
10665.0, 4.9377e-06
10667.0, 4.9594e-06
10669.0, 5.0012e-06
10671.0, 4.9083e-06
10673.0, 4.8036e-06
10675.0, 4.8812e-06
10677.0, 4.8982e-06
10679.0, 4.8869e-06
10681.0, 4.8244e-06
10683.0, 4.8451e-06
10685.0, 4.823e-06
10687.0, 4.8812e-06
10689.0, 4.8839e-06
10691.0, 4.9029e-06
10693.0, 4.9824e-06
10695.0, 4.8745e-06
10697.0, 4.8383e-06
10699.0, 4.9059e-06
10701.0, 4.7809e-06
10703.0, 4.744e-06
10705.0, 4.8536e-06
10707.0, 4.8931e-06
10709.0, 4.8656e-06
10711.0, 4.8717e-06
10713.0, 4.9094e-06
10715.0, 4.9707e-06
10717.0, 4.9167e-06
10719.0, 4.8286e-06
10721.0, 4.9199e-06
10723.0, 4.8214e-06
10725.0, 4.9178e-06
10727.0, 4.8697e-06
10729.0, 4.9675e-06
10731.0, 4.9696e-06
10733.0, 4.8769e-06
10735.0, 4.9148e-06
10737.0, 4.8192e-06
10739.0, 4.9207e-06
10741.0, 4.9162e-06
10743.0, 4.8087e-06
10745.0, 4.8826e-06
10747.0, 4.8737e-06
10749.0, 4.8743e-06
10751.0, 4.9387e-06
10753.0, 4.9638e-06
10755.0, 4.8603e-06
10757.0, 5.0187e-06
10759.0, 5.0267e-06
10761.0, 4.9265e-06
10763.0, 4.9714e-06
10765.0, 4.9088e-06
10767.0, 4.8148e-06
10769.0, 4.8773e-06
10771.0, 4.9359e-06
10773.0, 4.8141e-06
10775.0, 4.9437e-06
10777.0, 4.7698e-06
10779.0, 4.8489e-06
10781.0, 4.9055e-06
10783.0, 4.9413e-06
10785.0, 4.8433e-06
10787.0, 4.8839e-06
10789.0, 4.9204e-06
10791.0, 4.897e-06
10793.0, 4.9209e-06
10795.0, 4.932e-06
10797.0, 4.9367e-06
10799.0, 4.8642e-06
10801.0, 4.8509e-06
10803.0, 4.9081e-06
10805.0, 4.9866e-06
10807.0, 4.8941e-06
10809.0, 4.8657e-06
10811.0, 4.9069e-06
10813.0, 4.8846e-06
10815.0, 4.9258e-06
10817.0, 4.8573e-06
10819.0, 4.8764e-06
10821.0, 4.927e-06
10823.0, 4.7705e-06
10825.0, 4.9428e-06
10827.0, 4.9701e-06
10829.0, 4.9296e-06
10831.0, 4.8587e-06
10833.0, 4.9176e-06
10835.0, 4.8765e-06
10837.0, 4.8407e-06
10839.0, 4.9651e-06
10841.0, 4.8667e-06
10843.0, 4.9004e-06
10845.0, 4.9176e-06
10847.0, 4.8582e-06
10849.0, 4.8533e-06
10851.0, 4.9053e-06
10853.0, 4.9223e-06
10855.0, 4.9459e-06
10857.0, 4.9792e-06
10859.0, 4.9799e-06
10861.0, 4.8598e-06
10863.0, 4.9329e-06
10865.0, 4.9755e-06
10867.0, 4.9546e-06
10869.0, 4.8494e-06
10871.0, 4.9936e-06
10873.0, 4.8881e-06
10875.0, 4.9425e-06
10877.0, 4.952e-06
10879.0, 5.0052e-06
10881.0, 4.7883e-06
10883.0, 4.8375e-06
10885.0, 4.928e-06
10887.0, 4.9884e-06
10889.0, 4.8749e-06
10891.0, 4.8991e-06
10893.0, 4.8725e-06
10895.0, 4.8741e-06
10897.0, 4.8479e-06
10899.0, 4.8923e-06
10901.0, 4.8108e-06
10903.0, 4.8901e-06
10905.0, 4.991e-06
10907.0, 4.9586e-06
10909.0, 4.8393e-06
10911.0, 4.812e-06
10913.0, 4.8621e-06
10915.0, 4.9201e-06
10917.0, 4.9361e-06
10919.0, 4.8969e-06
10921.0, 4.8941e-06
10923.0, 4.9315e-06
10925.0, 4.9263e-06
10927.0, 4.909e-06
10929.0, 4.927e-06
10931.0, 4.8232e-06
10933.0, 4.8669e-06
10935.0, 4.934e-06
10937.0, 4.9258e-06
10939.0, 4.8933e-06
10941.0, 4.9049e-06
10943.0, 4.8408e-06
10945.0, 4.9728e-06
10947.0, 4.9388e-06
10949.0, 4.9532e-06
10951.0, 4.9707e-06
10953.0, 4.8701e-06
10955.0, 4.9566e-06
10957.0, 4.9874e-06
10959.0, 4.9027e-06
10961.0, 4.9156e-06
10963.0, 4.9979e-06
10965.0, 4.8797e-06
10967.0, 4.8681e-06
10969.0, 4.8486e-06
10971.0, 4.8941e-06
10973.0, 4.9222e-06
10975.0, 4.9937e-06
10977.0, 4.9515e-06
10979.0, 4.9008e-06
10981.0, 4.951e-06
10983.0, 4.8915e-06
10985.0, 4.9328e-06
10987.0, 4.984e-06
10989.0, 4.8644e-06
10991.0, 4.8757e-06
10993.0, 4.9846e-06
10995.0, 4.9329e-06
10997.0, 4.947e-06
10999.0, 4.9881e-06
11001.0, 4.9614e-06
11003.0, 5.0254e-06
11005.0, 4.9414e-06
11007.0, 4.9886e-06
11009.0, 4.939e-06
