Time sep (ms?), Current (A)
0.0, -3.631e-08
2.002, -3.673e-08
4.004, -3.39e-08
6.006, -3.609e-08
8.008, -3.298e-08
10.01, -3.498e-08
12.012, -3.194e-08
14.014, -2.992e-08
16.016, -3.261e-08
18.018, -3.203e-08
20.02, -3.276e-08
22.022, -3.213e-08
24.024, -3.627e-08
26.026, -3.381e-08
28.028, -3.309e-08
30.03, -3.204e-08
32.032, -3.434e-08
34.034, -3.459e-08
36.036, -3.358e-08
38.038, -3.309e-08
40.04, -3.422e-08
42.042, -3.599e-08
44.044, -3.563e-08
46.046, -3.59e-08
48.048, -3.497e-08
50.05, -3.433e-08
52.052, -3.679e-08
54.054, -3.663e-08
56.056, -3.644e-08
58.058, -3.582e-08
60.06, -3.669e-08
62.062, -3.492e-08
64.064, -3.258e-08
66.066, -3.592e-08
68.068, -3.595e-08
70.07, -3.94e-08
72.072, -3.555e-08
74.074, -3.546e-08
76.076, -3.035e-08
78.078, -3.154e-08
80.08, -3.438e-08
82.082, -3.431e-08
84.084, -3.189e-08
86.086, -3.344e-08
88.088, -3.469e-08
90.09, -3.374e-08
92.092, -3.432e-08
94.094, -3.334e-08
96.096, -3.691e-08
98.098, -3.549e-08
100.1, -3.335e-08
102.1, -3.356e-08
104.1, -3.318e-08
106.11, -3.888e-08
108.11, -3.791e-08
110.11, -3.95e-08
112.11, -4.006e-08
114.11, -4.186e-08
116.12, -4.172e-08
118.12, -3.511e-08
120.12, -3.266e-08
122.12, -3.638e-08
124.12, -3.832e-08
126.13, -3.604e-08
128.13, -3.622e-08
130.13, -3.756e-08
132.13, -3.323e-08
134.13, -3.617e-08
136.14, -3.806e-08
138.14, -3.304e-08
140.14, -3.145e-08
142.14, -3.224e-08
144.14, -3.138e-08
146.15, -3.289e-08
148.15, -3.115e-08
150.15, -3.392e-08
152.15, -3.547e-08
154.15, -3.561e-08
156.16, -3.397e-08
158.16, -3.252e-08
160.16, -2.958e-08
162.16, -3.029e-08
164.16, -3.279e-08
166.17, -3.331e-08
168.17, -3.153e-08
170.17, -3.454e-08
172.17, -3.322e-08
174.17, -3.075e-08
176.18, -3.194e-08
178.18, -3.384e-08
180.18, -2.892e-08
182.18, -3.502e-08
184.18, -3.162e-08
186.19, -3.017e-08
188.19, -3.18e-08
190.19, -3.192e-08
192.19, -3.083e-08
194.19, -3.632e-08
196.2, -3.319e-08
198.2, -3.084e-08
200.2, -3.899e-08
202.2, -3.396e-08
204.2, -3.09e-08
206.21, -3.335e-08
208.21, -3.388e-08
210.21, -3.114e-08
212.21, -2.9e-08
214.21, -2.799e-08
216.22, -3.058e-08
218.22, -3.158e-08
220.22, -3.41e-08
222.22, -3.654e-08
224.22, -3.65e-08
226.23, -3.172e-08
228.23, -3.544e-08
230.23, -3.382e-08
232.23, -3.814e-08
234.23, -3.659e-08
236.24, -3.21e-08
238.24, -3.748e-08
240.24, -3.697e-08
242.24, -3.421e-08
244.24, -3.444e-08
246.25, -3.422e-08
248.25, -3.496e-08
250.25, -3.374e-08
252.25, -3.235e-08
254.25, -3.351e-08
256.26, -3.172e-08
258.26, -3.469e-08
260.26, -3.495e-08
262.26, -3.177e-08
264.26, -3.546e-08
266.27, -3.305e-08
268.27, -3.521e-08
270.27, -3.134e-08
272.27, -3.537e-08
274.27, -3.415e-08
276.28, -3.303e-08
278.28, -3.745e-08
280.28, -3.444e-08
282.28, -3.512e-08
284.28, -3.902e-08
286.29, -3.587e-08
288.29, -3.542e-08
290.29, -3.61e-08
292.29, -3.862e-08
294.29, -4.001e-08
296.3, -3.426e-08
298.3, -3.359e-08
300.3, -3.194e-08
302.3, -3.531e-08
304.3, -3.766e-08
306.31, -3.572e-08
308.31, -3.303e-08
310.31, -3.521e-08
312.31, -3.7e-08
314.31, -3.516e-08
316.32, -3.445e-08
318.32, -3.418e-08
320.32, -3.447e-08
322.32, -3.207e-08
324.32, -3.625e-08
326.33, -3.656e-08
328.33, -3.438e-08
330.33, -3.578e-08
332.33, -3.252e-08
334.33, -3.217e-08
336.34, -3.461e-08
338.34, -3.012e-08
340.34, -3.287e-08
342.34, -3.349e-08
344.34, -4.066e-08
346.35, -3.845e-08
348.35, -3.474e-08
350.35, -4.091e-08
352.35, -3.831e-08
354.35, -4.075e-08
356.36, -3.854e-08
358.36, -3.956e-08
360.36, -3.435e-08
362.36, -3.828e-08
364.36, -3.687e-08
366.37, -3.787e-08
368.37, -3.452e-08
370.37, -3.7e-08
372.37, -3.4e-08
374.37, -3.676e-08
376.38, -3.694e-08
378.38, -3.676e-08
380.38, -3.329e-08
382.38, -3.534e-08
384.38, -3e-08
386.39, -3.659e-08
388.39, -3.712e-08
390.39, -3.408e-08
392.39, -3.509e-08
394.39, -3.707e-08
396.4, -3.412e-08
398.4, -3.473e-08
400.4, -3.498e-08
402.4, -3.255e-08
404.4, -2.909e-08
406.41, -3.176e-08
408.41, -3.439e-08
410.41, -3.206e-08
412.41, -3.217e-08
414.41, -3.509e-08
416.42, -3.218e-08
418.42, -3.443e-08
420.42, -3.256e-08
422.42, -3.589e-08
424.42, -3.476e-08
426.43, -3.075e-08
428.43, -3.516e-08
430.43, -3.378e-08
432.43, -3.43e-08
434.43, -3.402e-08
436.44, -3.194e-08
438.44, -3.627e-08
440.44, -3.773e-08
442.44, -3.3e-08
444.44, -2.995e-08
446.45, -3.222e-08
448.45, -3.66e-08
450.45, -3.022e-08
452.45, -3.156e-08
454.45, -3.12e-08
456.46, -3.043e-08
458.46, -3.795e-08
460.46, -3.316e-08
462.46, -3.318e-08
464.46, -3.387e-08
466.47, -3.491e-08
468.47, -3.254e-08
470.47, -3.392e-08
472.47, -3.276e-08
474.47, -3.331e-08
476.48, -2.893e-08
478.48, -3.717e-08
480.48, -3.003e-08
482.48, -2.942e-08
484.48, -2.788e-08
486.49, -2.953e-08
488.49, -2.88e-08
490.49, -3.219e-08
492.49, -3.047e-08
494.49, -3.416e-08
496.5, -3.507e-08
498.5, -3.253e-08
500.5, -3.399e-08
502.5, -3.259e-08
504.5, -3.527e-08
506.51, -3.433e-08
508.51, -3.506e-08
510.51, -3.115e-08
512.51, -3.21e-08
514.51, -3.576e-08
516.52, -3.49e-08
518.52, -3.169e-08
520.52, -3.242e-08
522.52, -3.146e-08
524.52, -3.364e-08
526.53, -3.518e-08
528.53, -3.248e-08
530.53, -3.003e-08
532.53, -3.062e-08
534.53, -3.234e-08
536.54, -2.941e-08
538.54, -3.618e-08
540.54, -3.166e-08
542.54, -3.231e-08
544.54, -3.272e-08
546.55, -3.489e-08
548.55, -3.205e-08
550.55, -3.173e-08
552.55, -2.887e-08
554.55, -2.992e-08
556.56, -2.902e-08
558.56, -2.904e-08
560.56, -2.879e-08
562.56, -3.229e-08
564.56, -2.843e-08
566.57, -3.1e-08
568.57, -3.156e-08
570.57, -3.302e-08
572.57, -3.441e-08
574.57, -3.242e-08
576.58, -3.034e-08
578.58, -3.016e-08
580.58, -3.227e-08
582.58, -2.887e-08
584.58, -2.913e-08
586.59, -3.135e-08
588.59, -3.088e-08
590.59, -2.961e-08
592.59, -2.867e-08
594.59, -2.856e-08
596.6, -3.294e-08
598.6, -3.243e-08
600.6, -3.07e-08
602.6, -3.079e-08
604.6, -2.829e-08
606.61, -2.8e-08
608.61, -2.867e-08
610.61, -2.962e-08
612.61, -2.895e-08
614.61, -3.178e-08
616.62, -3.044e-08
618.62, -2.808e-08
620.62, -2.439e-08
622.62, -2.983e-08
624.62, -2.654e-08
626.63, -2.649e-08
628.63, -2.211e-08
630.63, -2.448e-08
632.63, -2.44e-08
634.63, -2.57e-08
636.64, -2.807e-08
638.64, -2.781e-08
640.64, -2.929e-08
642.64, -2.726e-08
644.64, -2.647e-08
646.65, -2.508e-08
648.65, -2.673e-08
650.65, -2.796e-08
652.65, -2.609e-08
654.65, -2.332e-08
656.66, -2.379e-08
658.66, -2.885e-08
660.66, -2.378e-08
662.66, -2.485e-08
664.66, -1.941e-08
666.67, -2.242e-08
668.67, -2.517e-08
670.67, -2.636e-08
672.67, -2.765e-08
674.67, -2.762e-08
676.68, -2.869e-08
678.68, -3.091e-08
680.68, -2.979e-08
682.68, -2.679e-08
684.68, -2.943e-08
686.69, -2.994e-08
688.69, -2.796e-08
690.69, -2.849e-08
692.69, -2.699e-08
694.69, -3.015e-08
696.7, -2.824e-08
698.7, -2.845e-08
700.7, -2.697e-08
702.7, -2.843e-08
704.7, -2.699e-08
706.71, -2.673e-08
708.71, -2.645e-08
710.71, -2.916e-08
712.71, -2.638e-08
714.71, -2.743e-08
716.72, -2.854e-08
718.72, -3.175e-08
720.72, -2.726e-08
722.72, -2.839e-08
724.72, -2.832e-08
726.73, -2.931e-08
728.73, -2.659e-08
730.73, -3.026e-08
732.73, -2.558e-08
734.73, -2.582e-08
736.74, -2.686e-08
738.74, -3.099e-08
740.74, -2.729e-08
742.74, -2.928e-08
744.74, -2.725e-08
746.75, -2.968e-08
748.75, -3.002e-08
750.75, -3.033e-08
752.75, -3.119e-08
754.75, -2.803e-08
756.76, -2.676e-08
758.76, -2.735e-08
760.76, -2.82e-08
762.76, -2.603e-08
764.76, -2.732e-08
766.77, -2.957e-08
768.77, -2.792e-08
770.77, -2.921e-08
772.77, -3.003e-08
774.77, -3.278e-08
776.78, -2.727e-08
778.78, -3.14e-08
780.78, -3.177e-08
782.78, -2.897e-08
784.78, -3.166e-08
786.79, -2.99e-08
788.79, -2.957e-08
790.79, -2.695e-08
792.79, -2.938e-08
794.79, -2.82e-08
796.8, -3.011e-08
798.8, -3.059e-08
800.8, -2.834e-08
802.8, -2.924e-08
804.8, -3.609e-08
806.81, -3.056e-08
808.81, -3.219e-08
810.81, -3.168e-08
812.81, -3.035e-08
814.81, -2.906e-08
816.82, -3.361e-08
818.82, -3.426e-08
820.82, -3.371e-08
822.82, -2.813e-08
824.82, -3.433e-08
826.83, -3.359e-08
828.83, -3.355e-08
830.83, -3.123e-08
832.83, -3.3e-08
834.83, -3.145e-08
836.84, -2.97e-08
838.84, -2.697e-08
840.84, -2.733e-08
842.84, -2.958e-08
844.84, -3.127e-08
846.85, -3.029e-08
848.85, -2.854e-08
850.85, -2.895e-08
852.85, -2.735e-08
854.85, -2.876e-08
856.86, -3.198e-08
858.86, -3.049e-08
860.86, -3.067e-08
862.86, -2.701e-08
864.86, -3.443e-08
866.87, -3.017e-08
868.87, -3.257e-08
870.87, -2.928e-08
872.87, -2.985e-08
874.87, -2.933e-08
876.88, -3.091e-08
878.88, -3.362e-08
880.88, -3.1e-08
882.88, -3.33e-08
884.88, -3.181e-08
886.89, -3.053e-08
888.89, -3.238e-08
890.89, -2.923e-08
892.89, -3.034e-08
894.89, -3.361e-08
896.9, -3.26e-08
898.9, -3.102e-08
900.9, -2.883e-08
902.9, -2.794e-08
904.9, -2.613e-08
906.91, -2.83e-08
908.91, -2.714e-08
910.91, -2.847e-08
912.91, -2.691e-08
914.91, -2.855e-08
916.92, -3.041e-08
918.92, -3.144e-08
920.92, -3.132e-08
922.92, -3.038e-08
924.92, -3.003e-08
926.93, -3.116e-08
928.93, -2.713e-08
930.93, -2.518e-08
932.93, -2.794e-08
934.93, -2.765e-08
936.94, -2.994e-08
938.94, -3.307e-08
940.94, -2.834e-08
942.94, -3.001e-08
944.94, -2.66e-08
946.95, -2.837e-08
948.95, -3.058e-08
950.95, -3.083e-08
952.95, -3.125e-08
954.95, -3.127e-08
956.96, -3.556e-08
958.96, -3.428e-08
960.96, -3.708e-08
962.96, -2.913e-08
964.96, -3.005e-08
966.97, -3.066e-08
968.97, -3.4e-08
970.97, -3.221e-08
972.97, -3.145e-08
974.97, -3.065e-08
976.98, -2.948e-08
978.98, -3.329e-08
980.98, -2.971e-08
982.98, -2.872e-08
984.98, -3.094e-08
986.99, -3.144e-08
988.99, -3.133e-08
990.99, -3.045e-08
992.99, -3.167e-08
994.99, -3.24e-08
997.0, -2.791e-08
999.0, -2.991e-08
1001.0, -2.959e-08
1003.0, -2.685e-08
1005.0, -3.267e-08
1007.0, -3.119e-08
1009.0, -3.006e-08
1011.0, -3.026e-08
1013.0, 5.0756e-06
1015.0, 5.0032e-06
1017.0, 5.0471e-06
1019.0, 5.1018e-06
1021.0, 5.0057e-06
1023.0, 5.0852e-06
1025.0, 5.0552e-06
1027.0, 5.0957e-06
1029.0, 5.173e-06
1031.0, 5.1371e-06
1033.0, 5.0057e-06
1035.0, 5.0936e-06
1037.0, 4.9854e-06
1039.0, 5.143e-06
1041.0, 5.0804e-06
1043.0, 4.9901e-06
1045.0, 5.1951e-06
1047.0, 5.1406e-06
1049.0, 4.969e-06
1051.0, 5.132e-06
1053.1, 5.1605e-06
1055.1, 4.976e-06
1057.1, 5.0506e-06
1059.1, 5.1192e-06
1061.1, 5.0734e-06
1063.1, 5.1413e-06
1065.1, 5.0871e-06
1067.1, 5.0599e-06
1069.1, 5.155e-06
1071.1, 5.135e-06
1073.1, 5.1064e-06
1075.1, 5.0787e-06
1077.1, 5.1442e-06
1079.1, 5.2018e-06
1081.1, 5.0763e-06
1083.1, 5.0395e-06
1085.1, 5.1592e-06
1087.1, 5.1028e-06
1089.1, 5.1789e-06
1091.1, 5.1826e-06
1093.1, 5.1823e-06
1095.1, 5.0799e-06
1097.1, 5.233e-06
1099.1, 4.9391e-06
1101.1, 5.1712e-06
1103.1, 5.1567e-06
1105.1, 5.1333e-06
1107.1, 5.1588e-06
1109.1, 5.1456e-06
1111.1, 5.0951e-06
1113.1, 5.1169e-06
1115.1, 5.1301e-06
1117.1, 5.1532e-06
1119.1, 5.1138e-06
1121.1, 5.2802e-06
1123.1, 5.1268e-06
1125.1, 5.1932e-06
1127.1, 5.1675e-06
1129.1, 5.1133e-06
1131.1, 5.0953e-06
1133.1, 5.143e-06
1135.1, 5.1239e-06
1137.1, 5.1001e-06
1139.1, 5.1809e-06
1141.1, 5.1828e-06
1143.1, 5.1077e-06
1145.1, 5.1688e-06
1147.1, 5.1224e-06
1149.1, 5.1249e-06
1151.1, 5.1693e-06
1153.2, 5.179e-06
1155.2, 5.2662e-06
1157.2, 5.1963e-06
1159.2, 5.3273e-06
1161.2, 5.1461e-06
1163.2, 5.1358e-06
1165.2, 5.3337e-06
1167.2, 5.1948e-06
1169.2, 5.302e-06
1171.2, 5.186e-06
1173.2, 5.1907e-06
1175.2, 5.1518e-06
1177.2, 5.2214e-06
1179.2, 5.0977e-06
1181.2, 5.2197e-06
1183.2, 5.0988e-06
1185.2, 5.0335e-06
1187.2, 5.1735e-06
1189.2, 5.1503e-06
1191.2, 5.2538e-06
1193.2, 5.2295e-06
1195.2, 5.1472e-06
1197.2, 5.1931e-06
1199.2, 5.19e-06
1201.2, 5.1498e-06
1203.2, 5.1237e-06
1205.2, 5.26e-06
1207.2, 5.1558e-06
1209.2, 5.2536e-06
1211.2, 5.311e-06
1213.2, 5.1592e-06
1215.2, 5.1334e-06
1217.2, 5.1853e-06
1219.2, 5.1128e-06
1221.2, 5.1451e-06
1223.2, 5.2092e-06
1225.2, 5.1686e-06
1227.2, 5.1898e-06
1229.2, 5.1203e-06
1231.2, 5.2118e-06
1233.2, 5.3476e-06
1235.2, 5.0706e-06
1237.2, 5.1928e-06
1239.2, 5.136e-06
1241.2, 5.226e-06
1243.2, 5.2422e-06
1245.2, 5.2364e-06
1247.2, 5.195e-06
1249.2, 5.3053e-06
1251.2, 5.2202e-06
1253.3, 5.1584e-06
1255.3, 5.2062e-06
1257.3, 5.3417e-06
1259.3, 5.1286e-06
1261.3, 5.187e-06
1263.3, 5.1822e-06
1265.3, 5.1501e-06
1267.3, 5.1946e-06
1269.3, 5.2071e-06
1271.3, 5.2794e-06
1273.3, 5.2555e-06
1275.3, 5.144e-06
1277.3, 5.2157e-06
1279.3, 5.1426e-06
1281.3, 5.2108e-06
1283.3, 5.1619e-06
1285.3, 5.2419e-06
1287.3, 5.2457e-06
1289.3, 5.2203e-06
1291.3, 5.2164e-06
1293.3, 5.1625e-06
1295.3, 5.1567e-06
1297.3, 5.2129e-06
1299.3, 5.1695e-06
1301.3, 5.2104e-06
1303.3, 5.2341e-06
1305.3, 5.2521e-06
1307.3, 5.2237e-06
1309.3, 5.0919e-06
1311.3, 5.2594e-06
1313.3, 5.3252e-06
1315.3, 5.1566e-06
1317.3, 5.2138e-06
1319.3, 5.2784e-06
1321.3, 5.2877e-06
1323.3, 5.3547e-06
1325.3, 5.1684e-06
1327.3, 5.1743e-06
1329.3, 5.2426e-06
1331.3, 5.1362e-06
1333.3, 5.1263e-06
1335.3, 5.1591e-06
1337.3, 5.1454e-06
1339.3, 5.1682e-06
1341.3, 5.1651e-06
1343.3, 5.2112e-06
1345.3, 5.2335e-06
1347.3, 5.1619e-06
1349.3, 5.1525e-06
1351.3, 5.1652e-06
1353.4, 5.1941e-06
1355.4, 5.245e-06
1357.4, 5.2553e-06
1359.4, 5.2946e-06
1361.4, 5.1785e-06
1363.4, 5.1652e-06
1365.4, 5.2401e-06
1367.4, 5.1872e-06
1369.4, 5.2783e-06
1371.4, 5.1871e-06
1373.4, 5.2033e-06
1375.4, 5.2759e-06
1377.4, 5.1701e-06
1379.4, 5.1124e-06
1381.4, 5.1719e-06
1383.4, 5.1907e-06
1385.4, 5.2222e-06
1387.4, 5.2457e-06
1389.4, 5.3354e-06
1391.4, 5.245e-06
1393.4, 5.2004e-06
1395.4, 5.2119e-06
1397.4, 5.2774e-06
1399.4, 5.2347e-06
1401.4, 5.2263e-06
1403.4, 5.2254e-06
1405.4, 5.2411e-06
1407.4, 5.1406e-06
1409.4, 5.1278e-06
1411.4, 5.1452e-06
1413.4, 5.2356e-06
1415.4, 5.268e-06
1417.4, 5.3371e-06
1419.4, 5.2054e-06
1421.4, 5.2615e-06
1423.4, 5.2129e-06
1425.4, 5.1982e-06
1427.4, 5.2041e-06
1429.4, 5.2056e-06
1431.4, 5.2251e-06
1433.4, 5.1889e-06
1435.4, 5.2981e-06
1437.4, 5.1456e-06
1439.4, 5.1756e-06
1441.4, 5.2726e-06
1443.4, 5.1921e-06
1445.4, 5.1943e-06
1447.4, 5.2105e-06
1449.4, 5.1898e-06
1451.4, 5.1468e-06
1453.5, 5.1738e-06
1455.5, 5.3496e-06
1457.5, 5.2737e-06
1459.5, 5.279e-06
1461.5, 5.1739e-06
1463.5, 5.2297e-06
1465.5, 5.277e-06
1467.5, 5.2503e-06
1469.5, 5.1938e-06
1471.5, 5.2531e-06
1473.5, 5.3182e-06
1475.5, 5.3293e-06
1477.5, 5.3927e-06
1479.5, 5.2233e-06
1481.5, 5.2352e-06
1483.5, 5.3082e-06
1485.5, 5.2923e-06
1487.5, 5.2426e-06
1489.5, 5.3448e-06
1491.5, 5.2211e-06
1493.5, 5.2584e-06
1495.5, 5.1827e-06
1497.5, 5.3221e-06
1499.5, 5.2158e-06
1501.5, 5.3629e-06
1503.5, 5.2519e-06
1505.5, 5.2754e-06
1507.5, 5.1635e-06
1509.5, 5.2952e-06
1511.5, 5.2734e-06
1513.5, 5.1406e-06
1515.5, 5.2085e-06
1517.5, 5.389e-06
1519.5, 5.3585e-06
1521.5, 5.1852e-06
1523.5, 5.3015e-06
1525.5, 5.177e-06
1527.5, 5.2323e-06
1529.5, 5.3127e-06
1531.5, 5.2942e-06
1533.5, 5.2198e-06
1535.5, 5.1955e-06
1537.5, 5.2898e-06
1539.5, 5.2865e-06
1541.5, 5.2761e-06
1543.5, 5.2159e-06
1545.5, 5.1987e-06
1547.5, 5.2119e-06
1549.5, 5.2841e-06
1551.5, 5.2373e-06
1553.6, 5.3569e-06
1555.6, 5.2402e-06
1557.6, 5.1913e-06
1559.6, 5.2796e-06
1561.6, 5.1314e-06
1563.6, 5.1418e-06
1565.6, 5.2623e-06
1567.6, 5.1899e-06
1569.6, 5.2418e-06
1571.6, 5.3161e-06
1573.6, 5.1049e-06
1575.6, 5.1549e-06
1577.6, 5.2116e-06
1579.6, 5.1955e-06
1581.6, 5.2283e-06
1583.6, 5.1903e-06
1585.6, 5.1955e-06
1587.6, 5.2094e-06
1589.6, 5.268e-06
1591.6, 5.2525e-06
1593.6, 5.3114e-06
1595.6, 5.1861e-06
1597.6, 5.332e-06
1599.6, 5.2975e-06
1601.6, 5.2994e-06
1603.6, 5.2932e-06
1605.6, 5.2796e-06
1607.6, 5.105e-06
1609.6, 5.2768e-06
1611.6, 5.2512e-06
1613.6, 5.246e-06
1615.6, 5.2686e-06
1617.6, 5.2262e-06
1619.6, 5.2538e-06
1621.6, 5.3391e-06
1623.6, 5.3486e-06
1625.6, 5.1844e-06
1627.6, 5.2005e-06
1629.6, 5.2801e-06
1631.6, 5.2764e-06
1633.6, 5.2824e-06
1635.6, 5.1755e-06
1637.6, 5.2431e-06
1639.6, 5.3188e-06
1641.6, 5.2806e-06
1643.6, 5.2704e-06
1645.6, 5.2414e-06
1647.6, 5.1684e-06
1649.6, 5.3234e-06
1651.6, 5.2307e-06
1653.7, 5.393e-06
1655.7, 5.3108e-06
1657.7, 5.3046e-06
1659.7, 5.2555e-06
1661.7, 5.229e-06
1663.7, 5.309e-06
1665.7, 5.2075e-06
1667.7, 5.2084e-06
1669.7, 5.211e-06
1671.7, 5.1271e-06
1673.7, 5.2626e-06
1675.7, 5.2557e-06
1677.7, 5.3379e-06
1679.7, 5.2763e-06
1681.7, 5.2893e-06
1683.7, 5.2641e-06
1685.7, 5.3179e-06
1687.7, 5.3465e-06
1689.7, 5.3092e-06
1691.7, 5.3166e-06
1693.7, 5.2265e-06
1695.7, 5.3024e-06
1697.7, 5.2923e-06
1699.7, 5.1491e-06
1701.7, 5.2171e-06
1703.7, 5.1551e-06
1705.7, 5.2169e-06
1707.7, 5.2351e-06
1709.7, 5.1107e-06
1711.7, 5.2616e-06
1713.7, 5.2544e-06
1715.7, 5.3122e-06
1717.7, 5.3133e-06
1719.7, 5.2392e-06
1721.7, 5.3736e-06
1723.7, 5.2922e-06
1725.7, 5.3244e-06
1727.7, 5.1634e-06
1729.7, 5.1183e-06
1731.7, 5.1827e-06
1733.7, 5.1952e-06
1735.7, 5.2336e-06
1737.7, 5.316e-06
1739.7, 5.2339e-06
1741.7, 5.3603e-06
1743.7, 5.2102e-06
1745.7, 5.1389e-06
1747.7, 5.2592e-06
1749.7, 5.288e-06
1751.7, 5.3141e-06
1753.8, 5.3714e-06
1755.8, 5.2349e-06
1757.8, 5.1669e-06
1759.8, 5.3075e-06
1761.8, 5.2665e-06
1763.8, 5.2593e-06
1765.8, 5.1915e-06
1767.8, 5.1347e-06
1769.8, 5.2736e-06
1771.8, 5.3018e-06
1773.8, 5.3041e-06
1775.8, 5.2734e-06
1777.8, 5.279e-06
1779.8, 5.1587e-06
1781.8, 5.2677e-06
1783.8, 5.1978e-06
1785.8, 5.2233e-06
1787.8, 5.3063e-06
1789.8, 5.1904e-06
1791.8, 5.2119e-06
1793.8, 5.2039e-06
1795.8, 5.1564e-06
1797.8, 5.1743e-06
1799.8, 5.2954e-06
1801.8, 5.1633e-06
1803.8, 5.2381e-06
1805.8, 5.2779e-06
1807.8, 5.2346e-06
1809.8, 5.3544e-06
1811.8, 5.2774e-06
1813.8, 5.2322e-06
1815.8, 5.1932e-06
1817.8, 5.221e-06
1819.8, 5.3454e-06
1821.8, 5.2056e-06
1823.8, 5.2278e-06
1825.8, 5.2328e-06
1827.8, 5.1686e-06
1829.8, 5.362e-06
1831.8, 5.2108e-06
1833.8, 5.3151e-06
1835.8, 5.2118e-06
1837.8, 5.1859e-06
1839.8, 5.3286e-06
1841.8, 5.1962e-06
1843.8, 5.3062e-06
1845.8, 5.3166e-06
1847.8, 5.2705e-06
1849.8, 5.2584e-06
1851.8, 5.2138e-06
1853.9, 5.2699e-06
1855.9, 5.2769e-06
1857.9, 5.2734e-06
1859.9, 5.2582e-06
1861.9, 5.226e-06
1863.9, 5.29e-06
1865.9, 5.2666e-06
1867.9, 5.234e-06
1869.9, 5.2957e-06
1871.9, 5.1912e-06
1873.9, 5.2347e-06
1875.9, 5.3025e-06
1877.9, 5.1683e-06
1879.9, 5.3554e-06
1881.9, 5.1583e-06
1883.9, 5.3276e-06
1885.9, 5.2078e-06
1887.9, 5.2446e-06
1889.9, 5.2175e-06
1891.9, 5.2461e-06
1893.9, 5.2468e-06
1895.9, 5.2384e-06
1897.9, 5.1472e-06
1899.9, 5.2378e-06
1901.9, 5.1061e-06
1903.9, 5.18e-06
1905.9, 5.3238e-06
1907.9, 5.3081e-06
1909.9, 5.2732e-06
1911.9, 5.1819e-06
1913.9, 5.226e-06
1915.9, 5.1571e-06
1917.9, 5.1916e-06
1919.9, 5.2246e-06
1921.9, 5.2693e-06
1923.9, 5.3084e-06
1925.9, 5.2862e-06
1927.9, 5.2482e-06
1929.9, 5.2962e-06
1931.9, 5.2212e-06
1933.9, 5.2624e-06
1935.9, 5.1943e-06
1937.9, 5.2876e-06
1939.9, 5.2258e-06
1941.9, 5.2339e-06
1943.9, 5.2668e-06
1945.9, 5.2658e-06
1947.9, 5.1106e-06
1949.9, 5.1312e-06
1951.9, 5.2278e-06
1954.0, 5.165e-06
1956.0, 5.3008e-06
1958.0, 5.2442e-06
1960.0, 5.245e-06
1962.0, 5.258e-06
1964.0, 5.3024e-06
1966.0, 5.2271e-06
1968.0, 5.2174e-06
1970.0, 5.224e-06
1972.0, 5.2305e-06
1974.0, 5.2737e-06
1976.0, 5.2477e-06
1978.0, 5.2448e-06
1980.0, 5.1673e-06
1982.0, 5.3016e-06
1984.0, 5.2415e-06
1986.0, 5.3739e-06
1988.0, 5.18e-06
1990.0, 5.3129e-06
1992.0, 5.2316e-06
1994.0, 5.2509e-06
1996.0, 5.2387e-06
1998.0, 5.1371e-06
2000.0, 5.2851e-06
2002.0, 5.2954e-06
2004.0, 5.2098e-06
2006.0, 5.3246e-06
2008.0, 5.2801e-06
2010.0, 5.2716e-06
2012.0, 5.2463e-06
2014.0, -2.241e-08
2016.0, -3.555e-08
2018.0, -3.369e-08
2020.0, -3.643e-08
2022.0, -3.508e-08
2024.0, -3.59e-08
2026.0, -3.233e-08
2028.0, -3.303e-08
2030.0, -3.075e-08
2032.0, -3.147e-08
2034.0, -2.944e-08
2036.0, -3.089e-08
2038.0, -3.295e-08
2040.0, -3.25e-08
2042.0, -3.147e-08
2044.0, -3.02e-08
2046.0, -2.999e-08
2048.0, -3.182e-08
2050.0, -3.275e-08
2052.0, -2.616e-08
2054.1, -3.131e-08
2056.1, -3.061e-08
2058.1, -3.184e-08
2060.1, -3.013e-08
2062.1, -3.051e-08
2064.1, -3.191e-08
2066.1, -3.309e-08
2068.1, -3.254e-08
2070.1, -3.344e-08
2072.1, -3.607e-08
2074.1, -3.594e-08
2076.1, -3.447e-08
2078.1, -3.697e-08
2080.1, -3.58e-08
2082.1, -3.485e-08
2084.1, -3.15e-08
2086.1, -3.219e-08
2088.1, -3.483e-08
2090.1, -3.509e-08
2092.1, -3.255e-08
2094.1, -3.817e-08
2096.1, -3.485e-08
2098.1, -3.88e-08
2100.1, -3.479e-08
2102.1, -3.278e-08
2104.1, -3.657e-08
2106.1, -3.508e-08
2108.1, -3.489e-08
2110.1, -3.261e-08
2112.1, -3.622e-08
2114.1, -3.791e-08
2116.1, -3.556e-08
2118.1, -3.524e-08
2120.1, -3.702e-08
2122.1, -3.844e-08
2124.1, -3.73e-08
2126.1, -3.921e-08
2128.1, -3.985e-08
2130.1, -3.791e-08
2132.1, -3.832e-08
2134.1, -3.779e-08
2136.1, -3.845e-08
2138.1, -3.525e-08
2140.1, -4.004e-08
2142.1, -4.034e-08
2144.1, -3.701e-08
2146.1, -3.943e-08
2148.1, -3.993e-08
2150.1, -3.678e-08
2152.1, -4.301e-08
2154.2, -3.887e-08
2156.2, -3.854e-08
2158.2, -3.942e-08
2160.2, -3.919e-08
2162.2, -3.841e-08
2164.2, -3.856e-08
2166.2, -3.886e-08
2168.2, -3.788e-08
2170.2, -3.624e-08
2172.2, -3.524e-08
2174.2, -3.557e-08
2176.2, -3.805e-08
2178.2, -3.963e-08
2180.2, -4.05e-08
2182.2, -3.659e-08
2184.2, -3.806e-08
2186.2, -3.695e-08
2188.2, -3.8e-08
2190.2, -3.928e-08
2192.2, -4.009e-08
2194.2, -3.894e-08
2196.2, -4.144e-08
2198.2, -4.152e-08
2200.2, -3.852e-08
2202.2, -3.594e-08
2204.2, -3.988e-08
2206.2, -3.845e-08
2208.2, -4.058e-08
2210.2, -3.842e-08
2212.2, -3.748e-08
2214.2, -3.536e-08
2216.2, -3.679e-08
2218.2, -4.051e-08
2220.2, -3.587e-08
2222.2, -3.734e-08
2224.2, -3.632e-08
2226.2, -3.869e-08
2228.2, -4.15e-08
2230.2, -4.126e-08
2232.2, -3.62e-08
2234.2, -3.973e-08
2236.2, -3.565e-08
2238.2, -3.971e-08
2240.2, -3.42e-08
2242.2, -3.29e-08
2244.2, -3.521e-08
2246.2, -3.447e-08
2248.2, -3.797e-08
2250.2, -3.472e-08
2252.2, -3.406e-08
2254.3, -3.93e-08
2256.3, -3.728e-08
2258.3, -3.787e-08
2260.3, -3.808e-08
2262.3, -3.469e-08
2264.3, -3.628e-08
2266.3, -3.6e-08
2268.3, -3.588e-08
2270.3, -3.752e-08
2272.3, -3.696e-08
2274.3, -3.734e-08
2276.3, -3.989e-08
2278.3, -3.976e-08
2280.3, -3.803e-08
2282.3, -4.057e-08
2284.3, -3.829e-08
2286.3, -3.593e-08
2288.3, -3.443e-08
2290.3, -3.374e-08
2292.3, -3.625e-08
2294.3, -3.826e-08
2296.3, -3.558e-08
2298.3, -3.807e-08
2300.3, -3.634e-08
2302.3, -3.368e-08
2304.3, -3.629e-08
2306.3, -3.343e-08
2308.3, -3.826e-08
2310.3, -3.646e-08
2312.3, -3.478e-08
2314.3, -3.876e-08
2316.3, -3.773e-08
2318.3, -3.944e-08
2320.3, -3.827e-08
2322.3, -3.671e-08
2324.3, -3.766e-08
2326.3, -3.952e-08
2328.3, -3.6e-08
2330.3, -3.985e-08
2332.3, -3.97e-08
2334.3, -3.909e-08
2336.3, -3.899e-08
2338.3, -4.082e-08
2340.3, -3.896e-08
2342.3, -3.69e-08
2344.3, -3.898e-08
2346.3, -3.919e-08
2348.3, -3.888e-08
2350.3, -4.341e-08
2352.3, -3.925e-08
2354.4, -3.81e-08
2356.4, -3.779e-08
2358.4, -3.745e-08
2360.4, -4.095e-08
2362.4, -4.136e-08
2364.4, -4.105e-08
2366.4, -4.046e-08
2368.4, -3.933e-08
2370.4, -3.944e-08
2372.4, -3.59e-08
2374.4, -4.154e-08
2376.4, -4.145e-08
2378.4, -4.06e-08
2380.4, -4.305e-08
2382.4, -3.965e-08
2384.4, -3.903e-08
2386.4, -4.109e-08
2388.4, -3.888e-08
2390.4, -3.89e-08
2392.4, -4.016e-08
2394.4, -3.535e-08
2396.4, -3.9e-08
2398.4, -3.664e-08
2400.4, -3.482e-08
2402.4, -3.593e-08
2404.4, -3.68e-08
2406.4, -3.351e-08
2408.4, -3.691e-08
2410.4, -3.586e-08
2412.4, -3.671e-08
2414.4, -3.787e-08
2416.4, -3.643e-08
2418.4, -3.601e-08
2420.4, -3.657e-08
2422.4, -3.376e-08
2424.4, -3.249e-08
2426.4, -3.619e-08
2428.4, -3.671e-08
2430.4, -3.509e-08
2432.4, -3.37e-08
2434.4, -3.639e-08
2436.4, -3.573e-08
2438.4, -3.832e-08
2440.4, -3.485e-08
2442.4, -3.659e-08
2444.4, -3.447e-08
2446.4, -3.501e-08
2448.4, -3.412e-08
2450.4, -3.495e-08
2452.4, -3.813e-08
2454.5, -3.76e-08
2456.5, -3.907e-08
2458.5, -3.675e-08
2460.5, -3.661e-08
2462.5, -3.636e-08
2464.5, -3.689e-08
2466.5, -3.629e-08
2468.5, -3.771e-08
2470.5, -3.696e-08
2472.5, -3.289e-08
2474.5, -3.333e-08
2476.5, -3.682e-08
2478.5, -3.439e-08
2480.5, -3.669e-08
2482.5, -3.524e-08
2484.5, -3.536e-08
2486.5, -3.822e-08
2488.5, -3.424e-08
2490.5, -3.367e-08
2492.5, -3.403e-08
2494.5, -3.914e-08
2496.5, -3.704e-08
2498.5, -3.842e-08
2500.5, -3.407e-08
2502.5, -3.652e-08
2504.5, -3.516e-08
2506.5, -3.852e-08
2508.5, -3.775e-08
2510.5, -3.542e-08
2512.5, -3.599e-08
2514.5, -3.238e-08
2516.5, -3.988e-08
2518.5, -3.787e-08
2520.5, -3.953e-08
2522.5, -3.472e-08
2524.5, -4.039e-08
2526.5, -3.985e-08
2528.5, -3.838e-08
2530.5, -3.881e-08
2532.5, -3.971e-08
2534.5, -3.882e-08
2536.5, -4.065e-08
2538.5, -4.031e-08
2540.5, -4.332e-08
2542.5, -4.096e-08
2544.5, -4.11e-08
2546.5, -3.955e-08
2548.5, -3.72e-08
2550.5, -3.936e-08
2552.5, -3.807e-08
2554.6, -4.152e-08
2556.6, -3.848e-08
2558.6, -4.1e-08
2560.6, -4.069e-08
2562.6, -4.136e-08
2564.6, -4.18e-08
2566.6, -4.085e-08
2568.6, -3.869e-08
2570.6, -3.906e-08
2572.6, -3.626e-08
2574.6, -3.833e-08
2576.6, -3.806e-08
2578.6, -4.217e-08
2580.6, -4.039e-08
2582.6, -3.695e-08
2584.6, -3.344e-08
2586.6, -3.71e-08
2588.6, -3.579e-08
2590.6, -3.65e-08
2592.6, -3.837e-08
2594.6, -3.821e-08
2596.6, -3.58e-08
2598.6, -3.386e-08
2600.6, -3.593e-08
2602.6, -3.644e-08
2604.6, -3.822e-08
2606.6, -3.944e-08
2608.6, -3.803e-08
2610.6, -3.848e-08
2612.6, -3.391e-08
2614.6, -3.692e-08
2616.6, -3.327e-08
2618.6, -3.73e-08
2620.6, -3.505e-08
2622.6, -3.396e-08
2624.6, -3.855e-08
2626.6, -3.908e-08
2628.6, -3.803e-08
2630.6, -3.809e-08
2632.6, -3.281e-08
2634.6, -3.86e-08
2636.6, -3.679e-08
2638.6, -3.901e-08
2640.6, -3.699e-08
2642.6, -3.635e-08
2644.6, -3.677e-08
2646.6, -3.803e-08
2648.6, -3.233e-08
2650.6, -3.252e-08
2652.6, -3.147e-08
2654.7, -3.415e-08
2656.7, -3.639e-08
2658.7, -3.5e-08
2660.7, -3.44e-08
2662.7, -3.713e-08
2664.7, -3.52e-08
2666.7, -3.424e-08
2668.7, -3.798e-08
2670.7, -3.506e-08
2672.7, -3.476e-08
2674.7, -3.954e-08
2676.7, -3.899e-08
2678.7, -3.769e-08
2680.7, -3.879e-08
2682.7, -4.096e-08
2684.7, -3.998e-08
2686.7, -3.929e-08
2688.7, -3.821e-08
2690.7, -4.122e-08
2692.7, -4.054e-08
2694.7, -3.985e-08
2696.7, -4.099e-08
2698.7, -4.058e-08
2700.7, -3.622e-08
2702.7, -3.918e-08
2704.7, -3.843e-08
2706.7, -4.013e-08
2708.7, -4.115e-08
2710.7, -4.039e-08
2712.7, -4.134e-08
2714.7, -3.945e-08
2716.7, -4.074e-08
2718.7, -4.122e-08
2720.7, -3.985e-08
2722.7, -3.837e-08
2724.7, -3.798e-08
2726.7, -3.765e-08
2728.7, -3.84e-08
2730.7, -4.297e-08
2732.7, -3.794e-08
2734.7, -3.874e-08
2736.7, -3.906e-08
2738.7, -4.146e-08
2740.7, -4.007e-08
2742.7, -4.216e-08
2744.7, -4.02e-08
2746.7, -3.851e-08
2748.7, -3.536e-08
2750.7, -4.452e-08
2752.7, -4.242e-08
2754.8, -4.112e-08
2756.8, -3.952e-08
2758.8, -3.915e-08
2760.8, -3.791e-08
2762.8, -3.962e-08
2764.8, -3.858e-08
2766.8, -4.096e-08
2768.8, -3.711e-08
2770.8, -3.803e-08
2772.8, -3.623e-08
2774.8, -4.061e-08
2776.8, -4.087e-08
2778.8, -3.834e-08
2780.8, -4.231e-08
2782.8, -4.172e-08
2784.8, -4.176e-08
2786.8, -3.904e-08
2788.8, -3.491e-08
2790.8, -3.46e-08
2792.8, -3.551e-08
2794.8, -3.692e-08
2796.8, -3.974e-08
2798.8, -3.973e-08
2800.8, -3.981e-08
2802.8, -4.294e-08
2804.8, -3.746e-08
2806.8, -3.758e-08
2808.8, -3.74e-08
2810.8, -3.729e-08
2812.8, -3.427e-08
2814.8, -3.599e-08
2816.8, -4.112e-08
2818.8, -3.701e-08
2820.8, -3.787e-08
2822.8, -3.662e-08
2824.8, -4.155e-08
2826.8, -3.819e-08
2828.8, -3.716e-08
2830.8, -4.102e-08
2832.8, -3.82e-08
2834.8, -3.741e-08
2836.8, -3.776e-08
2838.8, -3.718e-08
2840.8, -4.017e-08
2842.8, -3.495e-08
2844.8, -3.639e-08
2846.8, -3.47e-08
2848.8, -4.315e-08
2850.8, -3.526e-08
2852.8, -3.762e-08
2854.9, -3.727e-08
2856.9, -3.841e-08
2858.9, -3.51e-08
2860.9, -3.764e-08
2862.9, -3.474e-08
2864.9, -3.488e-08
2866.9, -3.207e-08
2868.9, -3.146e-08
2870.9, -3.149e-08
2872.9, -3.419e-08
2874.9, -3.556e-08
2876.9, -3.795e-08
2878.9, -3.983e-08
2880.9, -3.661e-08
2882.9, -3.591e-08
2884.9, -3.816e-08
2886.9, -3.617e-08
2888.9, -3.636e-08
2890.9, -3.797e-08
2892.9, -3.958e-08
2894.9, -3.95e-08
2896.9, -3.507e-08
2898.9, -3.763e-08
2900.9, -3.554e-08
2902.9, -3.681e-08
2904.9, -3.692e-08
2906.9, -3.548e-08
2908.9, -4.021e-08
2910.9, -3.725e-08
2912.9, -3.453e-08
2914.9, -3.575e-08
2916.9, -3.184e-08
2918.9, -3.405e-08
2920.9, -3.458e-08
2922.9, -3.22e-08
2924.9, -3.386e-08
2926.9, -3.173e-08
2928.9, -3.1e-08
2930.9, -3.283e-08
2932.9, -3.315e-08
2934.9, -3.485e-08
2936.9, -3.175e-08
2938.9, -3.243e-08
2940.9, -3.204e-08
2942.9, -3.47e-08
2944.9, -3.245e-08
2946.9, -3.526e-08
2948.9, -3.523e-08
2950.9, -3.187e-08
2952.9, -3.538e-08
2955.0, -3.714e-08
2957.0, -3.518e-08
2959.0, -3.294e-08
2961.0, -3.275e-08
2963.0, -3.607e-08
2965.0, -3.382e-08
2967.0, -3.797e-08
2969.0, -3.382e-08
2971.0, -3.479e-08
2973.0, -3.56e-08
2975.0, -3.536e-08
2977.0, -3.207e-08
2979.0, -3.363e-08
2981.0, -3.537e-08
2983.0, -3.33e-08
2985.0, -3.135e-08
2987.0, -3.068e-08
2989.0, -3.177e-08
2991.0, -3.271e-08
2993.0, -2.592e-08
2995.0, -2.743e-08
2997.0, -3.094e-08
2999.0, -3.34e-08
3001.0, -3.211e-08
3003.0, -3.476e-08
3005.0, -3.369e-08
3007.0, -3.592e-08
3009.0, -3.584e-08
3011.0, -3.004e-08
3013.0, -3.264e-08
3015.0, -3.591e-08
3017.0, -3.386e-08
3019.0, -3.21e-08
3021.0, -2.907e-08
3023.0, -3.244e-08
3025.0, -3.575e-08
3027.0, -3.551e-08
3029.0, -3.757e-08
3031.0, -3.603e-08
3033.0, -3.37e-08
3035.0, -3.271e-08
3037.0, -3.875e-08
3039.0, -3.533e-08
3041.0, -3.126e-08
3043.0, -3.35e-08
3045.0, -3.375e-08
3047.0, -3.294e-08
3049.0, -3.371e-08
3051.0, -3.416e-08
3053.0, -3.412e-08
3055.1, -3.715e-08
3057.1, -3.163e-08
3059.1, -3.309e-08
3061.1, -3.297e-08
3063.1, -2.894e-08
3065.1, -2.853e-08
3067.1, -3.047e-08
3069.1, -3.028e-08
3071.1, -2.992e-08
3073.1, -3.409e-08
3075.1, -2.731e-08
3077.1, -2.745e-08
3079.1, -3.042e-08
3081.1, -2.843e-08
3083.1, -2.527e-08
3085.1, -3.272e-08
3087.1, -3.098e-08
3089.1, -3.069e-08
3091.1, -3.185e-08
3093.1, -3.157e-08
3095.1, -3.506e-08
3097.1, -3.542e-08
3099.1, -3.718e-08
3101.1, -3.618e-08
3103.1, -3.563e-08
3105.1, -3.355e-08
3107.1, -3.344e-08
3109.1, -3.013e-08
3111.1, -3.256e-08
3113.1, -3.118e-08
3115.1, -2.625e-08
3117.1, -3.153e-08
3119.1, -3.212e-08
3121.1, -3.121e-08
3123.1, -2.919e-08
3125.1, -3.193e-08
3127.1, -3.389e-08
3129.1, -3.487e-08
3131.1, -3.312e-08
3133.1, -3.377e-08
3135.1, -3.51e-08
3137.1, -2.751e-08
3139.1, -2.986e-08
3141.1, -3.08e-08
3143.1, -3.068e-08
3145.1, -3.009e-08
3147.1, -3.204e-08
3149.1, -3.524e-08
3151.1, -3.045e-08
3153.1, -3.338e-08
3155.2, -3.106e-08
3157.2, -3.295e-08
3159.2, -2.902e-08
3161.2, -3.469e-08
3163.2, -3.453e-08
3165.2, -3.301e-08
3167.2, -3.349e-08
3169.2, -3.737e-08
3171.2, -3.778e-08
3173.2, -3.683e-08
3175.2, -3.249e-08
3177.2, -3.918e-08
3179.2, -3.764e-08
3181.2, -3.743e-08
3183.2, -3.777e-08
3185.2, -3.55e-08
3187.2, -3.867e-08
3189.2, -3.577e-08
3191.2, -3.612e-08
3193.2, -3.482e-08
3195.2, -3.234e-08
3197.2, -3.334e-08
3199.2, -3.174e-08
3201.2, -3.402e-08
3203.2, -3.257e-08
3205.2, -3.091e-08
3207.2, -2.919e-08
3209.2, -2.839e-08
3211.2, -3.081e-08
3213.2, -3.314e-08
3215.2, -2.696e-08
3217.2, -3.273e-08
3219.2, -3.267e-08
3221.2, -3.41e-08
3223.2, -3.094e-08
3225.2, -3.062e-08
3227.2, -2.956e-08
3229.2, -3.427e-08
3231.2, -3.661e-08
3233.2, -3.39e-08
3235.2, -3.712e-08
3237.2, -3.597e-08
3239.2, -3.577e-08
3241.2, -3.516e-08
3243.2, -3.442e-08
3245.2, -3.968e-08
3247.2, -3.503e-08
3249.2, -3.347e-08
3251.2, -3.553e-08
3253.2, -3.352e-08
3255.3, -3.723e-08
3257.3, -3.682e-08
3259.3, -3.859e-08
3261.3, -3.922e-08
3263.3, -3.606e-08
3265.3, -3.74e-08
3267.3, -3.913e-08
3269.3, -3.511e-08
3271.3, -3.286e-08
3273.3, -3.363e-08
3275.3, -3.603e-08
3277.3, -3.448e-08
3279.3, -3.699e-08
3281.3, -3.413e-08
3283.3, -3.24e-08
3285.3, -3.629e-08
3287.3, -3.787e-08
3289.3, -3.438e-08
3291.3, -3.259e-08
3293.3, -3.279e-08
3295.3, -3.15e-08
3297.3, -3.684e-08
3299.3, -3.589e-08
3301.3, -3.846e-08
3303.3, -3.756e-08
3305.3, -3.738e-08
3307.3, -3.513e-08
3309.3, -3.503e-08
3311.3, -3.987e-08
3313.3, -3.418e-08
3315.3, -3.615e-08
3317.3, -3.262e-08
3319.3, -3.487e-08
3321.3, -3.512e-08
3323.3, -3.187e-08
3325.3, -3.056e-08
3327.3, -3.005e-08
3329.3, -3.216e-08
3331.3, -3.618e-08
3333.3, -3.438e-08
3335.3, -3.378e-08
3337.3, -3.666e-08
3339.3, -3.315e-08
3341.3, -3.349e-08
3343.3, -3.451e-08
3345.3, -3.132e-08
3347.3, -3.422e-08
3349.3, -3.493e-08
3351.3, -3.314e-08
3353.3, -2.723e-08
3355.4, -3.244e-08
3357.4, -3.343e-08
3359.4, -3.204e-08
3361.4, -3.306e-08
3363.4, -3.25e-08
3365.4, -3.482e-08
3367.4, -3.601e-08
3369.4, -3.465e-08
3371.4, -3.502e-08
3373.4, -3.266e-08
3375.4, -2.843e-08
3377.4, -3.321e-08
3379.4, -3.186e-08
3381.4, -3.298e-08
3383.4, -3.38e-08
3385.4, -3.854e-08
3387.4, -3.176e-08
3389.4, -3.445e-08
3391.4, -3.582e-08
3393.4, -3.465e-08
3395.4, -3.422e-08
3397.4, -3.721e-08
3399.4, -4.056e-08
3401.4, -3.555e-08
3403.4, -3.789e-08
3405.4, -3.479e-08
3407.4, -3.6e-08
3409.4, -3.931e-08
3411.4, -3.302e-08
3413.4, -3.213e-08
3415.4, -3.4e-08
3417.4, -3.512e-08
3419.4, -3.314e-08
3421.4, -3.522e-08
3423.4, -3.618e-08
3425.4, -3.527e-08
3427.4, -3.479e-08
3429.4, -3.634e-08
3431.4, -3.725e-08
3433.4, -3.651e-08
3435.4, -3.508e-08
3437.4, -3.096e-08
3439.4, -3.472e-08
3441.4, -3.843e-08
3443.4, -3.575e-08
3445.4, -3.562e-08
3447.4, -3.514e-08
3449.4, -3.338e-08
3451.4, -3.675e-08
3453.4, -3.462e-08
3455.5, -3.746e-08
3457.5, -4.165e-08
3459.5, -4.002e-08
3461.5, -4.185e-08
3463.5, -4.078e-08
3465.5, -4.339e-08
3467.5, -4.471e-08
3469.5, -4.089e-08
3471.5, -4.323e-08
3473.5, -4.058e-08
3475.5, -4.089e-08
3477.5, -4.094e-08
3479.5, -4.199e-08
3481.5, -3.829e-08
3483.5, -3.841e-08
3485.5, -3.646e-08
3487.5, -3.895e-08
3489.5, -4.065e-08
3491.5, -3.593e-08
3493.5, -3.88e-08
3495.5, -3.737e-08
3497.5, -3.289e-08
3499.5, -3.402e-08
3501.5, -3.713e-08
3503.5, -3.647e-08
3505.5, -3.384e-08
3507.5, -4.044e-08
3509.5, -4.217e-08
3511.5, -3.868e-08
3513.5, -3.709e-08
3515.5, -3.973e-08
3517.5, -3.625e-08
3519.5, -3.923e-08
3521.5, -3.926e-08
3523.5, -3.676e-08
3525.5, -4.046e-08
3527.5, -3.663e-08
3529.5, -3.957e-08
3531.5, -4.021e-08
3533.5, -3.925e-08
3535.5, -3.957e-08
3537.5, -3.865e-08
3539.5, -3.351e-08
3541.5, -3.685e-08
3543.5, -3.449e-08
3545.5, -3.388e-08
3547.5, -3.408e-08
3549.5, -3.746e-08
3551.5, -3.672e-08
3553.5, -3.722e-08
3555.6, -3.485e-08
3557.6, -3.389e-08
3559.6, -3.819e-08
3561.6, -3.761e-08
3563.6, -3.656e-08
3565.6, -3.717e-08
3567.6, -3.629e-08
3569.6, -3.394e-08
3571.6, -3.663e-08
3573.6, -3.859e-08
3575.6, -4.188e-08
3577.6, -3.839e-08
3579.6, -3.647e-08
3581.6, -3.689e-08
3583.6, -3.549e-08
3585.6, -3.998e-08
3587.6, -3.623e-08
3589.6, -3.987e-08
3591.6, -3.614e-08
3593.6, -3.986e-08
3595.6, -4.091e-08
3597.6, -4.045e-08
3599.6, -3.818e-08
3601.6, -3.588e-08
3603.6, -3.67e-08
3605.6, -3.455e-08
3607.6, -3.541e-08
3609.6, -3.855e-08
3611.6, -3.81e-08
3613.6, -4.092e-08
3615.6, -3.698e-08
3617.6, -4.071e-08
3619.6, -3.858e-08
3621.6, -3.699e-08
3623.6, -4.104e-08
3625.6, -3.784e-08
3627.6, -3.623e-08
3629.6, -3.967e-08
3631.6, -3.805e-08
3633.6, -3.921e-08
3635.6, -3.931e-08
3637.6, -4.521e-08
3639.6, -4.064e-08
3641.6, -3.885e-08
3643.6, -3.862e-08
3645.6, -3.716e-08
3647.6, -3.721e-08
3649.6, -3.87e-08
3651.6, -3.406e-08
3653.6, -3.723e-08
3655.7, -3.781e-08
3657.7, -3.901e-08
3659.7, -4.053e-08
3661.7, -3.812e-08
3663.7, -3.865e-08
3665.7, -3.478e-08
3667.7, -3.972e-08
3669.7, -3.863e-08
3671.7, -4.065e-08
3673.7, -3.759e-08
3675.7, -4.298e-08
3677.7, -3.823e-08
3679.7, -3.746e-08
3681.7, -3.505e-08
3683.7, -3.943e-08
3685.7, -3.918e-08
3687.7, -3.889e-08
3689.7, -3.776e-08
3691.7, -3.97e-08
3693.7, -3.854e-08
3695.7, -4.204e-08
3697.7, -3.698e-08
3699.7, -3.704e-08
3701.7, -3.616e-08
3703.7, -3.982e-08
3705.7, -3.937e-08
3707.7, -4.221e-08
3709.7, -4.123e-08
3711.7, -4.185e-08
3713.7, -3.909e-08
3715.7, -3.556e-08
3717.7, -4.261e-08
3719.7, -4.041e-08
3721.7, -4.419e-08
3723.7, -3.836e-08
3725.7, -3.827e-08
3727.7, -3.862e-08
3729.7, -4.309e-08
3731.7, -3.775e-08
3733.7, -4.11e-08
3735.7, -3.852e-08
3737.7, -4.092e-08
3739.7, -3.863e-08
3741.7, -3.994e-08
3743.7, -4.04e-08
3745.7, -3.898e-08
3747.7, -4.133e-08
3749.7, -3.899e-08
3751.7, -3.883e-08
3753.7, -3.961e-08
3755.8, -3.672e-08
3757.8, -3.442e-08
3759.8, -3.918e-08
3761.8, -4.056e-08
3763.8, -3.894e-08
3765.8, -3.935e-08
3767.8, -3.657e-08
3769.8, -3.679e-08
3771.8, -3.652e-08
3773.8, -3.476e-08
3775.8, -3.599e-08
3777.8, -3.606e-08
3779.8, -4.103e-08
3781.8, -3.917e-08
3783.8, -3.591e-08
3785.8, -3.591e-08
3787.8, -3.616e-08
3789.8, -3.4e-08
3791.8, -3.27e-08
3793.8, -3.379e-08
3795.8, -3.791e-08
3797.8, -3.501e-08
3799.8, -3.765e-08
3801.8, -3.876e-08
3803.8, -3.875e-08
3805.8, -3.855e-08
3807.8, -3.995e-08
3809.8, -4.026e-08
3811.8, -4.188e-08
3813.8, -3.41e-08
3815.8, -3.795e-08
3817.8, -3.995e-08
3819.8, -4.075e-08
3821.8, -4.253e-08
3823.8, -4.07e-08
3825.8, -4.023e-08
3827.8, -3.873e-08
3829.8, -3.886e-08
3831.8, -4.035e-08
3833.8, -4.106e-08
3835.8, -4.051e-08
3837.8, -3.993e-08
3839.8, -4.081e-08
3841.8, -4.283e-08
3843.8, -4.601e-08
3845.8, -4.261e-08
3847.8, -4.32e-08
3849.8, -4.547e-08
3851.8, -4.025e-08
3853.8, -4.177e-08
3855.9, -4.028e-08
3857.9, -3.925e-08
3859.9, -4.035e-08
3861.9, -3.928e-08
3863.9, -3.928e-08
3865.9, 3.32e-06
3867.9, 4.8373e-06
3869.9, 4.8773e-06
3871.9, 4.9741e-06
3873.9, 4.8449e-06
3875.9, 4.8745e-06
3877.9, 4.8683e-06
3879.9, 4.9547e-06
3881.9, 4.994e-06
3883.9, 4.9321e-06
3885.9, 4.9098e-06
3887.9, 4.9539e-06
3889.9, 4.9769e-06
3891.9, 5.0172e-06
3893.9, 4.9488e-06
3895.9, 5.0783e-06
3897.9, 4.8901e-06
3899.9, 4.9312e-06
3901.9, 4.9509e-06
3903.9, 4.946e-06
3905.9, 4.9261e-06
3907.9, 4.9715e-06
3909.9, 5.0306e-06
3911.9, 4.9583e-06
3913.9, 5.0248e-06
3915.9, 4.9739e-06
3917.9, 5.0341e-06
3919.9, 4.9816e-06
3921.9, 5.0265e-06
3923.9, 5.069e-06
3925.9, 5.0138e-06
3927.9, 4.9735e-06
3929.9, 5.014e-06
3931.9, 5.0679e-06
3933.9, 5.0401e-06
3935.9, 4.9975e-06
3937.9, 4.8796e-06
3939.9, 4.9959e-06
3941.9, 4.9535e-06
3943.9, 4.8498e-06
3945.9, 5.0096e-06
3947.9, 5.0836e-06
3949.9, 5.0378e-06
3951.9, 5.0526e-06
3953.9, 4.9886e-06
3956.0, 5.0774e-06
3958.0, 4.9275e-06
3960.0, 5.0845e-06
3962.0, 5.06e-06
3964.0, 4.9819e-06
3966.0, 5.087e-06
3968.0, 5.0849e-06
3970.0, 5.0887e-06
3972.0, 4.9852e-06
3974.0, 4.9969e-06
3976.0, 4.9892e-06
3978.0, 4.9678e-06
3980.0, 4.995e-06
3982.0, 5.0249e-06
3984.0, 5.0068e-06
3986.0, 5.0582e-06
3988.0, 5.1495e-06
3990.0, 5.0646e-06
3992.0, 4.9573e-06
3994.0, 5.0515e-06
3996.0, 5.1211e-06
3998.0, 5.0467e-06
4000.0, 5.0044e-06
4002.0, 5.0157e-06
4004.0, 5.0787e-06
4006.0, 5.1007e-06
4008.0, 5.0234e-06
4010.0, 5.0237e-06
4012.0, 5.0192e-06
4014.0, 5.1025e-06
4016.0, 4.9588e-06
4018.0, 4.9742e-06
4020.0, 5.1092e-06
4022.0, 5.0986e-06
4024.0, 5.0122e-06
4026.0, 5.1384e-06
4028.0, 5.0303e-06
4030.0, 4.9929e-06
4032.0, 5.0362e-06
4034.0, 5.0567e-06
4036.0, 5.1186e-06
4038.0, 5.0979e-06
4040.0, 5.0741e-06
4042.0, 5.0838e-06
4044.0, 5.1302e-06
4046.0, 5.0295e-06
4048.0, 5.1413e-06
4050.0, 5.1495e-06
4052.0, 5.1278e-06
4054.0, 5.0681e-06
4056.1, 5.0994e-06
4058.1, 5.0428e-06
4060.1, 5.1231e-06
4062.1, 5.116e-06
4064.1, 5.135e-06
4066.1, 5.1469e-06
4068.1, 5.109e-06
4070.1, 4.9859e-06
4072.1, 4.9389e-06
4074.1, 5.1279e-06
4076.1, 5.0881e-06
4078.1, 5.088e-06
4080.1, 5.1381e-06
4082.1, 5.1664e-06
4084.1, 5.0552e-06
4086.1, 5.1175e-06
4088.1, 4.9866e-06
4090.1, 5.0577e-06
4092.1, 5.1299e-06
4094.1, 5.1205e-06
4096.1, 5.1192e-06
4098.1, 5.0514e-06
4100.1, 5.0032e-06
4102.1, 5.0027e-06
4104.1, 5.0103e-06
4106.1, 5.1013e-06
4108.1, 5.0541e-06
4110.1, 5.1391e-06
4112.1, 5.1236e-06
4114.1, 5.1585e-06
4116.1, 5.1906e-06
4118.1, 5.1461e-06
4120.1, 5.1716e-06
4122.1, 5.0493e-06
4124.1, 4.9594e-06
4126.1, 5.0678e-06
4128.1, 5.0569e-06
4130.1, 5.0666e-06
4132.1, 5.1588e-06
4134.1, 4.9773e-06
4136.1, 5.1279e-06
4138.1, 5.0961e-06
4140.1, 5.0743e-06
4142.1, 5.2011e-06
4144.1, 5.1212e-06
4146.1, 5.1022e-06
4148.1, 5.0584e-06
4150.1, 5.1152e-06
4152.1, 5.0827e-06
4154.1, 5.1472e-06
4156.2, 5.1669e-06
4158.2, 5.1168e-06
4160.2, 5.0774e-06
4162.2, 5.0351e-06
4164.2, 5.1664e-06
4166.2, 5.0387e-06
4168.2, 5.1111e-06
4170.2, 5.002e-06
4172.2, 5.1187e-06
4174.2, 5.1337e-06
4176.2, 4.9555e-06
4178.2, 5.0403e-06
4180.2, 5.059e-06
4182.2, 5.1859e-06
4184.2, 5.1211e-06
4186.2, 5.0432e-06
4188.2, 5.181e-06
4190.2, 5.0551e-06
4192.2, 5.0955e-06
4194.2, 5.0885e-06
4196.2, 5.021e-06
4198.2, 5.0749e-06
4200.2, 5.0505e-06
4202.2, 5.0531e-06
4204.2, 5.0914e-06
4206.2, 5.036e-06
4208.2, 5.1728e-06
4210.2, 5.1221e-06
4212.2, 5.1558e-06
4214.2, 5.1413e-06
4216.2, 5.1776e-06
4218.2, 5.0793e-06
4220.2, 5.0914e-06
4222.2, 5.0924e-06
4224.2, 5.0781e-06
4226.2, 5.1171e-06
4228.2, 5.1058e-06
4230.2, 5.1838e-06
4232.2, 5.1723e-06
4234.2, 5.1126e-06
4236.2, 5.0539e-06
4238.2, 5.1947e-06
4240.2, 5.1475e-06
4242.2, 5.0459e-06
4244.2, 5.1068e-06
4246.2, 5.0203e-06
4248.2, 5.0465e-06
4250.2, 5.1803e-06
4252.2, 5.1932e-06
4254.2, 5.0874e-06
4256.3, 5.0881e-06
4258.3, 5.1942e-06
4260.3, 5.1237e-06
4262.3, 5.1765e-06
4264.3, 5.149e-06
4266.3, 5.0394e-06
4268.3, 5.0112e-06
4270.3, 5.1423e-06
4272.3, 5.0891e-06
4274.3, 5.1802e-06
4276.3, 5.0961e-06
4278.3, 5.1406e-06
4280.3, 5.1563e-06
4282.3, 5.1216e-06
4284.3, 5.112e-06
4286.3, 5.1883e-06
4288.3, 5.1626e-06
4290.3, 5.1034e-06
4292.3, 5.1392e-06
4294.3, 5.1173e-06
4296.3, 5.0644e-06
4298.3, 5.183e-06
4300.3, 5.1244e-06
4302.3, 5.1622e-06
4304.3, 5.1966e-06
4306.3, 5.1637e-06
4308.3, 5.0722e-06
4310.3, 5.1124e-06
4312.3, 5.1393e-06
4314.3, 5.0906e-06
4316.3, 5.1575e-06
4318.3, 5.1643e-06
4320.3, 5.1823e-06
4322.3, 5.1232e-06
4324.3, 5.1151e-06
4326.3, 5.0502e-06
4328.3, 5.1163e-06
4330.3, 5.1417e-06
4332.3, 5.119e-06
4334.3, 5.1441e-06
4336.3, 5.1542e-06
4338.3, 5.1486e-06
4340.3, 5.053e-06
4342.3, 5.1323e-06
4344.3, 5.1791e-06
4346.3, 5.0604e-06
4348.3, 5.1986e-06
4350.3, 5.1312e-06
4352.3, 5.2024e-06
4354.3, 5.11e-06
4356.4, 5.0357e-06
4358.4, 5.1245e-06
4360.4, 5.1632e-06
4362.4, 5.1614e-06
4364.4, 5.1763e-06
4366.4, 5.1307e-06
4368.4, 5.1044e-06
4370.4, 5.1329e-06
4372.4, 5.1393e-06
4374.4, 5.1326e-06
4376.4, 5.136e-06
4378.4, 5.1997e-06
4380.4, 5.104e-06
4382.4, 5.154e-06
4384.4, 5.1459e-06
4386.4, 5.085e-06
4388.4, 5.0869e-06
4390.4, 5.2522e-06
4392.4, 5.0032e-06
4394.4, 5.1428e-06
4396.4, 5.1643e-06
4398.4, 5.1503e-06
4400.4, 5.1169e-06
4402.4, 5.136e-06
4404.4, 5.1805e-06
4406.4, 5.122e-06
4408.4, 5.1834e-06
4410.4, 5.0815e-06
4412.4, 5.1042e-06
4414.4, 5.0767e-06
4416.4, 5.178e-06
4418.4, 5.1497e-06
4420.4, 5.1083e-06
4422.4, 5.0871e-06
4424.4, 5.078e-06
4426.4, 5.0873e-06
4428.4, 5.1378e-06
4430.4, 5.1353e-06
4432.4, 5.0958e-06
4434.4, 5.1841e-06
4436.4, 5.13e-06
4438.4, 5.1451e-06
4440.4, 5.1793e-06
4442.4, 5.1913e-06
4444.4, 5.1473e-06
4446.4, 5.1825e-06
4448.4, 5.231e-06
4450.4, 5.1831e-06
4452.4, 5.1143e-06
4454.4, 5.1504e-06
4456.5, 5.1349e-06
4458.5, 5.1022e-06
4460.5, 5.1725e-06
4462.5, 5.1509e-06
4464.5, 5.1501e-06
4466.5, 5.1437e-06
4468.5, 5.2367e-06
4470.5, 5.1281e-06
4472.5, 5.1669e-06
4474.5, 5.1293e-06
4476.5, 5.1091e-06
4478.5, 5.0968e-06
4480.5, 5.1053e-06
4482.5, 5.0869e-06
4484.5, 5.1357e-06
4486.5, 5.0589e-06
4488.5, 5.1514e-06
4490.5, 5.1712e-06
4492.5, 5.144e-06
4494.5, 5.1276e-06
4496.5, 5.1026e-06
4498.5, 5.149e-06
4500.5, 5.2335e-06
4502.5, 5.1885e-06
4504.5, 5.0824e-06
4506.5, 5.1241e-06
4508.5, 5.0905e-06
4510.5, 5.1973e-06
4512.5, 5.145e-06
4514.5, 5.2251e-06
4516.5, 5.0908e-06
4518.5, 5.1602e-06
4520.5, 5.1309e-06
4522.5, 5.18e-06
4524.5, 5.1948e-06
4526.5, 5.0774e-06
4528.5, 5.2251e-06
4530.5, 5.1462e-06
4532.5, 5.194e-06
4534.5, 5.1624e-06
4536.5, 5.1922e-06
4538.5, 5.1207e-06
4540.5, 5.0697e-06
4542.5, 5.1434e-06
4544.5, 5.1403e-06
4546.5, 5.1481e-06
4548.5, 5.0598e-06
4550.5, 5.0989e-06
4552.5, 5.1406e-06
4554.5, 5.1989e-06
4556.6, 5.2136e-06
4558.6, 5.0775e-06
4560.6, 5.1618e-06
4562.6, 5.0404e-06
4564.6, 5.0825e-06
4566.6, 5.074e-06
4568.6, 5.1409e-06
4570.6, 5.0403e-06
4572.6, 5.2033e-06
4574.6, 5.1033e-06
4576.6, 5.0737e-06
4578.6, 5.208e-06
4580.6, 5.1332e-06
4582.6, 5.1068e-06
4584.6, 5.0525e-06
4586.6, 5.1056e-06
4588.6, 5.157e-06
4590.6, 5.0986e-06
4592.6, 5.1998e-06
4594.6, 5.1715e-06
4596.6, 5.2095e-06
4598.6, 5.0044e-06
4600.6, 5.0572e-06
4602.6, 5.1303e-06
4604.6, 5.1733e-06
4606.6, 5.1019e-06
4608.6, 5.1326e-06
4610.6, 5.1481e-06
4612.6, 5.248e-06
4614.6, 5.1272e-06
4616.6, 5.1301e-06
4618.6, 5.2384e-06
4620.6, 5.1955e-06
4622.6, 5.147e-06
4624.6, 5.1848e-06
4626.6, 5.0793e-06
4628.6, 5.0871e-06
4630.6, 5.1704e-06
4632.6, 5.134e-06
4634.6, 5.1035e-06
4636.6, 5.1889e-06
4638.6, 5.2114e-06
4640.6, 5.1559e-06
4642.6, 5.1296e-06
4644.6, 5.2558e-06
4646.6, 5.1863e-06
4648.6, 5.0827e-06
4650.6, 5.1021e-06
4652.6, 5.055e-06
4654.6, 5.0816e-06
4656.7, 5.0531e-06
4658.7, 5.1123e-06
4660.7, 5.227e-06
4662.7, 5.0541e-06
4664.7, 5.1609e-06
4666.7, 5.1199e-06
4668.7, 5.1971e-06
4670.7, 5.0972e-06
4672.7, 5.1183e-06
4674.7, 5.1917e-06
4676.7, 5.1949e-06
4678.7, 5.1015e-06
4680.7, 5.213e-06
4682.7, 5.1989e-06
4684.7, 5.175e-06
4686.7, 5.0718e-06
4688.7, 5.2229e-06
4690.7, 5.2347e-06
4692.7, 5.1604e-06
4694.7, 5.1025e-06
4696.7, 5.1525e-06
4698.7, 5.156e-06
4700.7, 5.1263e-06
4702.7, 5.0785e-06
4704.7, 5.1392e-06
4706.7, 5.163e-06
4708.7, 5.1794e-06
4710.7, 5.2203e-06
4712.7, 5.1694e-06
4714.7, 5.1369e-06
4716.7, 5.1595e-06
4718.7, 5.188e-06
4720.7, 5.1271e-06
4722.7, 5.1161e-06
4724.7, 5.151e-06
4726.7, 5.2249e-06
4728.7, 5.1204e-06
4730.7, 5.1805e-06
4732.7, 5.1378e-06
4734.7, 5.1965e-06
4736.7, 5.1324e-06
4738.7, 5.1172e-06
4740.7, 5.1837e-06
4742.7, 5.1873e-06
4744.7, 5.2186e-06
4746.7, 5.1408e-06
4748.7, 5.1154e-06
4750.7, 5.0796e-06
4752.7, 5.0909e-06
4754.7, 5.1241e-06
4756.8, 5.1487e-06
4758.8, 5.1914e-06
4760.8, 5.204e-06
4762.8, 5.1438e-06
4764.8, 5.1728e-06
4766.8, 5.1514e-06
4768.8, 5.0888e-06
4770.8, 5.0626e-06
4772.8, 5.259e-06
4774.8, 5.1411e-06
4776.8, 5.1256e-06
4778.8, 5.2241e-06
4780.8, 5.1815e-06
4782.8, 5.1524e-06
4784.8, 5.2003e-06
4786.8, 5.1241e-06
4788.8, 5.2035e-06
4790.8, 5.0974e-06
4792.8, 5.2067e-06
4794.8, 5.2448e-06
4796.8, 5.2472e-06
4798.8, 5.1215e-06
4800.8, 5.1552e-06
4802.8, 5.174e-06
4804.8, 5.2613e-06
4806.8, 5.1656e-06
4808.8, 5.069e-06
4810.8, 5.1591e-06
4812.8, 5.2105e-06
4814.8, 5.1824e-06
4816.8, 5.098e-06
4818.8, 5.161e-06
4820.8, 5.0929e-06
4822.8, 5.1284e-06
4824.8, 5.1403e-06
4826.8, 5.1255e-06
4828.8, 5.2227e-06
4830.8, 5.1076e-06
4832.8, 5.1394e-06
4834.8, 5.1358e-06
4836.8, 5.2239e-06
4838.8, 5.1855e-06
4840.8, 5.1035e-06
4842.8, 5.1649e-06
4844.8, 5.142e-06
4846.8, 5.1381e-06
4848.8, 5.1916e-06
4850.8, 5.1809e-06
4852.8, 5.1075e-06
4854.8, 5.1135e-06
4856.9, 5.1869e-06
4858.9, 5.2277e-06
4860.9, 5.1415e-06
4862.9, 5.137e-06
4864.9, 5.1998e-06
4866.9, 7.0966e-07
4868.9, -3.228e-08
4870.9, -3.355e-08
4872.9, -3.22e-08
4874.9, -3.236e-08
4876.9, -2.895e-08
4878.9, -3.135e-08
4880.9, -3.238e-08
4882.9, -3.552e-08
4884.9, -3.432e-08
4886.9, -3.245e-08
4888.9, -3.22e-08
4890.9, -3.158e-08
4892.9, -3.548e-08
4894.9, -3.745e-08
4896.9, -3.421e-08
4898.9, -3.786e-08
4900.9, -3.204e-08
4902.9, -3.336e-08
4904.9, -3.606e-08
4906.9, -3.637e-08
4908.9, -3.591e-08
4910.9, -3.699e-08
4912.9, -3.547e-08
4914.9, -3.631e-08
4916.9, -3.718e-08
4918.9, -3.476e-08
4920.9, -3.472e-08
4922.9, -3.503e-08
4924.9, -3.309e-08
4926.9, -3.35e-08
4928.9, -3.016e-08
4930.9, -3.318e-08
4932.9, -3.582e-08
4934.9, -3.68e-08
4936.9, -3.356e-08
4938.9, -3.58e-08
4940.9, -3.611e-08
4942.9, -3.678e-08
4944.9, -3.253e-08
4946.9, -3.459e-08
4948.9, -3.438e-08
4950.9, -3.326e-08
4952.9, -3.34e-08
4954.9, -3.386e-08
4957.0, -3.484e-08
4959.0, -3.577e-08
4961.0, -3.007e-08
4963.0, -3.477e-08
4965.0, -3.529e-08
4967.0, -4.005e-08
4969.0, -3.886e-08
4971.0, -3.526e-08
4973.0, -3.087e-08
4975.0, -3.442e-08
4977.0, -3.189e-08
4979.0, -3.418e-08
4981.0, -3.577e-08
4983.0, -3.407e-08
4985.0, -3.407e-08
4987.0, -3.555e-08
4989.0, -3.494e-08
4991.0, -3.714e-08
4993.0, -3.424e-08
4995.0, -3.249e-08
4997.0, -3.374e-08
4999.0, -3.861e-08
5001.0, -3.6e-08
5003.0, -3.728e-08
5005.0, -4.075e-08
5007.0, -3.845e-08
5009.0, -3.386e-08
5011.0, -3.971e-08
5013.0, -3.417e-08
5015.0, -3.69e-08
5017.0, -3.592e-08
5019.0, -3.707e-08
5021.0, -3.5e-08
5023.0, -3.212e-08
5025.0, -3.681e-08
5027.0, -3.426e-08
5029.0, -3.741e-08
5031.0, -3.722e-08
5033.0, -3.711e-08
5035.0, -3.483e-08
5037.0, -3.96e-08
5039.0, -3.738e-08
5041.0, -3.609e-08
5043.0, -3.775e-08
5045.0, -3.88e-08
5047.0, -3.399e-08
5049.0, -3.792e-08
5051.0, -3.675e-08
5053.0, -3.417e-08
5055.0, -3.644e-08
5057.1, -3.489e-08
5059.1, -3.571e-08
5061.1, -3.747e-08
5063.1, -3.593e-08
5065.1, -3.511e-08
5067.1, -3.685e-08
5069.1, -3.714e-08
5071.1, -3.887e-08
5073.1, -3.71e-08
5075.1, -3.838e-08
5077.1, -3.991e-08
5079.1, -3.908e-08
5081.1, -3.934e-08
5083.1, -3.814e-08
5085.1, -3.787e-08
5087.1, -3.81e-08
5089.1, -3.731e-08
5091.1, -3.729e-08
5093.1, -3.868e-08
5095.1, -3.39e-08
5097.1, -3.993e-08
5099.1, -4.01e-08
5101.1, -3.745e-08
5103.1, -3.9e-08
5105.1, -3.641e-08
5107.1, -3.833e-08
5109.1, -3.781e-08
5111.1, -3.723e-08
5113.1, -3.824e-08
5115.1, -3.595e-08
5117.1, -3.829e-08
5119.1, -3.875e-08
5121.1, -3.664e-08
5123.1, -3.9e-08
5125.1, -3.658e-08
5127.1, -3.632e-08
5129.1, -3.665e-08
5131.1, -3.811e-08
5133.1, -3.817e-08
5135.1, -3.879e-08
5137.1, -3.476e-08
5139.1, -3.771e-08
5141.1, -3.749e-08
5143.1, -3.351e-08
5145.1, -3.658e-08
5147.1, -3.443e-08
5149.1, -3.48e-08
5151.1, -3.753e-08
5153.1, -3.261e-08
5155.1, -3.697e-08
5157.2, -3.96e-08
5159.2, -3.378e-08
5161.2, -3.236e-08
5163.2, -3.456e-08
5165.2, -3.658e-08
5167.2, -3.338e-08
5169.2, -3.524e-08
5171.2, -3.436e-08
5173.2, -3.625e-08
5175.2, -3.216e-08
5177.2, -3.634e-08
5179.2, -3.463e-08
5181.2, -3.633e-08
5183.2, -3.611e-08
5185.2, -3.705e-08
5187.2, -4.056e-08
5189.2, -3.987e-08
5191.2, -4.109e-08
5193.2, -4.056e-08
5195.2, -4.312e-08
5197.2, -3.642e-08
5199.2, -4.042e-08
5201.2, -3.965e-08
5203.2, -4.269e-08
5205.2, -4.236e-08
5207.2, -4.017e-08
5209.2, -3.944e-08
5211.2, -4.089e-08
5213.2, -3.871e-08
5215.2, -3.69e-08
5217.2, -3.953e-08
5219.2, -4.01e-08
5221.2, -3.81e-08
5223.2, -3.824e-08
5225.2, -3.816e-08
5227.2, -3.892e-08
5229.2, -3.729e-08
5231.2, -3.877e-08
5233.2, -3.57e-08
5235.2, -3.499e-08
5237.2, -3.358e-08
5239.2, -3.534e-08
5241.2, -3.219e-08
5243.2, -3.587e-08
5245.2, -3.456e-08
5247.2, -3.664e-08
5249.2, -2.975e-08
5251.2, -3.449e-08
5253.2, -3.188e-08
5255.2, -3.059e-08
5257.3, -3.274e-08
5259.3, -3.261e-08
5261.3, -3.199e-08
5263.3, -3.31e-08
5265.3, -3.418e-08
5267.3, -3.32e-08
5269.3, -3.453e-08
5271.3, -3.023e-08
5273.3, -2.689e-08
5275.3, -3.37e-08
5277.3, -3.038e-08
5279.3, -2.967e-08
5281.3, -3.206e-08
5283.3, -3.111e-08
5285.3, -3.263e-08
5287.3, -3.206e-08
5289.3, -2.923e-08
5291.3, -3.294e-08
5293.3, -3.42e-08
5295.3, -3.544e-08
5297.3, -3.075e-08
5299.3, -3.575e-08
5301.3, -3.911e-08
5303.3, -3.543e-08
5305.3, -3.631e-08
5307.3, -3.358e-08
5309.3, -3.14e-08
5311.3, -3.222e-08
5313.3, -3.221e-08
5315.3, -3.23e-08
5317.3, -3.361e-08
5319.3, -3.654e-08
5321.3, -3.616e-08
5323.3, -3.694e-08
5325.3, -3.964e-08
5327.3, -3.597e-08
5329.3, -3.524e-08
5331.3, -3.879e-08
5333.3, -3.523e-08
5335.3, -3.429e-08
5337.3, -3.59e-08
5339.3, -3.536e-08
5341.3, -3.581e-08
5343.3, -3.276e-08
5345.3, -3.082e-08
5347.3, -3.087e-08
5349.3, -3.653e-08
5351.3, -3.675e-08
5353.3, -4.005e-08
5355.3, -3.638e-08
5357.4, -3.446e-08
5359.4, -3.691e-08
5361.4, -3.533e-08
5363.4, -3.49e-08
5365.4, -3.625e-08
5367.4, -3.587e-08
5369.4, -3.83e-08
5371.4, -3.753e-08
5373.4, -3.916e-08
5375.4, -3.683e-08
5377.4, -3.974e-08
5379.4, -3.782e-08
5381.4, -4.008e-08
5383.4, -3.666e-08
5385.4, -3.903e-08
5387.4, -3.558e-08
5389.4, -3.887e-08
5391.4, -3.523e-08
5393.4, -3.818e-08
5395.4, -3.794e-08
5397.4, -3.527e-08
5399.4, -3.532e-08
5401.4, -3.579e-08
5403.4, -3.974e-08
5405.4, -3.855e-08
5407.4, -3.526e-08
5409.4, -3.778e-08
5411.4, -3.795e-08
5413.4, -3.295e-08
5415.4, -3.289e-08
5417.4, -3.452e-08
5419.4, -3.259e-08
5421.4, -3.491e-08
5423.4, -3.69e-08
5425.4, -3.37e-08
5427.4, -3.216e-08
5429.4, -3.559e-08
5431.4, -3.726e-08
5433.4, -3.776e-08
5435.4, -3.569e-08
5437.4, -3.629e-08
5439.4, -3.76e-08
5441.4, -3.799e-08
5443.4, -4.003e-08
5445.4, -3.843e-08
5447.4, -3.757e-08
5449.4, -3.786e-08
5451.4, -3.682e-08
5453.4, -3.795e-08
5455.4, -4.014e-08
5457.5, -3.739e-08
5459.5, -3.867e-08
5461.5, -3.764e-08
5463.5, -3.857e-08
5465.5, -3.912e-08
5467.5, -3.738e-08
5469.5, -3.355e-08
5471.5, -3.721e-08
5473.5, -3.88e-08
5475.5, -3.445e-08
5477.5, -3.935e-08
5479.5, -4.101e-08
5481.5, -3.814e-08
5483.5, -3.874e-08
5485.5, -3.494e-08
5487.5, -3.825e-08
5489.5, -3.344e-08
5491.5, -3.31e-08
5493.5, -3.394e-08
5495.5, -3.504e-08
5497.5, -3.043e-08
5499.5, -3.26e-08
5501.5, -3.567e-08
5503.5, -3.082e-08
5505.5, -3.218e-08
5507.5, -3.219e-08
5509.5, -3.299e-08
5511.5, -3.381e-08
5513.5, -3.894e-08
5515.5, -3.932e-08
5517.5, -3.812e-08
5519.5, -4.091e-08
5521.5, -4.028e-08
5523.5, -3.9e-08
5525.5, -4.279e-08
5527.5, -3.816e-08
5529.5, -3.786e-08
5531.5, -4.129e-08
5533.5, -3.76e-08
5535.5, -3.793e-08
5537.5, -4.135e-08
5539.5, -3.919e-08
5541.5, -3.867e-08
5543.5, -4.144e-08
5545.5, -3.788e-08
5547.5, -3.664e-08
5549.5, -3.827e-08
5551.5, -4.008e-08
5553.5, -3.591e-08
5555.5, -3.549e-08
5557.6, -4.157e-08
5559.6, -3.963e-08
5561.6, -4.033e-08
5563.6, -3.76e-08
5565.6, -3.302e-08
5567.6, -3.669e-08
5569.6, -3.529e-08
5571.6, -3.41e-08
5573.6, -3.824e-08
5575.6, -3.514e-08
5577.6, -3.766e-08
5579.6, -3.655e-08
5581.6, -4.002e-08
5583.6, -3.849e-08
5585.6, -3.82e-08
5587.6, -3.281e-08
5589.6, -3.423e-08
5591.6, -3.074e-08
5593.6, -3.716e-08
5595.6, -3.648e-08
5597.6, -3.651e-08
5599.6, -3.924e-08
5601.6, -3.601e-08
5603.6, -3.45e-08
5605.6, -3.554e-08
5607.6, -3.552e-08
5609.6, -3.719e-08
5611.6, -3.988e-08
5613.6, -3.692e-08
5615.6, -4.013e-08
5617.6, -3.207e-08
5619.6, -3.484e-08
5621.6, -3.587e-08
5623.6, -3.473e-08
5625.6, -3.38e-08
5627.6, -3.13e-08
5629.6, -3.218e-08
5631.6, -3.399e-08
5633.6, -3.356e-08
5635.6, -3.463e-08
5637.6, -3.306e-08
5639.6, -3.61e-08
5641.6, -3.52e-08
5643.6, -3.789e-08
5645.6, -3.828e-08
5647.6, -3.584e-08
5649.6, -3.375e-08
5651.6, -3.504e-08
5653.6, -3.461e-08
5655.6, -3.53e-08
5657.7, -3.755e-08
5659.7, -3.778e-08
5661.7, -4.137e-08
5663.7, -3.659e-08
5665.7, -3.87e-08
5667.7, -3.747e-08
5669.7, -3.907e-08
5671.7, -3.761e-08
5673.7, -3.617e-08
5675.7, -3.621e-08
5677.7, -3.427e-08
5679.7, -3.289e-08
5681.7, -3.444e-08
5683.7, -3.743e-08
5685.7, -4.105e-08
5687.7, -3.929e-08
5689.7, -3.475e-08
5691.7, -3.701e-08
5693.7, -3.653e-08
5695.7, -3.624e-08
5697.7, -3.673e-08
5699.7, -3.428e-08
5701.7, -3.711e-08
5703.7, -4.19e-08
5705.7, -3.536e-08
5707.7, -3.878e-08
5709.7, -3.933e-08
5711.7, -3.688e-08
5713.7, -3.92e-08
5715.7, -3.526e-08
5717.7, -3.503e-08
5719.7, -3.682e-08
5721.7, -3.597e-08
5723.7, -3.824e-08
5725.7, -4.053e-08
5727.7, -4.021e-08
5729.7, -3.434e-08
5731.7, -3.784e-08
5733.7, -3.957e-08
5735.7, -3.71e-08
5737.7, -4.125e-08
5739.7, -3.667e-08
5741.7, -3.563e-08
5743.7, -3.857e-08
5745.7, -3.3e-08
5747.7, -3.342e-08
5749.7, -3.573e-08
5751.7, -3.062e-08
5753.7, -3.429e-08
5755.7, -2.865e-08
5757.8, -3.14e-08
5759.8, -3.296e-08
5761.8, -3.198e-08
5763.8, -3.741e-08
5765.8, -3.477e-08
5767.8, -3.575e-08
5769.8, -3.403e-08
5771.8, -3.537e-08
5773.8, -3.883e-08
5775.8, -3.512e-08
5777.8, -3.188e-08
5779.8, -3.258e-08
5781.8, -3.564e-08
5783.8, -3.809e-08
5785.8, -3.438e-08
5787.8, -3.648e-08
5789.8, -3.347e-08
5791.8, -3.904e-08
5793.8, -4.148e-08
5795.8, -3.842e-08
5797.8, -3.757e-08
5799.8, -3.411e-08
5801.8, -3.613e-08
5803.8, -3.645e-08
5805.8, -3.749e-08
5807.8, -3.334e-08
5809.8, -3.254e-08
5811.8, -3.502e-08
5813.8, -3.723e-08
5815.8, -3.652e-08
5817.8, -3.734e-08
5819.8, -3.896e-08
5821.8, -3.672e-08
5823.8, -3.587e-08
5825.8, -3.703e-08
5827.8, -3.392e-08
5829.8, -3.404e-08
5831.8, -3.518e-08
5833.8, -3.676e-08
5835.8, -3.305e-08
5837.8, -3.454e-08
5839.8, -3.552e-08
5841.8, -3.39e-08
5843.8, -3.761e-08
5845.8, -3.494e-08
5847.8, -3.769e-08
5849.8, -3.298e-08
5851.8, -3.574e-08
5853.8, -3.623e-08
5855.8, -3.52e-08
5857.9, -3.482e-08
5859.9, -3.85e-08
5861.9, -3.742e-08
5863.9, -3.963e-08
5865.9, -3.538e-08
5867.9, -3.698e-08
5869.9, -3.416e-08
5871.9, -3.708e-08
5873.9, -3.861e-08
5875.9, -3.434e-08
5877.9, -3.795e-08
5879.9, -3.642e-08
5881.9, -3.65e-08
5883.9, -3.576e-08
5885.9, -3.408e-08
5887.9, -3.674e-08
5889.9, -3.43e-08
5891.9, -3.374e-08
5893.9, -3.522e-08
5895.9, -3.377e-08
5897.9, -3.554e-08
5899.9, -3.66e-08
5901.9, -3.476e-08
5903.9, -3.548e-08
5905.9, -3.62e-08
5907.9, -3.485e-08
5909.9, -3.842e-08
5911.9, -4.043e-08
5913.9, -3.579e-08
5915.9, -3.796e-08
5917.9, -3.775e-08
5919.9, -4.206e-08
5921.9, -3.878e-08
5923.9, 5.1661e-06
5925.9, 5.0572e-06
5927.9, 5.0373e-06
5929.9, 5.0491e-06
5931.9, 5.0844e-06
5933.9, 4.9925e-06
5935.9, 5.2005e-06
5937.9, 5.1149e-06
5939.9, 5.0475e-06
5941.9, 5.0054e-06
5943.9, 5.0179e-06
5945.9, 5.1171e-06
5947.9, 5.1581e-06
5949.9, 5.1854e-06
5951.9, 5.1115e-06
5953.9, 5.0162e-06
5955.9, 5.0684e-06
5958.0, 5.0902e-06
5960.0, 5.0968e-06
5962.0, 5.1644e-06
5964.0, 5.0681e-06
5966.0, 5.1479e-06
5968.0, 5.0741e-06
5970.0, 5.1529e-06
5972.0, 5.1737e-06
5974.0, 5.2337e-06
5976.0, 5.1685e-06
5978.0, 5.1636e-06
5980.0, 5.0127e-06
5982.0, 5.1755e-06
5984.0, 4.9407e-06
5986.0, 5.165e-06
5988.0, 5.0595e-06
5990.0, 5.1863e-06
5992.0, 5.2414e-06
5994.0, 5.1066e-06
5996.0, 5.0808e-06
5998.0, 4.9867e-06
6000.0, 5.2607e-06
6002.0, 5.2122e-06
6004.0, 5.1284e-06
6006.0, 5.1488e-06
6008.0, 5.1965e-06
6010.0, 5.1376e-06
6012.0, 5.125e-06
6014.0, 5.1917e-06
6016.0, 5.1045e-06
6018.0, 5.0835e-06
6020.0, 5.1685e-06
6022.0, 5.1447e-06
6024.0, 5.2252e-06
6026.0, 5.1634e-06
6028.0, 5.1477e-06
6030.0, 5.205e-06
6032.0, 5.1222e-06
6034.0, 5.2241e-06
6036.0, 5.169e-06
6038.0, 5.0997e-06
6040.0, 5.2929e-06
6042.0, 5.2109e-06
6044.0, 5.1595e-06
6046.0, 5.0873e-06
6048.0, 4.9888e-06
6050.0, 5.0859e-06
6052.0, 5.1037e-06
6054.0, 5.2389e-06
6056.0, 5.1546e-06
6058.1, 5.1284e-06
6060.1, 5.072e-06
6062.1, 5.1267e-06
6064.1, 5.0962e-06
6066.1, 5.1441e-06
6068.1, 5.0634e-06
6070.1, 5.1789e-06
6072.1, 5.1176e-06
6074.1, 5.1543e-06
6076.1, 5.2074e-06
6078.1, 5.2504e-06
6080.1, 5.1938e-06
6082.1, 5.1827e-06
6084.1, 5.0898e-06
6086.1, 5.1257e-06
6088.1, 5.1598e-06
6090.1, 5.1637e-06
6092.1, 5.1464e-06
6094.1, 5.1721e-06
6096.1, 5.0697e-06
6098.1, 5.1659e-06
6100.1, 5.0398e-06
6102.1, 5.0951e-06
6104.1, 5.2149e-06
6106.1, 5.0905e-06
6108.1, 5.2372e-06
6110.1, 5.2072e-06
6112.1, 5.0809e-06
6114.1, 5.1663e-06
6116.1, 5.259e-06
6118.1, 5.1677e-06
6120.1, 5.2248e-06
6122.1, 5.1808e-06
6124.1, 5.2267e-06
6126.1, 4.9882e-06
6128.1, 5.1913e-06
6130.1, 5.1529e-06
6132.1, 5.1602e-06
6134.1, 5.1584e-06
6136.1, 5.1943e-06
6138.1, 5.1523e-06
6140.1, 5.1469e-06
6142.1, 5.1697e-06
6144.1, 5.2217e-06
6146.1, 5.2098e-06
6148.1, 5.1839e-06
6150.1, 5.2708e-06
6152.1, 5.1941e-06
6154.1, 5.144e-06
6156.1, 5.1102e-06
6158.2, 5.0115e-06
6160.2, 5.1869e-06
6162.2, 5.1846e-06
6164.2, 5.2315e-06
6166.2, 5.1661e-06
6168.2, 5.2133e-06
6170.2, 5.1668e-06
6172.2, 5.1923e-06
6174.2, 5.2778e-06
6176.2, 5.1873e-06
6178.2, 5.0901e-06
6180.2, 5.218e-06
6182.2, 5.2499e-06
6184.2, 5.15e-06
6186.2, 5.1989e-06
6188.2, 5.2491e-06
6190.2, 5.105e-06
6192.2, 5.2093e-06
6194.2, 5.2152e-06
6196.2, 5.197e-06
6198.2, 5.194e-06
6200.2, 5.2128e-06
6202.2, 5.1741e-06
6204.2, 5.2169e-06
6206.2, 5.2435e-06
6208.2, 5.1642e-06
6210.2, 5.2142e-06
6212.2, 5.1847e-06
6214.2, 5.2204e-06
6216.2, 5.1684e-06
6218.2, 5.2082e-06
6220.2, 5.2528e-06
6222.2, 5.1817e-06
6224.2, 5.2657e-06
6226.2, 5.1568e-06
6228.2, 5.2911e-06
6230.2, 5.1781e-06
6232.2, 5.1836e-06
6234.2, 5.1945e-06
6236.2, 5.1407e-06
6238.2, 5.2141e-06
6240.2, 5.2303e-06
6242.2, 5.1729e-06
6244.2, 5.2204e-06
6246.2, 5.2645e-06
6248.2, 5.2752e-06
6250.2, 5.0918e-06
6252.2, 5.2341e-06
6254.2, 5.26e-06
6256.2, 5.2253e-06
6258.3, 5.1754e-06
6260.3, 5.2509e-06
6262.3, 5.287e-06
6264.3, 5.1126e-06
6266.3, 5.1876e-06
6268.3, 5.1897e-06
6270.3, 5.1684e-06
6272.3, 5.1748e-06
6274.3, 5.1658e-06
6276.3, 5.1596e-06
6278.3, 5.2979e-06
6280.3, 5.2947e-06
6282.3, 5.1832e-06
6284.3, 5.15e-06
6286.3, 5.2161e-06
6288.3, 5.2662e-06
6290.3, 5.225e-06
6292.3, 5.3599e-06
6294.3, 5.2839e-06
6296.3, 5.3537e-06
6298.3, 5.2218e-06
6300.3, 5.2079e-06
6302.3, 5.2753e-06
6304.3, 5.28e-06
6306.3, 5.1407e-06
6308.3, 5.227e-06
6310.3, 5.1536e-06
6312.3, 5.1322e-06
6314.3, 5.2667e-06
6316.3, 5.2705e-06
6318.3, 5.1404e-06
6320.3, 5.2657e-06
6322.3, 5.1741e-06
6324.3, 5.2479e-06
6326.3, 5.1801e-06
6328.3, 5.1733e-06
6330.3, 5.2412e-06
6332.3, 5.2927e-06
6334.3, 5.2509e-06
6336.3, 5.0547e-06
6338.3, 5.299e-06
6340.3, 5.2316e-06
6342.3, 5.0832e-06
6344.3, 5.1544e-06
6346.3, 5.1744e-06
6348.3, 5.1577e-06
6350.3, 5.207e-06
6352.3, 5.1757e-06
6354.3, 5.2612e-06
6356.3, 5.2172e-06
6358.4, 5.3829e-06
6360.4, 5.2861e-06
6362.4, 5.1773e-06
6364.4, 5.1801e-06
6366.4, 5.2215e-06
6368.4, 5.2262e-06
6370.4, 5.2427e-06
6372.4, 5.26e-06
6374.4, 5.1939e-06
6376.4, 5.1926e-06
6378.4, 5.251e-06
6380.4, 5.1523e-06
6382.4, 5.2755e-06
6384.4, 5.2653e-06
6386.4, 5.1643e-06
6388.4, 5.2233e-06
6390.4, 5.2537e-06
6392.4, 5.1701e-06
6394.4, 5.3013e-06
6396.4, 5.2407e-06
6398.4, 5.1529e-06
6400.4, 5.2219e-06
6402.4, 5.2661e-06
6404.4, 5.2488e-06
6406.4, 5.193e-06
6408.4, 5.2427e-06
6410.4, 5.1808e-06
6412.4, 5.2896e-06
6414.4, 5.1022e-06
6416.4, 5.2926e-06
6418.4, 5.3375e-06
6420.4, 5.1159e-06
6422.4, 5.3104e-06
6424.4, 5.2491e-06
6426.4, 5.1287e-06
6428.4, 5.2228e-06
6430.4, 5.2726e-06
6432.4, 5.2983e-06
6434.4, 5.1631e-06
6436.4, 5.2837e-06
6438.4, 5.145e-06
6440.4, 5.3099e-06
6442.4, 5.2741e-06
6444.4, 5.1735e-06
6446.4, 5.2789e-06
6448.4, 5.1934e-06
6450.4, 5.1995e-06
6452.4, 5.1771e-06
6454.4, 5.2517e-06
6456.4, 5.3288e-06
6458.5, 5.2196e-06
6460.5, 5.1892e-06
6462.5, 5.2535e-06
6464.5, 5.2438e-06
6466.5, 5.2412e-06
6468.5, 5.1874e-06
6470.5, 5.3032e-06
6472.5, 5.2479e-06
6474.5, 5.1531e-06
6476.5, 5.2278e-06
6478.5, 5.1436e-06
6480.5, 5.07e-06
6482.5, 5.2934e-06
6484.5, 5.1591e-06
6486.5, 5.1599e-06
6488.5, 5.2548e-06
6490.5, 5.2511e-06
6492.5, 5.3905e-06
6494.5, 5.223e-06
6496.5, 5.2365e-06
6498.5, 5.0689e-06
6500.5, 5.222e-06
6502.5, 5.2279e-06
6504.5, 5.2987e-06
6506.5, 5.3869e-06
6508.5, 5.3227e-06
6510.5, 5.2079e-06
6512.5, 5.195e-06
6514.5, 5.0983e-06
6516.5, 5.1703e-06
6518.5, 5.2296e-06
6520.5, 5.3202e-06
6522.5, 5.3576e-06
6524.5, 5.2974e-06
6526.5, 5.1939e-06
6528.5, 5.4238e-06
6530.5, 5.2771e-06
6532.5, 5.2899e-06
6534.5, 5.3109e-06
6536.5, 5.2595e-06
6538.5, 5.2966e-06
6540.5, 5.2021e-06
6542.5, 5.2294e-06
6544.5, 5.2288e-06
6546.5, 5.3259e-06
6548.5, 5.3171e-06
6550.5, 5.24e-06
6552.5, 5.1417e-06
6554.5, 5.2869e-06
6556.5, 5.2967e-06
6558.6, 5.2611e-06
6560.6, 5.2534e-06
6562.6, 5.2088e-06
6564.6, 5.2899e-06
6566.6, 5.2359e-06
6568.6, 5.2356e-06
6570.6, 5.2987e-06
6572.6, 5.1999e-06
6574.6, 5.2975e-06
6576.6, 5.2414e-06
6578.6, 5.1216e-06
6580.6, 5.2569e-06
6582.6, 5.2797e-06
6584.6, 5.3074e-06
6586.6, 5.1623e-06
6588.6, 5.2852e-06
6590.6, 5.3122e-06
6592.6, 5.1821e-06
6594.6, 5.2033e-06
6596.6, 5.2875e-06
6598.6, 5.2884e-06
6600.6, 5.29e-06
6602.6, 5.2132e-06
6604.6, 5.2505e-06
6606.6, 5.2101e-06
6608.6, 5.1843e-06
6610.6, 5.2416e-06
6612.6, 5.2701e-06
6614.6, 5.2423e-06
6616.6, 5.3761e-06
6618.6, 5.3178e-06
6620.6, 5.2391e-06
6622.6, 5.2607e-06
6624.6, 5.3074e-06
6626.6, 5.165e-06
6628.6, 5.292e-06
6630.6, 5.1351e-06
6632.6, 5.1824e-06
6634.6, 5.2757e-06
6636.6, 5.1368e-06
6638.6, 5.2828e-06
6640.6, 5.253e-06
6642.6, 5.2938e-06
6644.6, 5.3047e-06
6646.6, 5.1639e-06
6648.6, 5.2955e-06
6650.6, 5.2528e-06
6652.6, 5.2288e-06
6654.6, 5.2418e-06
6656.6, 5.1978e-06
6658.7, 5.2447e-06
6660.7, 5.2697e-06
6662.7, 5.2798e-06
6664.7, 5.2456e-06
6666.7, 5.242e-06
6668.7, 5.148e-06
6670.7, 5.3331e-06
6672.7, 5.1937e-06
6674.7, 5.1747e-06
6676.7, 5.2353e-06
6678.7, 5.3379e-06
6680.7, 5.2298e-06
6682.7, 5.1792e-06
6684.7, 5.2678e-06
6686.7, 5.1879e-06
6688.7, 5.325e-06
6690.7, 5.1553e-06
6692.7, 5.2357e-06
6694.7, 5.2875e-06
6696.7, 5.225e-06
6698.7, 5.358e-06
6700.7, 5.2242e-06
6702.7, 5.2931e-06
6704.7, 5.297e-06
6706.7, 5.2462e-06
6708.7, 5.2834e-06
6710.7, 5.3442e-06
6712.7, 5.2345e-06
6714.7, 5.2012e-06
6716.7, 5.3136e-06
6718.7, 5.2523e-06
6720.7, 5.1915e-06
6722.7, 5.1789e-06
6724.7, 5.3362e-06
6726.7, 5.1512e-06
6728.7, 5.2873e-06
6730.7, 5.2838e-06
6732.7, 5.2755e-06
6734.7, 5.2444e-06
6736.7, 5.3212e-06
6738.7, 5.3066e-06
6740.7, 5.2654e-06
6742.7, 5.27e-06
6744.7, 5.2438e-06
6746.7, 5.1892e-06
6748.7, 5.2199e-06
6750.7, 5.2027e-06
6752.7, 5.2642e-06
6754.7, 5.2377e-06
6756.7, 5.2979e-06
6758.8, 5.3441e-06
6760.8, 5.2694e-06
6762.8, 5.1889e-06
6764.8, 5.3651e-06
6766.8, 5.279e-06
6768.8, 5.3763e-06
6770.8, 5.259e-06
6772.8, 5.3137e-06
6774.8, 5.2735e-06
6776.8, 5.2932e-06
6778.8, 5.2149e-06
6780.8, 5.248e-06
6782.8, 5.2407e-06
6784.8, 5.1897e-06
6786.8, 5.2397e-06
6788.8, 5.1987e-06
6790.8, 5.2029e-06
6792.8, 5.3015e-06
6794.8, 5.3054e-06
6796.8, 5.2913e-06
6798.8, 5.2453e-06
6800.8, 5.0814e-06
6802.8, 5.1175e-06
6804.8, 5.3171e-06
6806.8, 5.3608e-06
6808.8, 5.2976e-06
6810.8, 5.2726e-06
6812.8, 5.2324e-06
6814.8, 5.3507e-06
6816.8, 5.1887e-06
6818.8, 5.2285e-06
6820.8, 5.2222e-06
6822.8, 5.2533e-06
6824.8, 5.183e-06
6826.8, 5.2715e-06
6828.8, 5.2751e-06
6830.8, 5.1269e-06
6832.8, 5.1947e-06
6834.8, 5.2134e-06
6836.8, 5.2853e-06
6838.8, 5.2516e-06
6840.8, 5.2814e-06
6842.8, 5.2859e-06
6844.8, 5.251e-06
6846.8, 5.2473e-06
6848.8, 5.2547e-06
6850.8, 5.1192e-06
6852.8, 5.1507e-06
6854.8, 5.2782e-06
6856.8, 5.2769e-06
6858.9, 5.2412e-06
6860.9, 5.2655e-06
6862.9, 5.1926e-06
6864.9, 5.2576e-06
6866.9, 5.3548e-06
6868.9, 5.2713e-06
6870.9, 5.3229e-06
6872.9, 5.2427e-06
6874.9, 5.2732e-06
6876.9, 5.2828e-06
6878.9, 5.1798e-06
6880.9, 5.175e-06
6882.9, 5.3427e-06
6884.9, 5.1376e-06
6886.9, 5.2995e-06
6888.9, 5.2763e-06
6890.9, 5.2278e-06
6892.9, 5.2064e-06
6894.9, 5.1668e-06
6896.9, 5.3615e-06
6898.9, 5.2613e-06
6900.9, 5.2409e-06
6902.9, 5.26e-06
6904.9, 5.2929e-06
6906.9, 5.2239e-06
6908.9, 5.1931e-06
6910.9, 5.2713e-06
6912.9, 5.2207e-06
6914.9, 5.2829e-06
6916.9, 5.1713e-06
6918.9, 5.3122e-06
6920.9, 5.2517e-06
6922.9, 5.2403e-06
6924.9, -1.377e-07
6926.9, -3.654e-08
6928.9, -3.393e-08
6930.9, -3.361e-08
6932.9, -3.666e-08
6934.9, -3.814e-08
6936.9, -3.91e-08
6938.9, -3.438e-08
6940.9, -3.385e-08
6942.9, -3.929e-08
6944.9, -3.389e-08
6946.9, -3.748e-08
6948.9, -3.28e-08
6950.9, -3.786e-08
6952.9, -4.002e-08
6954.9, -4.019e-08
6956.9, -3.836e-08
6959.0, -3.7e-08
6961.0, -4.005e-08
6963.0, -3.694e-08
6965.0, -3.677e-08
6967.0, -3.626e-08
6969.0, -3.665e-08
6971.0, -3.967e-08
6973.0, -3.637e-08
6975.0, -3.643e-08
6977.0, -3.436e-08
6979.0, -3.169e-08
6981.0, -3.175e-08
6983.0, -3.434e-08
6985.0, -3.706e-08
6987.0, -3.681e-08
6989.0, -3.229e-08
6991.0, -3.257e-08
6993.0, -3.281e-08
6995.0, -3.168e-08
6997.0, -3.619e-08
6999.0, -3.495e-08
7001.0, -3.522e-08
7003.0, -3.855e-08
7005.0, -3.831e-08
7007.0, -3.83e-08
7009.0, -3.541e-08
7011.0, -3.487e-08
7013.0, -3.583e-08
7015.0, -3.696e-08
7017.0, -3.735e-08
7019.0, -3.63e-08
7021.0, -3.909e-08
7023.0, -3.295e-08
7025.0, -3.241e-08
7027.0, -3.792e-08
7029.0, -3.689e-08
7031.0, -3.517e-08
7033.0, -3.56e-08
7035.0, -3.949e-08
7037.0, -3.505e-08
7039.0, -3.778e-08
7041.0, -3.761e-08
7043.0, -3.487e-08
7045.0, -3.596e-08
7047.0, -3.474e-08
7049.0, -3.989e-08
7051.0, -3.8e-08
7053.0, -3.655e-08
7055.0, -3.583e-08
7057.0, -3.521e-08
7059.1, -3.436e-08
7061.1, -3.738e-08
7063.1, -3.636e-08
7065.1, -3.469e-08
7067.1, -3.63e-08
7069.1, -3.292e-08
7071.1, -3.249e-08
7073.1, -3.708e-08
7075.1, -3.413e-08
7077.1, -3.514e-08
7079.1, -3.652e-08
7081.1, -3.569e-08
7083.1, -3.537e-08
7085.1, -3.773e-08
7087.1, -3.645e-08
7089.1, -3.629e-08
7091.1, -3.852e-08
7093.1, -3.729e-08
7095.1, -3.319e-08
7097.1, -3.417e-08
7099.1, -3.774e-08
7101.1, -3.389e-08
7103.1, -3.276e-08
7105.1, -3.767e-08
7107.1, -3.38e-08
7109.1, -3.411e-08
7111.1, -3.549e-08
7113.1, -3.809e-08
7115.1, -4.023e-08
7117.1, -3.898e-08
7119.1, -3.749e-08
7121.1, -3.727e-08
7123.1, -4.127e-08
7125.1, -3.688e-08
7127.1, -3.817e-08
7129.1, -3.22e-08
7131.1, -3.863e-08
7133.1, -3.482e-08
7135.1, -3.731e-08
7137.1, -3.576e-08
7139.1, -3.842e-08
7141.1, -3.51e-08
7143.1, -3.659e-08
7145.1, -3.668e-08
7147.1, -3.587e-08
7149.1, -3.716e-08
7151.1, -4.049e-08
7153.1, -3.717e-08
7155.1, -3.966e-08
7157.1, -3.878e-08
7159.2, -3.965e-08
7161.2, -3.644e-08
7163.2, -4.002e-08
7165.2, -3.942e-08
7167.2, -3.646e-08
7169.2, -4.075e-08
7171.2, -4.011e-08
7173.2, -4.152e-08
7175.2, -4.017e-08
7177.2, -3.656e-08
7179.2, -3.718e-08
7181.2, -3.822e-08
7183.2, -3.468e-08
7185.2, -3.646e-08
7187.2, -3.803e-08
7189.2, -3.308e-08
7191.2, -3.315e-08
7193.2, -3.232e-08
7195.2, -3.402e-08
7197.2, -3.389e-08
7199.2, -3.599e-08
7201.2, -3.448e-08
7203.2, -3.51e-08
7205.2, -3.115e-08
7207.2, -3.793e-08
7209.2, -3.768e-08
7211.2, -3.962e-08
7213.2, -3.844e-08
7215.2, -3.695e-08
7217.2, -3.507e-08
7219.2, -3.842e-08
7221.2, -4.052e-08
7223.2, -3.685e-08
7225.2, -4.108e-08
7227.2, -3.674e-08
7229.2, -4.02e-08
7231.2, -3.828e-08
7233.2, -4.053e-08
7235.2, -3.786e-08
7237.2, -3.795e-08
7239.2, -3.963e-08
7241.2, -4.075e-08
7243.2, -4.07e-08
7245.2, -3.918e-08
7247.2, -3.797e-08
7249.2, -3.404e-08
7251.2, -3.574e-08
7253.2, -3.606e-08
7255.2, -4.011e-08
7257.2, -3.861e-08
7259.3, -3.641e-08
7261.3, -3.721e-08
7263.3, -3.805e-08
7265.3, -3.648e-08
7267.3, -3.49e-08
7269.3, -3.188e-08
7271.3, -3.473e-08
7273.3, -3.415e-08
7275.3, -3.754e-08
7277.3, -3.328e-08
7279.3, -3.232e-08
7281.3, -3.618e-08
7283.3, -3.571e-08
7285.3, -3.684e-08
7287.3, -3.782e-08
7289.3, -3.573e-08
7291.3, -3.7e-08
7293.3, -3.81e-08
7295.3, -3.59e-08
7297.3, -3.882e-08
7299.3, -3.803e-08
7301.3, -3.866e-08
7303.3, -3.542e-08
7305.3, -3.873e-08
7307.3, -3.644e-08
7309.3, -3.972e-08
7311.3, -4.252e-08
7313.3, -3.747e-08
7315.3, -4.298e-08
7317.3, -3.977e-08
7319.3, -4.075e-08
7321.3, -4.075e-08
7323.3, -4.034e-08
7325.3, -4.181e-08
7327.3, -4.128e-08
7329.3, -4.232e-08
7331.3, -3.913e-08
7333.3, -3.97e-08
7335.3, -4.229e-08
7337.3, -4.253e-08
7339.3, -3.882e-08
7341.3, -3.655e-08
7343.3, -4.12e-08
7345.3, -3.926e-08
7347.3, -4.067e-08
7349.3, -3.908e-08
7351.3, -4.046e-08
7353.3, -3.724e-08
7355.3, -3.972e-08
7357.3, -4.248e-08
7359.4, -3.593e-08
7361.4, -3.993e-08
7363.4, -3.843e-08
7365.4, -3.884e-08
7367.4, -4.312e-08
7369.4, -4.153e-08
7371.4, -4.273e-08
7373.4, -4.145e-08
7375.4, -4.207e-08
7377.4, -3.86e-08
7379.4, -3.545e-08
7381.4, -3.824e-08
7383.4, -4.198e-08
7385.4, -3.841e-08
7387.4, -4.198e-08
7389.4, -4.044e-08
7391.4, -3.967e-08
7393.4, -4.158e-08
7395.4, -4.333e-08
7397.4, -4.286e-08
7399.4, -4.401e-08
7401.4, -4.041e-08
7403.4, -4.705e-08
7405.4, -4.332e-08
7407.4, -4.828e-08
7409.4, -4.602e-08
7411.4, -4.416e-08
7413.4, -4.023e-08
7415.4, -4.17e-08
7417.4, -4.022e-08
7419.4, -4.309e-08
7421.4, -4.287e-08
7423.4, -3.845e-08
7425.4, -4.199e-08
7427.4, -3.654e-08
7429.4, -3.882e-08
7431.4, -4.034e-08
7433.4, -4.022e-08
7435.4, -4.243e-08
7437.4, -3.95e-08
7439.4, -4.145e-08
7441.4, -3.875e-08
7443.4, -3.744e-08
7445.4, -3.959e-08
7447.4, -3.749e-08
7449.4, -4.109e-08
7451.4, -4.031e-08
7453.4, -3.868e-08
7455.4, -3.875e-08
7457.4, -3.934e-08
7459.5, -3.741e-08
7461.5, -4.157e-08
7463.5, -3.937e-08
7465.5, -3.938e-08
7467.5, -3.791e-08
7469.5, -3.957e-08
7471.5, -3.886e-08
7473.5, -3.756e-08
7475.5, -3.973e-08
7477.5, -3.888e-08
7479.5, -3.994e-08
7481.5, -3.828e-08
7483.5, -4.41e-08
7485.5, -4.405e-08
7487.5, -4.21e-08
7489.5, -4.304e-08
7491.5, -3.99e-08
7493.5, -4.071e-08
7495.5, -4.212e-08
7497.5, -4.214e-08
7499.5, -3.915e-08
7501.5, -3.851e-08
7503.5, -3.899e-08
7505.5, -3.896e-08
7507.5, -4.044e-08
7509.5, -4.025e-08
7511.5, -4.055e-08
7513.5, -3.695e-08
7515.5, -3.97e-08
7517.5, -3.84e-08
7519.5, -3.834e-08
7521.5, -4.126e-08
7523.5, -4.237e-08
7525.5, -4.39e-08
7527.5, -4.265e-08
7529.5, -4.291e-08
7531.5, -4.24e-08
7533.5, -4.235e-08
7535.5, -4.204e-08
7537.5, -4.773e-08
7539.5, -4.23e-08
7541.5, -4.444e-08
7543.5, -4.296e-08
7545.5, -4.012e-08
7547.5, -4.477e-08
7549.5, -4.412e-08
7551.5, -4.619e-08
7553.5, -4.411e-08
7555.5, -4.35e-08
7557.5, -4.213e-08
7559.6, -4.172e-08
7561.6, -4.303e-08
7563.6, -3.965e-08
7565.6, -4.212e-08
7567.6, -4.353e-08
7569.6, -4.134e-08
7571.6, -3.952e-08
7573.6, -4.109e-08
7575.6, -4.086e-08
7577.6, -4.282e-08
7579.6, -4.058e-08
7581.6, -4.335e-08
7583.6, -4.344e-08
7585.6, -4.374e-08
7587.6, -4.352e-08
7589.6, -4.022e-08
7591.6, -4.183e-08
7593.6, -4.505e-08
7595.6, -4e-08
7597.6, -4.18e-08
7599.6, -4.128e-08
7601.6, -4.027e-08
7603.6, -4.374e-08
7605.6, -3.898e-08
7607.6, -3.899e-08
7609.6, -4.062e-08
7611.6, -4.036e-08
7613.6, -3.849e-08
7615.6, -3.957e-08
7617.6, -4.438e-08
7619.6, -4.215e-08
7621.6, -4.234e-08
7623.6, -4.151e-08
7625.6, -3.997e-08
7627.6, -3.81e-08
7629.6, -4.189e-08
7631.6, -4e-08
7633.6, -4.626e-08
7635.6, -4.266e-08
7637.6, -3.74e-08
7639.6, -3.763e-08
7641.6, -4.133e-08
7643.6, -4.232e-08
7645.6, -3.774e-08
7647.6, -3.967e-08
7649.6, -3.817e-08
7651.6, -3.967e-08
7653.6, -3.977e-08
7655.6, -4.102e-08
7657.6, -3.817e-08
7659.7, -3.644e-08
7661.7, -3.698e-08
7663.7, -3.7e-08
7665.7, -3.956e-08
7667.7, -4.161e-08
7669.7, -3.701e-08
7671.7, -3.569e-08
7673.7, -3.691e-08
7675.7, -3.746e-08
7677.7, -3.78e-08
7679.7, -3.752e-08
7681.7, -3.578e-08
7683.7, -3.737e-08
7685.7, -3.979e-08
7687.7, -3.647e-08
7689.7, -4.056e-08
7691.7, -3.651e-08
7693.7, -3.717e-08
7695.7, -4.01e-08
7697.7, -3.655e-08
7699.7, -3.74e-08
7701.7, -3.828e-08
7703.7, -3.825e-08
7705.7, -3.774e-08
7707.7, -3.789e-08
7709.7, -3.858e-08
7711.7, -3.731e-08
7713.7, -3.306e-08
7715.7, -3.588e-08
7717.7, -3.857e-08
7719.7, -3.929e-08
7721.7, -3.88e-08
7723.7, -3.63e-08
7725.7, -3.749e-08
7727.7, -3.85e-08
7729.7, -3.973e-08
7731.7, -3.856e-08
7733.7, -3.807e-08
7735.7, -3.998e-08
7737.7, -4.01e-08
7739.7, -4.134e-08
7741.7, -4.042e-08
7743.7, -4.241e-08
7745.7, -3.88e-08
7747.7, -3.94e-08
7749.7, -3.886e-08
7751.7, -3.665e-08
7753.7, -3.634e-08
7755.7, -3.903e-08
7757.7, -4.128e-08
7759.8, -3.805e-08
7761.8, -3.991e-08
7763.8, -4.329e-08
7765.8, -4.381e-08
7767.8, -3.994e-08
7769.8, -3.913e-08
7771.8, -3.762e-08
7773.8, -3.539e-08
7775.8, -3.587e-08
7777.8, -3.852e-08
7779.8, -3.325e-08
7781.8, -3.319e-08
7783.8, -3.218e-08
7785.8, -3.995e-08
7787.8, -4.158e-08
7789.8, -3.675e-08
7791.8, -4.201e-08
7793.8, -3.725e-08
7795.8, -3.474e-08
7797.8, -3.66e-08
7799.8, -3.569e-08
7801.8, -3.572e-08
7803.8, -3.678e-08
7805.8, -3.407e-08
7807.8, -3.447e-08
7809.8, -3.052e-08
7811.8, -3.186e-08
7813.8, -3.243e-08
7815.8, -3.16e-08
7817.8, -3.246e-08
7819.8, -3.278e-08
7821.8, -3.234e-08
7823.8, -3.006e-08
7825.8, -3.814e-08
7827.8, -3.563e-08
7829.8, -3.626e-08
7831.8, -3.431e-08
7833.8, -3.929e-08
7835.8, -3.561e-08
7837.8, -3.307e-08
7839.8, -3.634e-08
7841.8, -3.706e-08
7843.8, -3.46e-08
7845.8, -3.832e-08
7847.8, -3.436e-08
7849.8, -3.543e-08
7851.8, -3.22e-08
7853.8, -3.669e-08
7855.8, -3.062e-08
7857.8, -3.684e-08
7859.9, -3.557e-08
7861.9, -3.473e-08
7863.9, -3.371e-08
7865.9, -3.755e-08
7867.9, -3.479e-08
7869.9, -3.565e-08
7871.9, -3.096e-08
7873.9, -3.144e-08
7875.9, -3.261e-08
7877.9, -3.22e-08
7879.9, -3.067e-08
7881.9, -3.68e-08
7883.9, -3.379e-08
7885.9, -3.149e-08
7887.9, -3.169e-08
7889.9, -3.455e-08
7891.9, -3.566e-08
7893.9, -3.769e-08
7895.9, -3.598e-08
7897.9, -3.362e-08
7899.9, -3.802e-08
7901.9, -3.621e-08
7903.9, -3.708e-08
7905.9, -4.03e-08
7907.9, -3.828e-08
7909.9, -3.692e-08
7911.9, -4.187e-08
7913.9, -3.641e-08
7915.9, -3.83e-08
7917.9, -3.896e-08
7919.9, -3.762e-08
7921.9, -3.696e-08
7923.9, -3.896e-08
7925.9, -3.717e-08
7927.9, -4.026e-08
7929.9, -3.61e-08
7931.9, -3.702e-08
7933.9, -3.894e-08
7935.9, -3.571e-08
7937.9, -3.848e-08
7939.9, -3.849e-08
7941.9, -3.927e-08
7943.9, -3.9e-08
7945.9, -4.077e-08
7947.9, -3.67e-08
7949.9, -3.766e-08
7951.9, -3.64e-08
7953.9, -3.953e-08
7955.9, -3.894e-08
7957.9, -3.387e-08
7960.0, -3.587e-08
7962.0, -3.633e-08
7964.0, -3.579e-08
7966.0, -3.806e-08
7968.0, 2.6075e-06
7970.0, 4.9368e-06
7972.0, 5.1261e-06
7974.0, 5.1487e-06
7976.0, 5.1879e-06
7978.0, 5.0582e-06
7980.0, 5.0399e-06
7982.0, 5.0208e-06
7984.0, 5.0799e-06
7986.0, 5.0434e-06
7988.0, 5.1604e-06
7990.0, 4.924e-06
7992.0, 4.9953e-06
7994.0, 5.2217e-06
7996.0, 5.0785e-06
7998.0, 5.1121e-06
8000.0, 5.1174e-06
8002.0, 5.0203e-06
8004.0, 5.1263e-06
8006.0, 5.089e-06
8008.0, 5.0651e-06
8010.0, 5.1735e-06
8012.0, 5.1279e-06
8014.0, 5.1294e-06
8016.0, 5.143e-06
8018.0, 5.1545e-06
8020.0, 5.2127e-06
8022.0, 5.19e-06
8024.0, 5.0486e-06
8026.0, 5.2103e-06
8028.0, 5.0933e-06
8030.0, 5.176e-06
8032.0, 5.1249e-06
8034.0, 5.1969e-06
8036.0, 5.1235e-06
8038.0, 5.3307e-06
8040.0, 5.0945e-06
8042.0, 5.2556e-06
8044.0, 5.1242e-06
8046.0, 5.0622e-06
8048.0, 5.1921e-06
8050.0, 4.8827e-06
8052.0, 5.2326e-06
8054.0, 5.1498e-06
8056.0, 5.1266e-06
8058.0, 5.1713e-06
8060.1, 5.1766e-06
8062.1, 5.1315e-06
8064.1, 5.0943e-06
8066.1, 5.0759e-06
8068.1, 5.1231e-06
8070.1, 4.9752e-06
8072.1, 5.0821e-06
8074.1, 5.1059e-06
8076.1, 5.2002e-06
8078.1, 5.19e-06
8080.1, 4.9884e-06
8082.1, 5.172e-06
8084.1, 5.0951e-06
8086.1, 5.1538e-06
8088.1, 5.095e-06
8090.1, 5.1475e-06
8092.1, 4.9827e-06
8094.1, 4.9798e-06
8096.1, 5.1632e-06
8098.1, 5.2427e-06
8100.1, 5.239e-06
8102.1, 5.1155e-06
8104.1, 5.1834e-06
8106.1, 5.0869e-06
8108.1, 5.1397e-06
8110.1, 5.0459e-06
8112.1, 5.1784e-06
8114.1, 5.1166e-06
8116.1, 5.0307e-06
8118.1, 5.113e-06
8120.1, 5.233e-06
8122.1, 5.2332e-06
8124.1, 5.1199e-06
8126.1, 5.1455e-06
8128.1, 5.0787e-06
8130.1, 5.2743e-06
8132.1, 5.1699e-06
8134.1, 5.1722e-06
8136.1, 5.1167e-06
8138.1, 5.175e-06
8140.1, 5.1279e-06
8142.1, 5.1772e-06
8144.1, 5.2255e-06
8146.1, 5.1458e-06
8148.1, 5.0707e-06
8150.1, 5.2125e-06
8152.1, 5.0943e-06
8154.1, 5.1771e-06
8156.1, 5.3206e-06
8158.1, 5.0843e-06
8160.2, 5.3235e-06
8162.2, 5.1462e-06
8164.2, 5.1805e-06
8166.2, 5.0634e-06
8168.2, 5.2413e-06
8170.2, 5.0929e-06
8172.2, 5.1766e-06
8174.2, 5.1872e-06
8176.2, 5.1497e-06
8178.2, 5.3213e-06
8180.2, 5.3132e-06
8182.2, 5.1363e-06
8184.2, 5.2563e-06
8186.2, 5.1772e-06
8188.2, 5.1383e-06
8190.2, 5.2286e-06
8192.2, 5.2428e-06
8194.2, 5.2591e-06
8196.2, 5.0273e-06
8198.2, 5.297e-06
8200.2, 5.2143e-06
8202.2, 5.2294e-06
8204.2, 5.3068e-06
8206.2, 5.2617e-06
8208.2, 5.0975e-06
8210.2, 5.1542e-06
8212.2, 5.1617e-06
8214.2, 5.1863e-06
8216.2, 5.2369e-06
8218.2, 5.2018e-06
8220.2, 5.2758e-06
8222.2, 5.1769e-06
8224.2, 5.1905e-06
8226.2, 5.1404e-06
8228.2, 5.2221e-06
8230.2, 5.1119e-06
8232.2, 5.2025e-06
8234.2, 5.1837e-06
8236.2, 5.2125e-06
8238.2, 5.2399e-06
8240.2, 5.19e-06
8242.2, 5.2546e-06
8244.2, 5.1469e-06
8246.2, 5.1431e-06
8248.2, 5.279e-06
8250.2, 5.1762e-06
8252.2, 5.2341e-06
8254.2, 5.2228e-06
8256.2, 5.2465e-06
8258.2, 5.2234e-06
8260.3, 5.1416e-06
8262.3, 5.144e-06
8264.3, 5.1828e-06
8266.3, 5.1758e-06
8268.3, 5.3088e-06
8270.3, 5.19e-06
8272.3, 5.1893e-06
8274.3, 5.3149e-06
8276.3, 5.2626e-06
8278.3, 5.129e-06
8280.3, 5.2131e-06
8282.3, 5.2454e-06
8284.3, 5.1901e-06
8286.3, 5.1355e-06
8288.3, 5.1586e-06
8290.3, 5.2789e-06
8292.3, 5.2515e-06
8294.3, 5.1282e-06
8296.3, 5.1779e-06
8298.3, 5.1423e-06
8300.3, 5.1882e-06
8302.3, 5.2341e-06
8304.3, 5.1838e-06
8306.3, 5.2348e-06
8308.3, 5.0838e-06
8310.3, 5.2249e-06
8312.3, 5.2289e-06
8314.3, 5.1799e-06
8316.3, 5.2337e-06
8318.3, 5.2095e-06
8320.3, 5.2859e-06
8322.3, 5.1054e-06
8324.3, 5.2514e-06
8326.3, 5.3573e-06
8328.3, 5.2253e-06
8330.3, 5.2326e-06
8332.3, 5.1556e-06
8334.3, 5.1589e-06
8336.3, 5.1463e-06
8338.3, 5.2064e-06
8340.3, 5.2067e-06
8342.3, 5.1815e-06
8344.3, 5.1469e-06
8346.3, 5.2206e-06
8348.3, 5.2647e-06
8350.3, 5.21e-06
8352.3, 5.2147e-06
8354.3, 5.2049e-06
8356.3, 5.176e-06
8358.3, 5.2176e-06
8360.4, 5.2805e-06
8362.4, 5.2212e-06
8364.4, 5.1731e-06
8366.4, 5.2112e-06
8368.4, 5.2469e-06
8370.4, 5.1555e-06
8372.4, 5.3154e-06
8374.4, 5.2491e-06
8376.4, 5.2343e-06
8378.4, 5.0906e-06
8380.4, 5.1649e-06
8382.4, 5.2297e-06
8384.4, 5.1255e-06
8386.4, 5.3056e-06
8388.4, 5.2608e-06
8390.4, 5.1306e-06
8392.4, 5.1986e-06
8394.4, 5.1922e-06
8396.4, 5.1531e-06
8398.4, 5.1938e-06
8400.4, 5.2153e-06
8402.4, 5.2126e-06
8404.4, 5.2862e-06
8406.4, 5.27e-06
8408.4, 5.2272e-06
8410.4, 5.2327e-06
8412.4, 5.2324e-06
8414.4, 5.1991e-06
8416.4, 5.1454e-06
8418.4, 5.2749e-06
8420.4, 5.2571e-06
8422.4, 5.3446e-06
8424.4, 5.2434e-06
8426.4, 5.1484e-06
8428.4, 5.1073e-06
8430.4, 5.1868e-06
8432.4, 5.24e-06
8434.4, 5.2168e-06
8436.4, 5.2513e-06
8438.4, 5.2511e-06
8440.4, 5.323e-06
8442.4, 5.251e-06
8444.4, 5.235e-06
8446.4, 5.1693e-06
8448.4, 5.1952e-06
8450.4, 5.2137e-06
8452.4, 5.3294e-06
8454.4, 5.2997e-06
8456.4, 5.1407e-06
8458.4, 5.1243e-06
8460.5, 5.2684e-06
8462.5, 5.216e-06
8464.5, 5.1751e-06
8466.5, 5.2083e-06
8468.5, 5.1494e-06
8470.5, 5.2023e-06
8472.5, 5.2432e-06
8474.5, 5.2073e-06
8476.5, 5.2236e-06
8478.5, 4.9972e-06
8480.5, 5.2143e-06
8482.5, 5.2813e-06
8484.5, 5.2022e-06
8486.5, 5.2148e-06
8488.5, 5.2298e-06
8490.5, 5.2701e-06
8492.5, 5.3025e-06
8494.5, 5.2188e-06
8496.5, 5.1452e-06
8498.5, 5.2152e-06
8500.5, 5.2723e-06
8502.5, 5.1771e-06
8504.5, 5.1899e-06
8506.5, 5.1603e-06
8508.5, 5.1344e-06
8510.5, 5.2524e-06
8512.5, 5.207e-06
8514.5, 5.2024e-06
8516.5, 5.1986e-06
8518.5, 5.2982e-06
8520.5, 5.1762e-06
8522.5, 5.2741e-06
8524.5, 5.3577e-06
8526.5, 5.2596e-06
8528.5, 5.1338e-06
8530.5, 5.2246e-06
8532.5, 5.1738e-06
8534.5, 5.1561e-06
8536.5, 5.1819e-06
8538.5, 5.0783e-06
8540.5, 5.2439e-06
8542.5, 5.1654e-06
8544.5, 5.3161e-06
8546.5, 5.2501e-06
8548.5, 5.1951e-06
8550.5, 5.2118e-06
8552.5, 5.3494e-06
8554.5, 5.2619e-06
8556.5, 5.2788e-06
8558.5, 5.2593e-06
8560.6, 5.1935e-06
8562.6, 5.3334e-06
8564.6, 5.3127e-06
8566.6, 5.2576e-06
8568.6, 5.2542e-06
8570.6, 5.2738e-06
8572.6, 5.1941e-06
8574.6, 5.3419e-06
8576.6, 5.2724e-06
8578.6, 5.2451e-06
8580.6, 5.179e-06
8582.6, 5.2302e-06
8584.6, 5.1935e-06
8586.6, 5.1851e-06
8588.6, 5.2617e-06
8590.6, 5.2282e-06
8592.6, 5.2835e-06
8594.6, 5.2748e-06
8596.6, 5.2193e-06
8598.6, 5.2431e-06
8600.6, 5.2307e-06
8602.6, 5.2281e-06
8604.6, 5.2498e-06
8606.6, 5.2475e-06
8608.6, 5.2023e-06
8610.6, 5.18e-06
8612.6, 5.1924e-06
8614.6, 5.3391e-06
8616.6, 5.2737e-06
8618.6, 5.2641e-06
8620.6, 5.2322e-06
8622.6, 5.3577e-06
8624.6, 5.245e-06
8626.6, 5.2774e-06
8628.6, 5.319e-06
8630.6, 5.1497e-06
8632.6, 5.2397e-06
8634.6, 5.1472e-06
8636.6, 5.2652e-06
8638.6, 5.2677e-06
8640.6, 5.2392e-06
8642.6, 5.2353e-06
8644.6, 5.3412e-06
8646.6, 5.1636e-06
8648.6, 5.2615e-06
8650.6, 5.1704e-06
8652.6, 5.2383e-06
8654.6, 5.1059e-06
8656.6, 5.2637e-06
8658.6, 5.3211e-06
8660.7, 5.2781e-06
8662.7, 5.301e-06
8664.7, 5.2689e-06
8666.7, 5.2557e-06
8668.7, 5.3035e-06
8670.7, 5.2602e-06
8672.7, 5.1533e-06
8674.7, 5.3041e-06
8676.7, 5.2748e-06
8678.7, 5.2055e-06
8680.7, 5.2348e-06
8682.7, 5.1011e-06
8684.7, 5.2589e-06
8686.7, 5.2148e-06
8688.7, 5.241e-06
8690.7, 5.1788e-06
8692.7, 5.2058e-06
8694.7, 5.1612e-06
8696.7, 5.2438e-06
8698.7, 5.3253e-06
8700.7, 5.2879e-06
8702.7, 5.2173e-06
8704.7, 5.2089e-06
8706.7, 5.2233e-06
8708.7, 5.1173e-06
8710.7, 5.141e-06
8712.7, 5.3011e-06
8714.7, 5.2188e-06
8716.7, 5.2739e-06
8718.7, 5.245e-06
8720.7, 5.2103e-06
8722.7, 5.2095e-06
8724.7, 5.148e-06
8726.7, 5.1181e-06
8728.7, 5.351e-06
8730.7, 5.213e-06
8732.7, 5.2327e-06
8734.7, 5.2485e-06
8736.7, 5.1752e-06
8738.7, 5.2012e-06
8740.7, 5.1877e-06
8742.7, 5.1492e-06
8744.7, 5.2089e-06
8746.7, 5.2318e-06
8748.7, 5.3565e-06
8750.7, 5.2464e-06
8752.7, 5.3112e-06
8754.7, 5.3141e-06
8756.7, 5.0985e-06
8758.7, 5.36e-06
8760.8, 5.2035e-06
8762.8, 5.2106e-06
8764.8, 5.1964e-06
8766.8, 5.207e-06
8768.8, 5.2464e-06
8770.8, 5.2912e-06
8772.8, 5.2556e-06
8774.8, 5.2374e-06
8776.8, 5.3489e-06
8778.8, 5.2447e-06
8780.8, 5.2582e-06
8782.8, 5.176e-06
8784.8, 5.1882e-06
8786.8, 5.3522e-06
8788.8, 5.3265e-06
8790.8, 5.2218e-06
8792.8, 5.1891e-06
8794.8, 5.3062e-06
8796.8, 5.165e-06
8798.8, 5.2908e-06
8800.8, 5.198e-06
8802.8, 5.2814e-06
8804.8, 5.4012e-06
8806.8, 5.2829e-06
8808.8, 5.2178e-06
8810.8, 5.1669e-06
8812.8, 5.295e-06
8814.8, 5.2667e-06
8816.8, 5.142e-06
8818.8, 5.2901e-06
8820.8, 5.2597e-06
8822.8, 5.2513e-06
8824.8, 5.2903e-06
8826.8, 5.2653e-06
8828.8, 5.2911e-06
8830.8, 5.2496e-06
8832.8, 5.1677e-06
8834.8, 5.2841e-06
8836.8, 5.2594e-06
8838.8, 5.2757e-06
8840.8, 5.332e-06
8842.8, 5.2506e-06
8844.8, 5.1982e-06
8846.8, 5.2251e-06
8848.8, 5.2709e-06
8850.8, 5.3015e-06
8852.8, 5.3097e-06
8854.8, 5.2906e-06
8856.8, 5.2826e-06
8858.8, 5.2873e-06
8860.9, 5.2106e-06
8862.9, 5.2738e-06
8864.9, 5.2746e-06
8866.9, 5.186e-06
8868.9, 5.2229e-06
8870.9, 5.2591e-06
8872.9, 5.2671e-06
8874.9, 5.2519e-06
8876.9, 5.2817e-06
8878.9, 5.3503e-06
8880.9, 5.2864e-06
8882.9, 5.2676e-06
8884.9, 5.1937e-06
8886.9, 5.3055e-06
8888.9, 5.2264e-06
8890.9, 5.2801e-06
8892.9, 5.2959e-06
8894.9, 5.3202e-06
8896.9, 5.2632e-06
8898.9, 5.3482e-06
8900.9, 5.3213e-06
8902.9, 5.2331e-06
8904.9, 5.3304e-06
8906.9, 5.1568e-06
8908.9, 5.1535e-06
8910.9, 5.1901e-06
8912.9, 5.2755e-06
8914.9, 5.2578e-06
8916.9, 5.3104e-06
8918.9, 5.3433e-06
8920.9, 5.2583e-06
8922.9, 5.2795e-06
8924.9, 5.1499e-06
8926.9, 5.2156e-06
8928.9, 5.1729e-06
8930.9, 5.2298e-06
8932.9, 5.2691e-06
8934.9, 5.244e-06
8936.9, 5.3226e-06
8938.9, 5.2845e-06
8940.9, 5.2239e-06
8942.9, 5.2719e-06
8944.9, 5.2087e-06
8946.9, 5.232e-06
8948.9, 5.2732e-06
8950.9, 5.2231e-06
8952.9, 5.2044e-06
8954.9, 5.1246e-06
8956.9, 5.1941e-06
8958.9, 5.1659e-06
8961.0, 5.3302e-06
8963.0, 5.232e-06
8965.0, 5.1672e-06
8967.0, 5.2114e-06
8969.0, 2.5427e-06
8971.0, -3.397e-08
8973.0, -3.417e-08
8975.0, -3.223e-08
8977.0, -3.66e-08
8979.0, -3.293e-08
8981.0, -3.416e-08
8983.0, -3.525e-08
8985.0, -3.613e-08
8987.0, -3.8e-08
8989.0, -3.768e-08
8991.0, -3.881e-08
8993.0, -3.738e-08
8995.0, -4.005e-08
8997.0, -3.919e-08
8999.0, -3.684e-08
9001.0, -3.81e-08
9003.0, -4.039e-08
9005.0, -3.804e-08
9007.0, -3.892e-08
9009.0, -3.8e-08
9011.0, -3.652e-08
9013.0, -3.784e-08
9015.0, -3.843e-08
9017.0, -3.683e-08
9019.0, -3.293e-08
9021.0, -3.508e-08
9023.0, -3.065e-08
9025.0, -3.309e-08
9027.0, -3.408e-08
9029.0, -3.538e-08
9031.0, -3.633e-08
9033.0, -3.809e-08
9035.0, -3.362e-08
9037.0, -3.638e-08
9039.0, -3.78e-08
9041.0, -3.75e-08
9043.0, -3.626e-08
9045.0, -3.707e-08
9047.0, -3.922e-08
9049.0, -3.775e-08
9051.0, -4.105e-08
9053.0, -3.835e-08
9055.0, -3.88e-08
9057.0, -3.791e-08
9059.0, -3.526e-08
9061.1, -3.667e-08
9063.1, -3.368e-08
9065.1, -3.604e-08
9067.1, -3.713e-08
9069.1, -3.849e-08
9071.1, -3.734e-08
9073.1, -3.601e-08
9075.1, -3.246e-08
9077.1, -3.445e-08
9079.1, -3.409e-08
9081.1, -3.593e-08
9083.1, -3.326e-08
9085.1, -3.527e-08
9087.1, -3.3e-08
9089.1, -3.758e-08
9091.1, -3.45e-08
9093.1, -3.435e-08
9095.1, -3.552e-08
9097.1, -3.79e-08
9099.1, -3.49e-08
9101.1, -3.226e-08
9103.1, -3.441e-08
9105.1, -3.686e-08
9107.1, -3.907e-08
9109.1, -3.775e-08
9111.1, -3.652e-08
9113.1, -3.813e-08
9115.1, -3.76e-08
9117.1, -3.658e-08
9119.1, -3.462e-08
9121.1, -3.391e-08
9123.1, -3.422e-08
9125.1, -3.805e-08
9127.1, -3.865e-08
9129.1, -3.38e-08
9131.1, -3.375e-08
9133.1, -3.644e-08
9135.1, -3.47e-08
9137.1, -3.364e-08
9139.1, -3.123e-08
9141.1, -3.055e-08
9143.1, -3.154e-08
9145.1, -3.382e-08
9147.1, -3.472e-08
9149.1, -3.133e-08
9151.1, -3.124e-08
9153.1, -3.356e-08
9155.1, -3.578e-08
9157.1, -3.1e-08
9159.1, -3.609e-08
9161.2, -3.249e-08
9163.2, -3.043e-08
9165.2, -3.165e-08
9167.2, -3.082e-08
9169.2, -3.047e-08
9171.2, -2.986e-08
9173.2, -3.133e-08
9175.2, -3.203e-08
9177.2, -3.41e-08
9179.2, -3.208e-08
9181.2, -3.128e-08
9183.2, -2.945e-08
9185.2, -3.3e-08
9187.2, -3.433e-08
9189.2, -3.711e-08
9191.2, -3.172e-08
9193.2, -3.462e-08
9195.2, -3.463e-08
9197.2, -3.738e-08
9199.2, -3.43e-08
9201.2, -3.533e-08
9203.2, -3.63e-08
9205.2, -3.717e-08
9207.2, -3.719e-08
9209.2, -3.54e-08
9211.2, -3.555e-08
9213.2, -3.584e-08
9215.2, -3.263e-08
9217.2, -3.732e-08
9219.2, -3.469e-08
9221.2, -3.408e-08
9223.2, -3.638e-08
9225.2, -3.716e-08
9227.2, -3.464e-08
9229.2, -3.84e-08
9231.2, -3.632e-08
9233.2, -3.877e-08
9235.2, -3.696e-08
9237.2, -3.478e-08
9239.2, -3.462e-08
9241.2, -3.436e-08
9243.2, -3.383e-08
9245.2, -3.201e-08
9247.2, -3.419e-08
9249.2, -3.575e-08
9251.2, -3.549e-08
9253.2, -2.925e-08
9255.2, -3.062e-08
9257.2, -2.88e-08
9259.2, -2.917e-08
9261.3, -2.925e-08
9263.3, -2.397e-08
9265.3, -2.584e-08
9267.3, -2.958e-08
9269.3, -3.007e-08
9271.3, -3.28e-08
9273.3, -3.179e-08
9275.3, -3.182e-08
9277.3, -2.995e-08
9279.3, -3.192e-08
9281.3, -3.319e-08
9283.3, -3.04e-08
9285.3, -3.325e-08
9287.3, -3.159e-08
9289.3, -3.079e-08
9291.3, -3.107e-08
9293.3, -3.112e-08
9295.3, -3.254e-08
9297.3, -3.255e-08
9299.3, -3.042e-08
9301.3, -2.976e-08
9303.3, -2.908e-08
9305.3, -2.848e-08
9307.3, -3.327e-08
9309.3, -3.544e-08
9311.3, -3.115e-08
9313.3, -3.348e-08
9315.3, -3.577e-08
9317.3, -3.645e-08
9319.3, -3.43e-08
9321.3, -3.434e-08
9323.3, -3.085e-08
9325.3, -3.316e-08
9327.3, -2.981e-08
9329.3, -3.218e-08
9331.3, -3.217e-08
9333.3, -3.05e-08
9335.3, -3.13e-08
9337.3, -2.847e-08
9339.3, -2.832e-08
9341.3, -3.635e-08
9343.3, -3.435e-08
9345.3, -3.19e-08
9347.3, -2.914e-08
9349.3, -3.276e-08
9351.3, -3.013e-08
9353.3, -3.132e-08
9355.3, -3.097e-08
9357.3, -2.808e-08
9359.3, -2.755e-08
9361.4, -2.827e-08
9363.4, -3.383e-08
9365.4, -3.039e-08
9367.4, -2.898e-08
9369.4, -3.638e-08
9371.4, -3.278e-08
9373.4, -3.214e-08
9375.4, -3.536e-08
9377.4, -3.482e-08
9379.4, -3.693e-08
9381.4, -3.317e-08
9383.4, -3.304e-08
9385.4, -3.166e-08
9387.4, -3.214e-08
9389.4, -3.262e-08
9391.4, -3.314e-08
9393.4, -3.233e-08
9395.4, -3.345e-08
9397.4, -3.604e-08
9399.4, -3.343e-08
9401.4, -3.372e-08
9403.4, -3.553e-08
9405.4, -3.16e-08
9407.4, -3.327e-08
9409.4, -3.321e-08
9411.4, -3.195e-08
9413.4, -3.312e-08
9415.4, -3.246e-08
9417.4, -3.106e-08
9419.4, -3.294e-08
9421.4, -3.515e-08
9423.4, -3.442e-08
9425.4, -3.433e-08
9427.4, -3.256e-08
9429.4, -3.113e-08
9431.4, -3.288e-08
9433.4, -3.292e-08
9435.4, -3.675e-08
9437.4, -3.963e-08
9439.4, -3.429e-08
9441.4, -3.387e-08
9443.4, -3.049e-08
9445.4, -3.356e-08
9447.4, -3.649e-08
9449.4, -3.687e-08
9451.4, -3.286e-08
9453.4, -3.285e-08
9455.4, -2.937e-08
9457.4, -3.242e-08
9459.4, -3.679e-08
9461.5, -3.373e-08
9463.5, -3.494e-08
9465.5, -3.408e-08
9467.5, -2.963e-08
9469.5, -3.268e-08
9471.5, -3.153e-08
9473.5, -3.456e-08
9475.5, -3.639e-08
9477.5, -3.428e-08
9479.5, -3.482e-08
9481.5, -3.654e-08
9483.5, -3.904e-08
9485.5, -3.658e-08
9487.5, -3.832e-08
9489.5, -3.416e-08
9491.5, -3.613e-08
9493.5, -3.427e-08
9495.5, -4.094e-08
9497.5, -3.677e-08
9499.5, -4.051e-08
9501.5, -3.859e-08
9503.5, -3.63e-08
9505.5, -3.689e-08
9507.5, -3.681e-08
9509.5, -3.807e-08
9511.5, -3.798e-08
9513.5, -3.582e-08
9515.5, -3.781e-08
9517.5, -3.969e-08
9519.5, -3.849e-08
9521.5, -3.782e-08
9523.5, -3.536e-08
9525.5, -3.3e-08
9527.5, -3.599e-08
9529.5, -3.737e-08
9531.5, -3.44e-08
9533.5, -3.568e-08
9535.5, -3.547e-08
9537.5, -3.735e-08
9539.5, -3.425e-08
9541.5, -3.636e-08
9543.5, -3.734e-08
9545.5, -3.547e-08
9547.5, -3.605e-08
9549.5, -3.591e-08
9551.5, -3.152e-08
9553.5, -3.638e-08
9555.5, -3.934e-08
9557.5, -3.597e-08
9559.5, -3.846e-08
9561.6, -3.988e-08
9563.6, -3.676e-08
9565.6, -3.77e-08
9567.6, -3.595e-08
9569.6, -3.841e-08
9571.6, -4.091e-08
9573.6, -4.041e-08
9575.6, -4.112e-08
9577.6, -3.906e-08
9579.6, -3.592e-08
9581.6, -3.927e-08
9583.6, -3.729e-08
9585.6, -3.806e-08
9587.6, -3.668e-08
9589.6, -3.731e-08
9591.6, -4.118e-08
9593.6, -3.742e-08
9595.6, -3.618e-08
9597.6, -3.867e-08
9599.6, -3.634e-08
9601.6, -3.558e-08
9603.6, -3.814e-08
9605.6, -3.993e-08
9607.6, -3.927e-08
9609.6, -3.884e-08
9611.6, -3.996e-08
9613.6, -3.718e-08
9615.6, -3.84e-08
9617.6, -3.604e-08
9619.6, -3.742e-08
9621.6, -3.55e-08
9623.6, -3.733e-08
9625.6, -3.915e-08
9627.6, -3.974e-08
9629.6, -3.844e-08
9631.6, -3.391e-08
9633.6, -3.664e-08
9635.6, -3.783e-08
9637.6, -3.499e-08
9639.6, -3.344e-08
9641.6, -3.665e-08
9643.6, -3.297e-08
9645.6, -3.89e-08
9647.6, -3.704e-08
9649.6, -3.618e-08
9651.6, -3.653e-08
9653.6, -3.465e-08
9655.6, -3.288e-08
9657.6, -3.694e-08
9659.6, -3.615e-08
9661.7, -3.723e-08
9663.7, -3.56e-08
9665.7, -3.953e-08
9667.7, -3.808e-08
9669.7, -4.075e-08
9671.7, -3.925e-08
9673.7, -4.044e-08
9675.7, -3.378e-08
9677.7, -3.57e-08
9679.7, -3.702e-08
9681.7, -3.87e-08
9683.7, -3.941e-08
9685.7, -3.875e-08
9687.7, -4.37e-08
9689.7, -4.132e-08
9691.7, -4.114e-08
9693.7, -3.709e-08
9695.7, -4.149e-08
9697.7, -4.351e-08
9699.7, -4.054e-08
9701.7, -4.275e-08
9703.7, -4.18e-08
9705.7, -4.106e-08
9707.7, -3.759e-08
9709.7, -4.161e-08
9711.7, -4.019e-08
9713.7, -4.061e-08
9715.7, -3.618e-08
9717.7, -3.817e-08
9719.7, -3.553e-08
9721.7, -3.564e-08
9723.7, -3.842e-08
9725.7, -3.556e-08
9727.7, -3.544e-08
9729.7, -3.739e-08
9731.7, -3.352e-08
9733.7, -3.564e-08
9735.7, -3.624e-08
9737.7, -3.686e-08
9739.7, -3.454e-08
9741.7, -3.345e-08
9743.7, -3.329e-08
9745.7, -3.523e-08
9747.7, -3.251e-08
9749.7, -3.364e-08
9751.7, -3.352e-08
9753.7, -3.688e-08
9755.7, -3.694e-08
9757.7, -3.597e-08
9759.7, -3.614e-08
9761.8, -3.745e-08
9763.8, -3.471e-08
9765.8, -3.815e-08
9767.8, -3.438e-08
9769.8, -3.41e-08
9771.8, -3.508e-08
9773.8, -4.055e-08
9775.8, -3.89e-08
9777.8, -3.7e-08
9779.8, -3.445e-08
9781.8, -3.916e-08
9783.8, -4.019e-08
9785.8, -4.287e-08
9787.8, -3.861e-08
9789.8, -3.643e-08
9791.8, -3.748e-08
9793.8, -3.575e-08
9795.8, -3.733e-08
9797.8, -3.822e-08
9799.8, -3.33e-08
9801.8, -3.743e-08
9803.8, -3.475e-08
9805.8, -3.946e-08
9807.8, -3.909e-08
9809.8, -3.828e-08
9811.8, -3.959e-08
9813.8, -3.929e-08
9815.8, -3.826e-08
9817.8, -3.998e-08
9819.8, -4.018e-08
9821.8, -3.523e-08
9823.8, -3.929e-08
9825.8, -3.935e-08
9827.8, -3.843e-08
9829.8, -4.228e-08
9831.8, -3.811e-08
9833.8, -3.382e-08
9835.8, -3.813e-08
9837.8, -4.132e-08
9839.8, -4.175e-08
9841.8, -3.869e-08
9843.8, -4.159e-08
9845.8, -3.878e-08
9847.8, -4.048e-08
9849.8, -3.977e-08
9851.8, -3.591e-08
9853.8, -3.83e-08
9855.8, -3.772e-08
9857.8, -3.74e-08
9859.8, -3.959e-08
9861.9, -4.144e-08
9863.9, -3.842e-08
9865.9, -3.326e-08
9867.9, -3.496e-08
9869.9, -3.823e-08
9871.9, -3.58e-08
9873.9, -3.563e-08
9875.9, -3.813e-08
9877.9, -3.471e-08
9879.9, -3.524e-08
9881.9, -3.892e-08
9883.9, -3.592e-08
9885.9, -3.978e-08
9887.9, -4.067e-08
9889.9, -3.743e-08
9891.9, -3.554e-08
9893.9, -3.69e-08
9895.9, -3.74e-08
9897.9, -3.543e-08
9899.9, -3.342e-08
9901.9, -3.294e-08
9903.9, -3.437e-08
9905.9, -3.645e-08
9907.9, -3.962e-08
9909.9, -3.673e-08
9911.9, -3.63e-08
9913.9, -3.804e-08
9915.9, -3.611e-08
9917.9, -3.52e-08
9919.9, -3.714e-08
9921.9, -3.19e-08
9923.9, -3.306e-08
9925.9, -3.338e-08
9927.9, -3.561e-08
9929.9, -3.238e-08
9931.9, -3.164e-08
9933.9, -3.359e-08
9935.9, -3.518e-08
9937.9, -3.336e-08
9939.9, -3.84e-08
9941.9, -3.709e-08
9943.9, -3.61e-08
9945.9, -3.395e-08
9947.9, -4.017e-08
9949.9, -3.818e-08
9951.9, -3.873e-08
9953.9, -3.901e-08
9955.9, -3.899e-08
9957.9, -3.732e-08
9959.9, -3.538e-08
9962.0, -3.908e-08
9964.0, -3.914e-08
9966.0, -3.72e-08
9968.0, -3.986e-08
9970.0, -3.791e-08
9972.0, -3.874e-08
9974.0, -3.495e-08
9976.0, -3.487e-08
9978.0, -3.6e-08
9980.0, -3.815e-08
9982.0, -3.534e-08
9984.0, -3.96e-08
9986.0, -3.923e-08
9988.0, -3.84e-08
9990.0, -3.655e-08
9992.0, -3.847e-08
9994.0, -3.844e-08
9996.0, -3.75e-08
9998.0, -4.009e-08
10000.0, -3.697e-08
10002.0, -3.596e-08
10004.0, -4.043e-08
10006.0, 2.5836e-06
10008.0, 4.9328e-06
10010.0, 4.9054e-06
10012.0, 5.0428e-06
10014.0, 5.0379e-06
10016.0, 5.1557e-06
10018.0, 5.0341e-06
10020.0, 4.9229e-06
10022.0, 4.9664e-06
10024.0, 4.9059e-06
10026.0, 4.9481e-06
10028.0, 5.0954e-06
10030.0, 5.1033e-06
10032.0, 5.1889e-06
10034.0, 5.1251e-06
10036.0, 5.0274e-06
10038.0, 4.9614e-06
10040.0, 5.1486e-06
10042.0, 5.1184e-06
10044.0, 5.148e-06
10046.0, 5.2139e-06
10048.0, 5.1458e-06
10050.0, 5.1896e-06
10052.0, 5.0747e-06
10054.0, 5.1849e-06
10056.0, 5.0586e-06
10058.0, 5.1158e-06
10060.0, 5.1519e-06
10062.0, 4.9087e-06
10064.0, 5.0096e-06
10066.0, 5.0165e-06
10068.0, 5.1858e-06
10070.0, 5.2475e-06
10072.0, 5.2181e-06
10074.0, 5.1015e-06
10076.0, 5.049e-06
10078.0, 5.0688e-06
10080.0, 4.9488e-06
10082.0, 5.0504e-06
10084.0, 5.2014e-06
10086.0, 5.1632e-06
10088.0, 5.1744e-06
10090.0, 5.0832e-06
10092.0, 5.1723e-06
10094.0, 5.0346e-06
10096.0, 4.9229e-06
10098.0, 5.105e-06
10100.0, 5.1133e-06
10102.0, 5.0665e-06
10104.0, 5.0594e-06
10106.0, 5.1823e-06
10108.0, 5.2907e-06
10110.0, 5.147e-06
10112.0, 5.1638e-06
10114.0, 5.0496e-06
10116.0, 5.1529e-06
10118.0, 5.2354e-06
10120.0, 5.0822e-06
10122.0, 5.163e-06
10124.0, 5.2458e-06
10126.0, 5.155e-06
10128.0, 5.2237e-06
10130.0, 5.2459e-06
10132.0, 4.9888e-06
10134.0, 5.075e-06
10136.0, 5.1252e-06
10138.0, 5.1405e-06
10140.0, 5.1476e-06
10142.0, 5.2977e-06
10144.0, 5.0572e-06
10146.0, 5.2316e-06
10148.0, 4.963e-06
10150.0, 5.1269e-06
10152.0, 5.2154e-06
10154.0, 5.0551e-06
10156.0, 5.2404e-06
10158.0, 5.1237e-06
10160.0, 5.1615e-06
10162.0, 5.1218e-06
10164.0, 5.1962e-06
10166.0, 5.2057e-06
10168.0, 5.1892e-06
10170.0, 5.0704e-06
10172.0, 5.0977e-06
10174.0, 5.2066e-06
10176.0, 5.1934e-06
10178.0, 5.0827e-06
10180.0, 5.0958e-06
10182.0, 5.1359e-06
10184.0, 5.2954e-06
10186.0, 5.2996e-06
10188.0, 5.1956e-06
10190.0, 5.1452e-06
10192.0, 5.0988e-06
10194.0, 5.2198e-06
10196.0, 5.2194e-06
10198.0, 5.1567e-06
10200.0, 5.1263e-06
10202.0, 5.1765e-06
10204.0, 5.1428e-06
10206.0, 5.0617e-06
10208.0, 5.1147e-06
10210.0, 5.1451e-06
10212.0, 5.2417e-06
10214.0, 5.1186e-06
10216.0, 5.1972e-06
10218.0, 5.132e-06
10220.0, 5.1943e-06
10222.0, 5.246e-06
10224.0, 5.185e-06
10226.0, 5.2357e-06
10228.0, 5.0727e-06
10230.0, 5.1557e-06
10232.0, 5.1128e-06
10234.0, 5.179e-06
10236.0, 5.2083e-06
10238.0, 5.2023e-06
10240.0, 5.0674e-06
10242.0, 5.1789e-06
10244.0, 5.1322e-06
10246.0, 5.3255e-06
10248.0, 5.2289e-06
10250.0, 5.0911e-06
10252.0, 5.2727e-06
10254.0, 5.1786e-06
10256.0, 5.2683e-06
10258.0, 5.0588e-06
10260.0, 5.1962e-06
10262.0, 5.1797e-06
10264.0, 5.1483e-06
10266.0, 5.2449e-06
10268.0, 5.2519e-06
10270.0, 5.1818e-06
10272.0, 5.1311e-06
10274.0, 5.1803e-06
10276.0, 5.3361e-06
10278.0, 5.2163e-06
10280.0, 5.047e-06
10282.0, 5.2084e-06
10284.0, 5.1671e-06
10286.0, 5.1874e-06
10288.0, 5.1132e-06
10290.0, 5.2025e-06
10292.0, 5.2302e-06
10294.0, 5.2506e-06
10296.0, 5.1166e-06
10298.0, 5.0974e-06
10300.0, 5.2168e-06
10302.0, 5.1688e-06
10304.0, 5.2295e-06
10306.0, 5.3106e-06
10308.0, 5.2086e-06
10310.0, 5.1823e-06
10312.0, 5.2684e-06
10314.0, 5.2388e-06
10316.0, 5.1896e-06
10318.0, 5.2572e-06
10320.0, 5.1808e-06
10322.0, 5.2174e-06
10324.0, 5.1888e-06
10326.0, 5.1947e-06
10328.0, 5.207e-06
10330.0, 5.2106e-06
10332.0, 5.0963e-06
10334.0, 5.2599e-06
10336.0, 5.2072e-06
10338.0, 5.2725e-06
10340.0, 5.2057e-06
10342.0, 5.2106e-06
10344.0, 5.2156e-06
10346.0, 5.1217e-06
10348.0, 5.2437e-06
10350.0, 5.1186e-06
10352.0, 5.1789e-06
10354.0, 5.2797e-06
10356.0, 5.1746e-06
10358.0, 5.1796e-06
10360.0, 5.1867e-06
10362.0, 5.1368e-06
10364.0, 5.107e-06
10366.0, 5.2613e-06
10368.0, 5.1153e-06
10370.0, 5.181e-06
10372.0, 5.2267e-06
10374.0, 5.2171e-06
10376.0, 5.1706e-06
10378.0, 5.3105e-06
10380.0, 5.2563e-06
10382.0, 5.2487e-06
10384.0, 5.2608e-06
10386.0, 5.188e-06
10388.0, 5.2105e-06
10390.0, 5.1651e-06
10392.0, 5.2047e-06
10394.0, 5.1316e-06
10396.0, 5.3246e-06
10398.0, 5.1808e-06
10400.0, 5.2118e-06
10402.0, 5.1495e-06
10404.0, 5.3129e-06
10406.0, 5.0543e-06
10408.0, 5.1863e-06
10410.0, 5.1986e-06
10412.0, 5.1344e-06
10414.0, 5.1245e-06
10416.0, 5.1665e-06
10418.0, 5.2412e-06
10420.0, 5.1544e-06
10422.0, 5.2867e-06
10424.0, 5.2227e-06
10426.0, 5.194e-06
10428.0, 5.1541e-06
10430.0, 5.245e-06
10432.0, 5.2209e-06
10434.0, 5.2661e-06
10436.0, 5.3683e-06
10438.0, 5.2955e-06
10440.0, 5.2284e-06
10442.0, 5.2028e-06
10444.0, 5.2813e-06
10446.0, 5.2132e-06
10448.0, 5.1219e-06
10450.0, 5.1418e-06
10452.0, 5.2243e-06
10454.0, 5.2607e-06
10456.0, 5.2216e-06
10458.0, 5.2163e-06
10460.0, 5.1248e-06
10462.0, 5.1748e-06
10464.0, 5.2291e-06
10466.0, 5.2109e-06
10468.0, 5.0943e-06
10470.0, 5.2711e-06
10472.0, 5.2408e-06
10474.0, 5.2422e-06
10476.0, 5.2644e-06
10478.0, 5.175e-06
10480.0, 5.0732e-06
10482.0, 5.1677e-06
10484.0, 5.1856e-06
10486.0, 5.2416e-06
10488.0, 5.1179e-06
10490.0, 5.2663e-06
10492.0, 5.1771e-06
10494.0, 5.1895e-06
10496.0, 5.326e-06
10498.0, 5.2687e-06
10500.0, 5.3232e-06
10502.0, 5.2732e-06
10504.0, 5.2807e-06
10506.0, 5.2226e-06
10508.0, 5.2544e-06
10510.0, 5.2115e-06
10513.0, 5.3188e-06
10515.0, 5.2253e-06
10517.0, 5.2818e-06
10519.0, 5.265e-06
10521.0, 5.2766e-06
10523.0, 5.1538e-06
10525.0, 5.2069e-06
10527.0, 5.2149e-06
10529.0, 5.3149e-06
10531.0, 5.2172e-06
10533.0, 5.3038e-06
10535.0, 5.1568e-06
10537.0, 5.2519e-06
10539.0, 5.2075e-06
10541.0, 5.1904e-06
10543.0, 5.1948e-06
10545.0, 5.1997e-06
10547.0, 5.1396e-06
10549.0, 5.2351e-06
10551.0, 5.2362e-06
10553.0, 5.2578e-06
10555.0, 5.2617e-06
10557.0, 5.2883e-06
10559.0, 5.175e-06
10561.0, 5.2623e-06
10563.0, 5.2666e-06
10565.0, 5.1212e-06
10567.0, 5.1748e-06
10569.0, 5.1997e-06
10571.0, 5.3048e-06
10573.0, 5.1473e-06
10575.0, 5.264e-06
10577.0, 5.3093e-06
10579.0, 5.238e-06
10581.0, 5.2122e-06
10583.0, 5.2076e-06
10585.0, 5.1817e-06
10587.0, 5.173e-06
10589.0, 5.3497e-06
10591.0, 5.2435e-06
10593.0, 5.2041e-06
10595.0, 5.2891e-06
10597.0, 5.2243e-06
10599.0, 5.2851e-06
10601.0, 5.2603e-06
10603.0, 5.2759e-06
10605.0, 5.3259e-06
10607.0, 5.1473e-06
10609.0, 5.2574e-06
10611.0, 5.2607e-06
10613.0, 5.1894e-06
10615.0, 5.3104e-06
10617.0, 5.2452e-06
10619.0, 5.1789e-06
10621.0, 5.2035e-06
10623.0, 5.3119e-06
10625.0, 5.2917e-06
10627.0, 5.1619e-06
10629.0, 5.187e-06
10631.0, 5.2302e-06
10633.0, 5.17e-06
10635.0, 5.3687e-06
10637.0, 5.2337e-06
10639.0, 5.2223e-06
10641.0, 5.2206e-06
10643.0, 5.1312e-06
10645.0, 5.2409e-06
10647.0, 5.3143e-06
10649.0, 5.2249e-06
10651.0, 5.2309e-06
10653.0, 5.2881e-06
10655.0, 5.2712e-06
10657.0, 5.1763e-06
10659.0, 5.2429e-06
10661.0, 5.1947e-06
10663.0, 5.2325e-06
10665.0, 5.2572e-06
10667.0, 5.2856e-06
10669.0, 5.2583e-06
10671.0, 5.256e-06
10673.0, 5.1814e-06
10675.0, 5.2708e-06
10677.0, 5.2687e-06
10679.0, 5.0827e-06
10681.0, 5.2025e-06
10683.0, 5.2229e-06
10685.0, 5.105e-06
10687.0, 5.2125e-06
10689.0, 5.289e-06
10691.0, 5.3481e-06
10693.0, 5.1474e-06
10695.0, 5.2071e-06
10697.0, 5.2405e-06
10699.0, 5.2835e-06
10701.0, 5.3142e-06
10703.0, 5.1919e-06
10705.0, 5.2168e-06
10707.0, 5.2623e-06
10709.0, 5.0361e-06
10711.0, 5.2698e-06
10713.0, 5.3373e-06
10715.0, 5.1759e-06
10717.0, 5.2737e-06
10719.0, 5.3109e-06
10721.0, 5.1944e-06
10723.0, 5.262e-06
10725.0, 5.2291e-06
10727.0, 5.3221e-06
10729.0, 5.1636e-06
10731.0, 5.199e-06
10733.0, 5.2737e-06
10735.0, 5.2908e-06
10737.0, 5.1827e-06
10739.0, 5.2178e-06
10741.0, 5.2368e-06
10743.0, 5.241e-06
10745.0, 5.3303e-06
10747.0, 5.2536e-06
10749.0, 5.2302e-06
10751.0, 5.2681e-06
10753.0, 5.2005e-06
10755.0, 5.2545e-06
10757.0, 5.1887e-06
10759.0, 5.3062e-06
10761.0, 5.1628e-06
10763.0, 5.2609e-06
10765.0, 5.2586e-06
10767.0, 5.2982e-06
10769.0, 5.2864e-06
10771.0, 5.1943e-06
10773.0, 5.2756e-06
10775.0, 5.2332e-06
10777.0, 5.2621e-06
10779.0, 5.2388e-06
10781.0, 5.2339e-06
10783.0, 5.1682e-06
10785.0, 5.2504e-06
10787.0, 5.2233e-06
10789.0, 5.2409e-06
10791.0, 5.1733e-06
10793.0, 5.2329e-06
10795.0, 5.28e-06
10797.0, 5.178e-06
10799.0, 5.1451e-06
10801.0, 5.2548e-06
10803.0, 5.2595e-06
10805.0, 5.1432e-06
10807.0, 5.3187e-06
10809.0, 5.2656e-06
10811.0, 5.218e-06
10813.0, 5.2707e-06
10815.0, 5.1956e-06
10817.0, 5.3192e-06
10819.0, 5.1696e-06
10821.0, 5.3297e-06
10823.0, 5.1615e-06
10825.0, 5.3169e-06
10827.0, 5.2554e-06
10829.0, 5.2494e-06
10831.0, 5.265e-06
10833.0, 5.2097e-06
10835.0, 5.2965e-06
10837.0, 5.1494e-06
10839.0, 5.1792e-06
10841.0, 5.2505e-06
10843.0, 5.2259e-06
10845.0, 5.1627e-06
10847.0, 5.258e-06
10849.0, 5.1695e-06
10851.0, 5.305e-06
10853.0, 5.2653e-06
10855.0, 5.3057e-06
10857.0, 5.2497e-06
10859.0, 5.3244e-06
10861.0, 5.1931e-06
10863.0, 5.3395e-06
10865.0, 5.2164e-06
10867.0, 5.2537e-06
10869.0, 5.2075e-06
10871.0, 5.185e-06
10873.0, 5.2572e-06
10875.0, 5.3282e-06
10877.0, 5.281e-06
10879.0, 5.1108e-06
10881.0, 5.2273e-06
10883.0, 5.1161e-06
10885.0, 5.2589e-06
10887.0, 5.2715e-06
10889.0, 5.248e-06
10891.0, 5.2841e-06
10893.0, 5.2519e-06
10895.0, 5.272e-06
10897.0, 5.1015e-06
10899.0, 5.3092e-06
10901.0, 5.2669e-06
10903.0, 5.3262e-06
10905.0, 5.1362e-06
10907.0, 5.217e-06
10909.0, 5.2248e-06
10911.0, 5.3094e-06
10913.0, 5.2734e-06
10915.0, 5.1665e-06
10917.0, 5.1675e-06
10919.0, 5.3195e-06
10921.0, 5.2373e-06
10923.0, 5.3222e-06
10925.0, 5.2082e-06
10927.0, 5.171e-06
10929.0, 5.2539e-06
10931.0, 5.2221e-06
10933.0, 5.2639e-06
10935.0, 5.1422e-06
10937.0, 5.1941e-06
10939.0, 5.1979e-06
10941.0, 5.2824e-06
10943.0, 5.2501e-06
10945.0, 5.2962e-06
10947.0, 5.2283e-06
10949.0, 5.1844e-06
10951.0, 5.2773e-06
10953.0, 5.2348e-06
10955.0, 5.2697e-06
10957.0, 5.1405e-06
10959.0, 5.1839e-06
10961.0, 5.2242e-06
10963.0, 5.3358e-06
10965.0, 5.2415e-06
10967.0, 5.1956e-06
10969.0, 5.3242e-06
10971.0, 5.2893e-06
10973.0, 5.2426e-06
10975.0, 5.3786e-06
10977.0, 5.1926e-06
10979.0, 5.0278e-06
10981.0, 5.3194e-06
10983.0, 5.2262e-06
10985.0, 5.2213e-06
10987.0, 5.2858e-06
10989.0, 5.1272e-06
10991.0, 5.2783e-06
10993.0, 5.2646e-06
10995.0, 5.1609e-06
10997.0, 5.2334e-06
10999.0, 5.2227e-06
11001.0, 5.2779e-06
11003.0, 5.2783e-06
11005.0, 5.2525e-06
11007.0, 2.6481e-06
11009.0, -2.709e-08
