Time sep (ms?), Current (A)
0.0, -3.805e-08
2.002, -4.075e-08
4.004, -3.876e-08
6.006, -3.659e-08
8.008, -3.645e-08
10.01, -3.565e-08
12.012, -3.763e-08
14.014, -3.671e-08
16.016, -3.286e-08
18.018, -3.499e-08
20.02, -3.452e-08
22.022, -3.341e-08
24.024, -3.776e-08
26.026, -3.328e-08
28.028, -3.452e-08
30.03, -3.687e-08
32.032, -3.539e-08
34.034, -3.629e-08
36.036, -3.835e-08
38.038, -3.735e-08
40.04, -3.949e-08
42.042, -3.668e-08
44.044, -3.864e-08
46.046, -4.24e-08
48.048, -4.012e-08
50.05, -4.123e-08
52.052, -3.99e-08
54.054, -3.696e-08
56.056, -3.837e-08
58.058, -3.869e-08
60.06, -3.525e-08
62.062, -3.451e-08
64.064, -3.422e-08
66.066, -3.662e-08
68.068, -3.531e-08
70.07, -3.444e-08
72.072, -3.333e-08
74.074, -3.204e-08
76.076, -3.702e-08
78.078, -3.646e-08
80.08, -3.969e-08
82.082, -3.537e-08
84.084, -3.283e-08
86.086, -3.873e-08
88.088, -3.851e-08
90.09, -3.778e-08
92.092, -3.883e-08
94.094, -3.697e-08
96.096, -3.4e-08
98.098, -3.664e-08
100.1, -3.762e-08
102.1, -3.974e-08
104.1, -4.046e-08
106.11, -3.899e-08
108.11, -4.01e-08
110.11, -4.627e-08
112.11, -4.152e-08
114.11, -3.662e-08
116.12, -3.638e-08
118.12, -3.636e-08
120.12, -3.78e-08
122.12, -3.232e-08
124.12, -3.561e-08
126.13, -3.465e-08
128.13, -3.863e-08
130.13, -3.727e-08
132.13, -3.994e-08
134.13, -3.533e-08
136.14, -3.949e-08
138.14, -3.656e-08
140.14, -3.458e-08
142.14, -3.491e-08
144.14, -3.561e-08
146.15, -3.716e-08
148.15, -3.361e-08
150.15, -3.919e-08
152.15, -3.647e-08
154.15, -3.679e-08
156.16, -3.772e-08
158.16, -4.072e-08
160.16, -3.842e-08
162.16, -3.819e-08
164.16, -3.911e-08
166.17, -3.748e-08
168.17, -3.741e-08
170.17, -3.725e-08
172.17, -4.402e-08
174.17, -3.909e-08
176.18, -4.005e-08
178.18, -4.008e-08
180.18, -3.938e-08
182.18, -3.958e-08
184.18, -4.003e-08
186.19, -4.084e-08
188.19, -4.284e-08
190.19, -4.066e-08
192.19, -4.628e-08
194.19, -4.21e-08
196.2, -3.999e-08
198.2, -4.034e-08
200.2, -3.675e-08
202.2, -4.194e-08
204.2, -3.717e-08
206.21, -4.087e-08
208.21, -4.303e-08
210.21, -4.212e-08
212.21, -4.094e-08
214.21, -3.661e-08
216.22, -4.056e-08
218.22, -4.507e-08
220.22, -4.073e-08
222.22, -4.464e-08
224.22, -3.871e-08
226.23, -4.521e-08
228.23, -4.032e-08
230.23, -4.124e-08
232.23, -4.128e-08
234.23, -4.031e-08
236.24, -4.084e-08
238.24, -4.153e-08
240.24, -4.069e-08
242.24, -4.1e-08
244.24, -3.956e-08
246.25, -3.747e-08
248.25, -3.975e-08
250.25, -3.552e-08
252.25, -3.999e-08
254.25, -3.855e-08
256.26, -4.072e-08
258.26, -3.827e-08
260.26, -4.027e-08
262.26, -3.838e-08
264.26, -3.831e-08
266.27, -4.081e-08
268.27, -3.867e-08
270.27, -3.592e-08
272.27, -3.527e-08
274.27, -3.933e-08
276.28, -3.587e-08
278.28, -3.598e-08
280.28, -3.339e-08
282.28, -3.2e-08
284.28, -3.429e-08
286.29, -3.608e-08
288.29, -3.319e-08
290.29, -3.739e-08
292.29, -3.564e-08
294.29, -3.747e-08
296.3, -3.507e-08
298.3, -3.79e-08
300.3, -3.497e-08
302.3, -3.478e-08
304.3, -3.873e-08
306.31, -3.643e-08
308.31, -3.35e-08
310.31, -3.863e-08
312.31, -3.42e-08
314.31, -3.249e-08
316.32, -3.403e-08
318.32, -3.505e-08
320.32, -3.57e-08
322.32, -3.203e-08
324.32, -3.727e-08
326.33, -3.792e-08
328.33, -4.19e-08
330.33, -3.855e-08
332.33, -4.064e-08
334.33, -4.18e-08
336.34, -4.122e-08
338.34, -4.235e-08
340.34, -3.978e-08
342.34, -3.275e-08
344.34, -3.713e-08
346.35, -3.806e-08
348.35, -3.848e-08
350.35, -4.144e-08
352.35, -3.59e-08
354.35, -4.095e-08
356.36, -3.727e-08
358.36, -3.636e-08
360.36, -3.918e-08
362.36, -3.963e-08
364.36, -4.002e-08
366.37, -4.033e-08
368.37, -3.778e-08
370.37, -4.088e-08
372.37, -3.931e-08
374.37, -4.084e-08
376.38, -4.108e-08
378.38, -4.02e-08
380.38, -3.85e-08
382.38, -4.247e-08
384.38, -4.102e-08
386.39, -3.855e-08
388.39, -4.075e-08
390.39, -4.046e-08
392.39, -3.843e-08
394.39, -3.816e-08
396.4, -3.962e-08
398.4, -3.854e-08
400.4, -3.566e-08
402.4, -3.541e-08
404.4, -3.644e-08
406.41, -3.541e-08
408.41, -3.475e-08
410.41, -3.957e-08
412.41, -3.843e-08
414.41, -3.804e-08
416.42, -3.704e-08
418.42, -3.847e-08
420.42, -3.855e-08
422.42, -3.667e-08
424.42, -3.72e-08
426.43, -3.898e-08
428.43, -3.599e-08
430.43, -3.855e-08
432.43, -3.848e-08
434.43, -3.88e-08
436.44, -3.845e-08
438.44, -3.819e-08
440.44, -3.696e-08
442.44, -3.648e-08
444.44, -3.425e-08
446.45, -3.466e-08
448.45, -3.539e-08
450.45, -4.162e-08
452.45, -3.74e-08
454.45, -3.818e-08
456.46, -3.77e-08
458.46, -3.81e-08
460.46, -3.76e-08
462.46, -3.451e-08
464.46, -3.8e-08
466.47, -3.79e-08
468.47, -3.608e-08
470.47, -3.714e-08
472.47, -3.475e-08
474.47, -3.757e-08
476.48, -3.781e-08
478.48, -3.682e-08
480.48, -3.863e-08
482.48, -3.862e-08
484.48, -3.238e-08
486.49, -3.723e-08
488.49, -3.963e-08
490.49, -4.074e-08
492.49, -3.872e-08
494.49, -3.944e-08
496.5, -3.944e-08
498.5, -3.793e-08
500.5, -3.792e-08
502.5, -3.559e-08
504.5, -3.338e-08
506.51, -3.589e-08
508.51, -3.482e-08
510.51, -3.321e-08
512.51, -3.463e-08
514.51, -3.562e-08
516.52, -3.435e-08
518.52, -3.79e-08
520.52, -3.676e-08
522.52, -3.869e-08
524.52, -3.666e-08
526.53, -3.664e-08
528.53, -3.773e-08
530.53, -3.281e-08
532.53, -3.492e-08
534.53, -3.584e-08
536.54, -3.557e-08
538.54, -3.854e-08
540.54, -3.768e-08
542.54, -3.514e-08
544.54, -3.493e-08
546.55, -3.317e-08
548.55, -3.279e-08
550.55, -3.616e-08
552.55, -4.124e-08
554.55, -3.767e-08
556.56, -3.976e-08
558.56, -3.944e-08
560.56, -4.05e-08
562.56, -4.148e-08
564.56, -3.842e-08
566.57, -3.527e-08
568.57, -3.618e-08
570.57, -3.873e-08
572.57, -3.641e-08
574.57, -3.657e-08
576.58, -3.754e-08
578.58, -3.771e-08
580.58, -3.52e-08
582.58, -3.473e-08
584.58, -3.586e-08
586.59, -3.483e-08
588.59, -3.703e-08
590.59, -3.87e-08
592.59, -3.835e-08
594.59, -3.485e-08
596.6, -3.592e-08
598.6, -3.235e-08
600.6, -3.167e-08
602.6, -3.329e-08
604.6, -3.212e-08
606.61, -3.591e-08
608.61, -3.488e-08
610.61, -3.82e-08
612.61, -3.794e-08
614.61, -3.952e-08
616.62, -3.721e-08
618.62, -3.797e-08
620.62, -3.519e-08
622.62, -3.606e-08
624.62, -3.686e-08
626.63, -3.73e-08
628.63, -3.443e-08
630.63, -3.474e-08
632.63, -3.761e-08
634.63, -3.619e-08
636.64, -3.637e-08
638.64, -3.583e-08
640.64, -3.541e-08
642.64, -3.58e-08
644.64, -3.525e-08
646.65, -3.668e-08
648.65, -3.515e-08
650.65, -3.737e-08
652.65, -3.556e-08
654.65, -3.449e-08
656.66, -3.494e-08
658.66, -3.58e-08
660.66, -3.27e-08
662.66, -2.939e-08
664.66, -3.314e-08
666.67, -3.288e-08
668.67, -3.609e-08
670.67, -3.668e-08
672.67, -3.557e-08
674.67, -3.835e-08
676.68, -3.463e-08
678.68, -3.732e-08
680.68, -3.545e-08
682.68, -3.652e-08
684.68, -3.421e-08
686.69, -3.543e-08
688.69, -3.623e-08
690.69, -3.407e-08
692.69, -3.804e-08
694.69, -3.536e-08
696.7, -3.624e-08
698.7, -3.668e-08
700.7, -3.529e-08
702.7, -3.452e-08
704.7, -3.117e-08
706.71, -3.561e-08
708.71, -3.589e-08
710.71, -3.4e-08
712.71, -3.38e-08
714.71, -3.473e-08
716.72, -3.489e-08
718.72, -3.394e-08
720.72, -3.072e-08
722.72, -3.26e-08
724.72, -3.751e-08
726.73, -3.563e-08
728.73, -3.617e-08
730.73, -3.874e-08
732.73, -3.645e-08
734.73, -3.854e-08
736.74, -3.733e-08
738.74, -4.118e-08
740.74, -3.479e-08
742.74, -3.402e-08
744.74, -3.32e-08
746.75, -3.714e-08
748.75, -3.356e-08
750.75, -3.99e-08
752.75, -3.359e-08
754.75, -3.301e-08
756.76, -3.519e-08
758.76, -3.792e-08
760.76, -3.469e-08
762.76, -3.668e-08
764.76, -3.658e-08
766.77, -3.462e-08
768.77, -3.602e-08
770.77, -3.785e-08
772.77, -3.784e-08
774.77, -3.555e-08
776.78, -3.548e-08
778.78, -3.452e-08
780.78, -3.451e-08
782.78, -3.159e-08
784.78, -3.564e-08
786.79, -3.564e-08
788.79, -3.514e-08
790.79, -3.393e-08
792.79, -3.263e-08
794.79, -3.087e-08
796.8, -3.203e-08
798.8, -2.846e-08
800.8, -3.139e-08
802.8, -3.25e-08
804.8, -3.661e-08
806.81, -3.494e-08
808.81, -3.499e-08
810.81, -3.361e-08
812.81, -3.281e-08
814.81, -3.213e-08
816.82, -3.179e-08
818.82, -3.127e-08
820.82, -3.455e-08
822.82, -3.546e-08
824.82, -3.628e-08
826.83, -3.115e-08
828.83, -3.162e-08
830.83, -3.488e-08
832.83, -3.68e-08
834.83, -3.194e-08
836.84, -3.707e-08
838.84, -3.421e-08
840.84, -3.711e-08
842.84, -4.116e-08
844.84, -3.681e-08
846.85, -3.915e-08
848.85, -3.899e-08
850.85, -3.658e-08
852.85, -3.937e-08
854.85, -3.96e-08
856.86, -3.642e-08
858.86, -3.746e-08
860.86, -3.517e-08
862.86, -3.918e-08
864.86, -3.638e-08
866.87, -3.676e-08
868.87, -3.688e-08
870.87, -3.707e-08
872.87, -3.467e-08
874.87, -3.375e-08
876.88, -3.381e-08
878.88, -3.542e-08
880.88, -3.635e-08
882.88, -3.815e-08
884.88, -3.472e-08
886.89, -3.608e-08
888.89, -3.491e-08
890.89, -3.32e-08
892.89, -3.732e-08
894.89, -3.44e-08
896.9, -3.351e-08
898.9, -3.264e-08
900.9, -3.537e-08
902.9, -3.357e-08
904.9, -3.521e-08
906.91, -3.294e-08
908.91, -3.485e-08
910.91, -3.556e-08
912.91, -3.413e-08
914.91, -3.34e-08
916.92, -3.098e-08
918.92, -3.516e-08
920.92, -3.463e-08
922.92, -3.094e-08
924.92, -2.962e-08
926.93, -2.792e-08
928.93, -3.631e-08
930.93, -3.554e-08
932.93, -3.619e-08
934.93, -3.586e-08
936.94, -3.436e-08
938.94, -3.166e-08
940.94, -3.51e-08
942.94, -3.001e-08
944.94, -3.496e-08
946.95, -3.541e-08
948.95, -3.386e-08
950.95, -3.58e-08
952.95, -3.461e-08
954.95, -3.711e-08
956.96, -3.718e-08
958.96, -3.74e-08
960.96, -3.611e-08
962.96, -3.719e-08
964.96, -3.399e-08
966.97, -3.58e-08
968.97, -3.514e-08
970.97, -3.723e-08
972.97, -3.786e-08
974.97, -3.451e-08
976.98, -3.131e-08
978.98, -3.466e-08
980.98, -3.921e-08
982.98, -3.792e-08
984.98, -3.265e-08
986.99, -3.695e-08
988.99, -3.564e-08
990.99, -4.008e-08
992.99, -3.712e-08
994.99, -4.021e-08
997.0, -4.048e-08
999.0, -3.884e-08
1001.0, -4.099e-08
1003.0, -4.057e-08
1005.0, -3.782e-08
1007.0, -3.716e-08
1009.0, -3.671e-08
1011.0, -3.885e-08
1013.0, -3.297e-08
1015.0, -3.517e-08
1017.0, -3.535e-08
1019.0, -3.728e-08
1021.0, -3.997e-08
1023.0, -3.41e-08
1025.0, -3.787e-08
1027.0, 2.1593e-07
1029.0, 3.8002e-07
1031.0, 4.114e-07
1033.0, 4.0679e-07
1035.0, 3.8886e-07
1037.0, 3.725e-07
1039.0, 4.0831e-07
1041.0, 4.0082e-07
1043.0, 3.9742e-07
1045.0, 3.7991e-07
1047.0, 4.3071e-07
1049.0, 4.1211e-07
1051.0, 3.8581e-07
1053.1, 4.0466e-07
1055.1, 4.3431e-07
1057.1, 4.0562e-07
1059.1, 4.0814e-07
1061.1, 4.1723e-07
1063.1, 3.8305e-07
1065.1, 4.2009e-07
1067.1, 4.0504e-07
1069.1, 4.2264e-07
1071.1, 4.3103e-07
1073.1, 4.2993e-07
1075.1, 4.0221e-07
1077.1, 3.9625e-07
1079.1, 4.5635e-07
1081.1, 3.8795e-07
1083.1, 3.9758e-07
1085.1, 4.1985e-07
1087.1, 4.1081e-07
1089.1, 3.6611e-07
1091.1, 4.3139e-07
1093.1, 3.8391e-07
1095.1, 4.1558e-07
1097.1, 3.8632e-07
1099.1, 4.4131e-07
1101.1, 4.0738e-07
1103.1, 4.3972e-07
1105.1, 3.5777e-07
1107.1, 4.4198e-07
1109.1, 3.95e-07
1111.1, 4.1829e-07
1113.1, 4.1841e-07
1115.1, 4.0403e-07
1117.1, 4.0726e-07
1119.1, 3.8992e-07
1121.1, 4.1632e-07
1123.1, 4.0285e-07
1125.1, 4.3487e-07
1127.1, 3.768e-07
1129.1, 4.3623e-07
1131.1, 3.729e-07
1133.1, 4.0011e-07
1135.1, 4.1462e-07
1137.1, 4.0881e-07
1139.1, 3.8488e-07
1141.1, 4.9888e-07
1143.1, 4.1833e-07
1145.1, 4.104e-07
1147.1, 4.3807e-07
1149.1, 4.4546e-07
1151.1, 4.0072e-07
1153.2, 4.182e-07
1155.2, 3.7891e-07
1157.2, 4.175e-07
1159.2, 3.78e-07
1161.2, 4.5668e-07
1163.2, 4.7983e-07
1165.2, 4.0551e-07
1167.2, 4.3684e-07
1169.2, 4.4642e-07
1171.2, 4.0412e-07
1173.2, 3.9474e-07
1175.2, 4.1008e-07
1177.2, 4.2296e-07
1179.2, 4.5248e-07
1181.2, 4.6321e-07
1183.2, 3.8914e-07
1185.2, 4.1276e-07
1187.2, 4.0877e-07
1189.2, 4.4113e-07
1191.2, 3.9429e-07
1193.2, 4.2856e-07
1195.2, 3.9227e-07
1197.2, 4.0513e-07
1199.2, 3.9957e-07
1201.2, 3.837e-07
1203.2, 4.1728e-07
1205.2, 4.0558e-07
1207.2, 3.9469e-07
1209.2, 4.0371e-07
1211.2, 4.1991e-07
1213.2, 4.3692e-07
1215.2, 4.2745e-07
1217.2, 4.7668e-07
1219.2, 4.2122e-07
1221.2, 4.4436e-07
1223.2, 4.0557e-07
1225.2, 4.2529e-07
1227.2, 4.7985e-07
1229.2, 4.3253e-07
1231.2, 4.5018e-07
1233.2, 4.1754e-07
1235.2, 4.5422e-07
1237.2, 3.9541e-07
1239.2, 4.0697e-07
1241.2, 4.2606e-07
1243.2, 4.3844e-07
1245.2, 3.77e-07
1247.2, 3.9236e-07
1249.2, 4.2308e-07
1251.2, 4.328e-07
1253.3, 4.237e-07
1255.3, 4.2456e-07
1257.3, 4.5486e-07
1259.3, 4.3029e-07
1261.3, 4.2821e-07
1263.3, 4.1801e-07
1265.3, 4.232e-07
1267.3, 4.155e-07
1269.3, 4.2758e-07
1271.3, 4.3722e-07
1273.3, 4.5579e-07
1275.3, 4.1411e-07
1277.3, 4.2693e-07
1279.3, 4.7252e-07
1281.3, 4.246e-07
1283.3, 3.9809e-07
1285.3, 4.1615e-07
1287.3, 4.2773e-07
1289.3, 4.1968e-07
1291.3, 4.5827e-07
1293.3, 4.0103e-07
1295.3, 4.8166e-07
1297.3, 4.2934e-07
1299.3, 4.5558e-07
1301.3, 4.2406e-07
1303.3, 3.9309e-07
1305.3, 4.4821e-07
1307.3, 4.1391e-07
1309.3, 4.3049e-07
1311.3, 4.0284e-07
1313.3, 4.3493e-07
1315.3, 4.2927e-07
1317.3, 4.3399e-07
1319.3, 4.3589e-07
1321.3, 4.1244e-07
1323.3, 4.3457e-07
1325.3, 3.9945e-07
1327.3, 4.1196e-07
1329.3, 4.3032e-07
1331.3, 4.064e-07
1333.3, 4.2534e-07
1335.3, 4.3007e-07
1337.3, 4.0865e-07
1339.3, 4.5813e-07
1341.3, 4.4631e-07
1343.3, 4.2459e-07
1345.3, 4.2801e-07
1347.3, 4.5183e-07
1349.3, 4.1499e-07
1351.3, 4.1742e-07
1353.4, 4.1823e-07
1355.4, 4.0406e-07
1357.4, 4.331e-07
1359.4, 4.2322e-07
1361.4, 4.6507e-07
1363.4, 4.2825e-07
1365.4, 3.9857e-07
1367.4, 4.2224e-07
1369.4, 4.8189e-07
1371.4, 3.8883e-07
1373.4, 4.5368e-07
1375.4, 4.6548e-07
1377.4, 4.2123e-07
1379.4, 3.8842e-07
1381.4, 4.4807e-07
1383.4, 4.5471e-07
1385.4, 4.4278e-07
1387.4, 4.38e-07
1389.4, 4.6865e-07
1391.4, 4.442e-07
1393.4, 4.1853e-07
1395.4, 3.7816e-07
1397.4, 4.0415e-07
1399.4, 4.3078e-07
1401.4, 3.7522e-07
1403.4, 4.2874e-07
1405.4, 3.8824e-07
1407.4, 4.0936e-07
1409.4, 4.5078e-07
1411.4, 4.8254e-07
1413.4, 4.0754e-07
1415.4, 3.9276e-07
1417.4, 4.2741e-07
1419.4, 4.4782e-07
1421.4, 4.4801e-07
1423.4, 3.9217e-07
1425.4, 4.1386e-07
1427.4, 4.0199e-07
1429.4, 4.6405e-07
1431.4, 4.0772e-07
1433.4, 4.5143e-07
1435.4, 4.6718e-07
1437.4, 4.4602e-07
1439.4, 4.0587e-07
1441.4, 4.3749e-07
1443.4, 4.8733e-07
1445.4, 4.5626e-07
1447.4, 4.5711e-07
1449.4, 4.2457e-07
1451.4, 3.9473e-07
1453.5, 4.0435e-07
1455.5, 4.2353e-07
1457.5, 4.3818e-07
1459.5, 4.4656e-07
1461.5, 4.5424e-07
1463.5, 4.6588e-07
1465.5, 4.1895e-07
1467.5, 4.2855e-07
1469.5, 4.2138e-07
1471.5, 3.8722e-07
1473.5, 4.0665e-07
1475.5, 4.2133e-07
1477.5, 4.3017e-07
1479.5, 4.487e-07
1481.5, 4.3425e-07
1483.5, 4.4913e-07
1485.5, 4.2309e-07
1487.5, 4.0153e-07
1489.5, 4.4074e-07
1491.5, 4.5475e-07
1493.5, 3.9007e-07
1495.5, 4.2015e-07
1497.5, 4.5142e-07
1499.5, 4.4e-07
1501.5, 4.7963e-07
1503.5, 4.0577e-07
1505.5, 4.2958e-07
1507.5, 4.4901e-07
1509.5, 4.1912e-07
1511.5, 4.5568e-07
1513.5, 4.5595e-07
1515.5, 4.3825e-07
1517.5, 4.3697e-07
1519.5, 4.3068e-07
1521.5, 4.0734e-07
1523.5, 4.5937e-07
1525.5, 4.5133e-07
1527.5, 4.3394e-07
1529.5, 4.1364e-07
1531.5, 4.3526e-07
1533.5, 4.0388e-07
1535.5, 4.2036e-07
1537.5, 4.2881e-07
1539.5, 4.2838e-07
1541.5, 4.2347e-07
1543.5, 4.3684e-07
1545.5, 4.1505e-07
1547.5, 4.4941e-07
1549.5, 4.6141e-07
1551.5, 4.4973e-07
1553.6, 4.5938e-07
1555.6, 4.9654e-07
1557.6, 4.5574e-07
1559.6, 4.2383e-07
1561.6, 4.6037e-07
1563.6, 4.1614e-07
1565.6, 4.4918e-07
1567.6, 4.2287e-07
1569.6, 4.1902e-07
1571.6, 4.7485e-07
1573.6, 4.3448e-07
1575.6, 4.4506e-07
1577.6, 4.7091e-07
1579.6, 4.605e-07
1581.6, 4.3724e-07
1583.6, 4.2164e-07
1585.6, 4.5279e-07
1587.6, 4.1733e-07
1589.6, 4.3571e-07
1591.6, 4.0976e-07
1593.6, 4.4129e-07
1595.6, 4.6435e-07
1597.6, 4.1353e-07
1599.6, 4.5972e-07
1601.6, 4.4615e-07
1603.6, 4.2838e-07
1605.6, 4.4045e-07
1607.6, 4.2066e-07
1609.6, 4.3094e-07
1611.6, 4.4269e-07
1613.6, 4.5896e-07
1615.6, 4.5654e-07
1617.6, 4.4425e-07
1619.6, 3.9589e-07
1621.6, 3.8316e-07
1623.6, 3.9745e-07
1625.6, 4.0755e-07
1627.6, 4.3657e-07
1629.6, 4.2146e-07
1631.6, 4.2303e-07
1633.6, 4.5192e-07
1635.6, 4.422e-07
1637.6, 4.2971e-07
1639.6, 4.3325e-07
1641.6, 4.0306e-07
1643.6, 4.0655e-07
1645.6, 4.2209e-07
1647.6, 4.5277e-07
1649.6, 4.1481e-07
1651.6, 3.9854e-07
1653.7, 4.5e-07
1655.7, 4.2389e-07
1657.7, 4.4336e-07
1659.7, 4.3945e-07
1661.7, 4.2772e-07
1663.7, 4.4275e-07
1665.7, 4.0156e-07
1667.7, 4.0794e-07
1669.7, 4.1481e-07
1671.7, 4.4819e-07
1673.7, 4.0069e-07
1675.7, 4.4359e-07
1677.7, 4.4351e-07
1679.7, 4.2693e-07
1681.7, 4.5227e-07
1683.7, 4.4255e-07
1685.7, 4.1026e-07
1687.7, 4.141e-07
1689.7, 4.3374e-07
1691.7, 4.3756e-07
1693.7, 4.4816e-07
1695.7, 4.3499e-07
1697.7, 4.1696e-07
1699.7, 4.4815e-07
1701.7, 4.3997e-07
1703.7, 4.1703e-07
1705.7, 4.4524e-07
1707.7, 4.3573e-07
1709.7, 4.8278e-07
1711.7, 4.0301e-07
1713.7, 4.4939e-07
1715.7, 4.6027e-07
1717.7, 4.5441e-07
1719.7, 4.7201e-07
1721.7, 4.5242e-07
1723.7, 4.4064e-07
1725.7, 4.432e-07
1727.7, 4.4301e-07
1729.7, 4.2345e-07
1731.7, 4.4412e-07
1733.7, 4.2098e-07
1735.7, 4.3304e-07
1737.7, 4.2619e-07
1739.7, 4.5188e-07
1741.7, 4.409e-07
1743.7, 4.3667e-07
1745.7, 4.302e-07
1747.7, 4.3405e-07
1749.7, 4.331e-07
1751.7, 4.6252e-07
1753.8, 4.4669e-07
1755.8, 4.5171e-07
1757.8, 4.2829e-07
1759.8, 4.6487e-07
1761.8, 4.7031e-07
1763.8, 4.2322e-07
1765.8, 4.4253e-07
1767.8, 4.5176e-07
1769.8, 3.928e-07
1771.8, 4.0947e-07
1773.8, 4.5451e-07
1775.8, 4.1089e-07
1777.8, 4.3523e-07
1779.8, 4.7671e-07
1781.8, 4.4157e-07
1783.8, 4.2866e-07
1785.8, 4.1628e-07
1787.8, 4.1978e-07
1789.8, 4.3133e-07
1791.8, 4.5117e-07
1793.8, 4.2666e-07
1795.8, 4.2709e-07
1797.8, 4.4948e-07
1799.8, 4.3483e-07
1801.8, 4.5625e-07
1803.8, 4.372e-07
1805.8, 4.4025e-07
1807.8, 4.1162e-07
1809.8, 4.7193e-07
1811.8, 4.2236e-07
1813.8, 4.4053e-07
1815.8, 4.5642e-07
1817.8, 4.5355e-07
1819.8, 4.2472e-07
1821.8, 4.4548e-07
1823.8, 4.5353e-07
1825.8, 4.3673e-07
1827.8, 4.2724e-07
1829.8, 4.3918e-07
1831.8, 4.2629e-07
1833.8, 4.2772e-07
1835.8, 4.6189e-07
1837.8, 4.1785e-07
1839.8, 4.4688e-07
1841.8, 4.5293e-07
1843.8, 4.4034e-07
1845.8, 4.6832e-07
1847.8, 4.1474e-07
1849.8, 4.2135e-07
1851.8, 4.3834e-07
1853.9, 4.3748e-07
1855.9, 4.4343e-07
1857.9, 4.1206e-07
1859.9, 4.4075e-07
1861.9, 3.972e-07
1863.9, 4.0456e-07
1865.9, 4.5636e-07
1867.9, 4.6977e-07
1869.9, 4.1473e-07
1871.9, 4.0187e-07
1873.9, 4.2997e-07
1875.9, 4.3867e-07
1877.9, 4.6192e-07
1879.9, 4.3599e-07
1881.9, 4.6307e-07
1883.9, 4.5301e-07
1885.9, 4.5962e-07
1887.9, 4.7347e-07
1889.9, 4.2755e-07
1891.9, 4.1517e-07
1893.9, 3.9712e-07
1895.9, 4.3608e-07
1897.9, 4.315e-07
1899.9, 4.1852e-07
1901.9, 4.2439e-07
1903.9, 4.2986e-07
1905.9, 4.3442e-07
1907.9, 4.5434e-07
1909.9, 4.6139e-07
1911.9, 4.0848e-07
1913.9, 4.6284e-07
1915.9, 4.0947e-07
1917.9, 4.5486e-07
1919.9, 4.6188e-07
1921.9, 4.3128e-07
1923.9, 4.467e-07
1925.9, 4.2675e-07
1927.9, 4.4203e-07
1929.9, 4.825e-07
1931.9, 4.4022e-07
1933.9, 4.8844e-07
1935.9, 4.4029e-07
1937.9, 4.24e-07
1939.9, 3.982e-07
1941.9, 4.3127e-07
1943.9, 4.634e-07
1945.9, 4.2156e-07
1947.9, 4.42e-07
1949.9, 4.3251e-07
1951.9, 4.3373e-07
1954.0, 4.4421e-07
1956.0, 4.3347e-07
1958.0, 4.8725e-07
1960.0, 4.0693e-07
1962.0, 4.2808e-07
1964.0, 4.6785e-07
1966.0, 4.3905e-07
1968.0, 4.4413e-07
1970.0, 4.4552e-07
1972.0, 4.2959e-07
1974.0, 4.6926e-07
1976.0, 4.4788e-07
1978.0, 4.6125e-07
1980.0, 4.8696e-07
1982.0, 4.8792e-07
1984.0, 4.3162e-07
1986.0, 4.5115e-07
1988.0, 4.7237e-07
1990.0, 4.9565e-07
1992.0, 4.4703e-07
1994.0, 4.5557e-07
1996.0, 4.9281e-07
1998.0, 4.2876e-07
2000.0, 4.4696e-07
2002.0, 4.5434e-07
2004.0, 4.6105e-07
2006.0, 4.178e-07
2008.0, 4.0926e-07
2010.0, 4.1344e-07
2012.0, 4.9662e-07
2014.0, 4.7528e-07
2016.0, 4.6532e-07
2018.0, 4.6034e-07
2020.0, 4.5853e-07
2022.0, 4.3595e-07
2024.0, 4.7128e-07
2026.0, 4.2882e-07
2028.0, 5.589e-08
2030.0, -3.115e-08
2032.0, -3.617e-08
2034.0, -3.432e-08
2036.0, -3.224e-08
2038.0, -3.513e-08
2040.0, -3.22e-08
2042.0, -3.353e-08
2044.0, -3.586e-08
2046.0, -3.526e-08
2048.0, -3.318e-08
2050.0, -3.381e-08
2052.0, -3.311e-08
2054.1, -3.152e-08
2056.1, -3.153e-08
2058.1, -3.238e-08
2060.1, -3.202e-08
2062.1, -2.889e-08
2064.1, -2.872e-08
2066.1, -2.539e-08
2068.1, -2.892e-08
2070.1, -2.928e-08
2072.1, -3.133e-08
2074.1, -3.233e-08
2076.1, -3.509e-08
2078.1, -3.189e-08
2080.1, -3.618e-08
2082.1, -3.51e-08
2084.1, -3.173e-08
2086.1, -2.966e-08
2088.1, -3.26e-08
2090.1, -3.253e-08
2092.1, -3.586e-08
2094.1, -3.26e-08
2096.1, -3.421e-08
2098.1, -3.668e-08
2100.1, -3.424e-08
2102.1, -3.671e-08
2104.1, -3.609e-08
2106.1, -3.472e-08
2108.1, -3.432e-08
2110.1, -3.2e-08
2112.1, -3.496e-08
2114.1, -3.447e-08
2116.1, -3.761e-08
2118.1, -3.226e-08
2120.1, -3.315e-08
2122.1, -2.989e-08
2124.1, -2.948e-08
2126.1, -3.012e-08
2128.1, -3.161e-08
2130.1, -3.161e-08
2132.1, -3.312e-08
2134.1, -2.975e-08
2136.1, -3.56e-08
2138.1, -3.309e-08
2140.1, -3.254e-08
2142.1, -3.897e-08
2144.1, -3.529e-08
2146.1, -3.478e-08
2148.1, -3.539e-08
2150.1, -2.968e-08
2152.1, -3.736e-08
2154.2, -3.452e-08
2156.2, -3.469e-08
2158.2, -3.379e-08
2160.2, -3.311e-08
2162.2, -3.086e-08
2164.2, -3.241e-08
2166.2, -3.036e-08
2168.2, -2.93e-08
2170.2, -3.277e-08
2172.2, -2.811e-08
2174.2, -2.95e-08
2176.2, -2.865e-08
2178.2, -3.179e-08
2180.2, -3.008e-08
2182.2, -2.999e-08
2184.2, -3.237e-08
2186.2, -3.066e-08
2188.2, -3.139e-08
2190.2, -3.533e-08
2192.2, -3.045e-08
2194.2, -3.224e-08
2196.2, -3.327e-08
2198.2, -3.318e-08
2200.2, -3.181e-08
2202.2, -3.067e-08
2204.2, -3.761e-08
2206.2, -3.554e-08
2208.2, -3.43e-08
2210.2, -3.572e-08
2212.2, -3.617e-08
2214.2, -3.76e-08
2216.2, -3.477e-08
2218.2, -3.171e-08
2220.2, -3.251e-08
2222.2, -3.471e-08
2224.2, -3.367e-08
2226.2, -3.554e-08
2228.2, -3.623e-08
2230.2, -3.759e-08
2232.2, -3.332e-08
2234.2, -3.137e-08
2236.2, -2.995e-08
2238.2, -3.195e-08
2240.2, -2.911e-08
2242.2, -3.313e-08
2244.2, -3.189e-08
2246.2, -3.53e-08
2248.2, -3.512e-08
2250.2, -3.382e-08
2252.2, -3.095e-08
2254.3, -3.253e-08
2256.3, -3.613e-08
2258.3, -3.53e-08
2260.3, -3.446e-08
2262.3, -3.369e-08
2264.3, -3.281e-08
2266.3, -3.549e-08
2268.3, -3.944e-08
2270.3, -3.502e-08
2272.3, -3.636e-08
2274.3, -3.698e-08
2276.3, -3.459e-08
2278.3, -3.557e-08
2280.3, -3.836e-08
2282.3, -3.717e-08
2284.3, -3.299e-08
2286.3, -3.785e-08
2288.3, -3.733e-08
2290.3, -3.686e-08
2292.3, -3.868e-08
2294.3, -4.206e-08
2296.3, -3.936e-08
2298.3, -3.762e-08
2300.3, -3.906e-08
2302.3, -3.95e-08
2304.3, -3.855e-08
2306.3, -3.906e-08
2308.3, -3.812e-08
2310.3, -4.203e-08
2312.3, -3.623e-08
2314.3, -4.163e-08
2316.3, -3.807e-08
2318.3, -3.566e-08
2320.3, -3.792e-08
2322.3, -3.656e-08
2324.3, -3.344e-08
2326.3, -3.684e-08
2328.3, -3.467e-08
2330.3, -3.417e-08
2332.3, -3.768e-08
2334.3, -3.474e-08
2336.3, -3.47e-08
2338.3, -3.65e-08
2340.3, -3.259e-08
2342.3, -3.472e-08
2344.3, -3.836e-08
2346.3, -3.701e-08
2348.3, -3.485e-08
2350.3, -3.037e-08
2352.3, -3.319e-08
2354.4, -3.441e-08
2356.4, -2.964e-08
2358.4, -3.206e-08
2360.4, -3.217e-08
2362.4, -3.218e-08
2364.4, -3.024e-08
2366.4, -3.134e-08
2368.4, -3.333e-08
2370.4, -3.168e-08
2372.4, -3.366e-08
2374.4, -3.11e-08
2376.4, -3.251e-08
2378.4, -3.387e-08
2380.4, -3.134e-08
2382.4, -3.407e-08
2384.4, -3.34e-08
2386.4, -3.371e-08
2388.4, -3.168e-08
2390.4, -3.152e-08
2392.4, -2.951e-08
2394.4, -3.118e-08
2396.4, -3.423e-08
2398.4, -3.165e-08
2400.4, -3.039e-08
2402.4, -3.058e-08
2404.4, -2.997e-08
2406.4, -3.442e-08
2408.4, -3.312e-08
2410.4, -3.411e-08
2412.4, -3.711e-08
2414.4, -3.435e-08
2416.4, -3.24e-08
2418.4, -3.645e-08
2420.4, -3.6e-08
2422.4, -3.539e-08
2424.4, -3.069e-08
2426.4, -3.321e-08
2428.4, -3.369e-08
2430.4, -3.307e-08
2432.4, -3.638e-08
2434.4, -3.442e-08
2436.4, -3.416e-08
2438.4, -3.344e-08
2440.4, -3.906e-08
2442.4, -3.727e-08
2444.4, -3.805e-08
2446.4, -3.727e-08
2448.4, -3.879e-08
2450.4, -3.601e-08
2452.4, -3.544e-08
2454.5, -3.564e-08
2456.5, -3.088e-08
2458.5, -3.702e-08
2460.5, -3.719e-08
2462.5, -3.042e-08
2464.5, -3.254e-08
2466.5, -3.147e-08
2468.5, -3.112e-08
2470.5, -3.239e-08
2472.5, -3.347e-08
2474.5, -3.393e-08
2476.5, -3.534e-08
2478.5, -3.668e-08
2480.5, -3.567e-08
2482.5, -3.721e-08
2484.5, -3.632e-08
2486.5, -3.173e-08
2488.5, -3.522e-08
2490.5, -3.507e-08
2492.5, -3.453e-08
2494.5, -3.353e-08
2496.5, -3.46e-08
2498.5, -3.455e-08
2500.5, -3.018e-08
2502.5, -2.776e-08
2504.5, -3.142e-08
2506.5, -3.094e-08
2508.5, -3.396e-08
2510.5, -3.325e-08
2512.5, -3.556e-08
2514.5, -3.387e-08
2516.5, -3.374e-08
2518.5, -2.944e-08
2520.5, -3.342e-08
2522.5, -3.288e-08
2524.5, -2.899e-08
2526.5, -3.326e-08
2528.5, -3.082e-08
2530.5, -3.042e-08
2532.5, -2.906e-08
2534.5, -2.858e-08
2536.5, -3.116e-08
2538.5, -2.936e-08
2540.5, -2.658e-08
2542.5, -3.203e-08
2544.5, -2.955e-08
2546.5, -2.964e-08
2548.5, -3.139e-08
2550.5, -3.327e-08
2552.5, -3.314e-08
2554.6, -3.362e-08
2556.6, -3.072e-08
2558.6, -3.241e-08
2560.6, -2.768e-08
2562.6, -2.726e-08
2564.6, -3.016e-08
2566.6, -3.144e-08
2568.6, -2.924e-08
2570.6, -3.122e-08
2572.6, -3.156e-08
2574.6, -3.18e-08
2576.6, -2.886e-08
2578.6, -2.635e-08
2580.6, -2.943e-08
2582.6, -2.76e-08
2584.6, -2.77e-08
2586.6, -2.518e-08
2588.6, -3.372e-08
2590.6, -3.195e-08
2592.6, -2.827e-08
2594.6, -2.431e-08
2596.6, -2.311e-08
2598.6, -2.485e-08
2600.6, -2.77e-08
2602.6, -2.889e-08
2604.6, -2.764e-08
2606.6, -2.59e-08
2608.6, -2.757e-08
2610.6, -2.927e-08
2612.6, -2.783e-08
2614.6, -2.813e-08
2616.6, -2.831e-08
2618.6, -2.406e-08
2620.6, -2.493e-08
2622.6, -3.044e-08
2624.6, -2.704e-08
2626.6, -2.687e-08
2628.6, -3.088e-08
2630.6, -2.75e-08
2632.6, -2.694e-08
2634.6, -3.053e-08
2636.6, -2.939e-08
2638.6, -3.053e-08
2640.6, -3.133e-08
2642.6, -3.213e-08
2644.6, -3.142e-08
2646.6, -3.312e-08
2648.6, -3.16e-08
2650.6, -3.128e-08
2652.6, -2.901e-08
2654.7, -3.055e-08
2656.7, -2.866e-08
2658.7, -3.097e-08
2660.7, -3.3e-08
2662.7, -3.488e-08
2664.7, -3.516e-08
2666.7, -3.211e-08
2668.7, -2.978e-08
2670.7, -3.362e-08
2672.7, -3.372e-08
2674.7, -3.282e-08
2676.7, -3.402e-08
2678.7, -3.265e-08
2680.7, -3.074e-08
2682.7, -3.431e-08
2684.7, -3.383e-08
2686.7, -3.334e-08
2688.7, -2.955e-08
2690.7, -3.242e-08
2692.7, -3.049e-08
2694.7, -3.705e-08
2696.7, -3.418e-08
2698.7, -3.424e-08
2700.7, -3.713e-08
2702.7, -3.094e-08
2704.7, -3.515e-08
2706.7, -3.18e-08
2708.7, -3.228e-08
2710.7, -3.231e-08
2712.7, -2.934e-08
2714.7, -3.008e-08
2716.7, -3.118e-08
2718.7, -2.733e-08
2720.7, -3.235e-08
2722.7, -3.401e-08
2724.7, -3.281e-08
2726.7, -2.796e-08
2728.7, -2.998e-08
2730.7, -3.24e-08
2732.7, -2.988e-08
2734.7, -3.092e-08
2736.7, -2.968e-08
2738.7, -3.119e-08
2740.7, -3.091e-08
2742.7, -2.911e-08
2744.7, -3.02e-08
2746.7, -3.462e-08
2748.7, -3.355e-08
2750.7, -3.266e-08
2752.7, -3.491e-08
2754.8, -3.523e-08
2756.8, -3.538e-08
2758.8, -3.217e-08
2760.8, -3.41e-08
2762.8, -3.343e-08
2764.8, -3.431e-08
2766.8, -2.796e-08
2768.8, -3.546e-08
2770.8, -3.378e-08
2772.8, -3.296e-08
2774.8, -3.267e-08
2776.8, -3.479e-08
2778.8, -3.063e-08
2780.8, -3.41e-08
2782.8, -3.336e-08
2784.8, -3.709e-08
2786.8, -3.058e-08
2788.8, -3.405e-08
2790.8, -3.175e-08
2792.8, -3.44e-08
2794.8, -3.263e-08
2796.8, -3.282e-08
2798.8, -3.446e-08
2800.8, -3.096e-08
2802.8, -3.123e-08
2804.8, -3.226e-08
2806.8, -3.007e-08
2808.8, -2.833e-08
2810.8, -3.042e-08
2812.8, -3.337e-08
2814.8, -3.331e-08
2816.8, -2.844e-08
2818.8, -3.077e-08
2820.8, -3.192e-08
2822.8, -3.21e-08
2824.8, -3.206e-08
2826.8, -3.259e-08
2828.8, -3.559e-08
2830.8, -3.231e-08
2832.8, -3.226e-08
2834.8, -3.25e-08
2836.8, -3.268e-08
2838.8, -3.378e-08
2840.8, -3.106e-08
2842.8, -3e-08
2844.8, -3.235e-08
2846.8, -2.901e-08
2848.8, -3.241e-08
2850.8, -3.17e-08
2852.8, -3.331e-08
2854.9, -3.222e-08
2856.9, -3.041e-08
2858.9, -2.947e-08
2860.9, -3.067e-08
2862.9, -3.231e-08
2864.9, -3.278e-08
2866.9, -3.188e-08
2868.9, -3.213e-08
2870.9, -2.983e-08
2872.9, -3.095e-08
2874.9, -3.377e-08
2876.9, -3.21e-08
2878.9, -3.698e-08
2880.9, -3.417e-08
2882.9, -3.946e-08
2884.9, -3.541e-08
2886.9, -3.315e-08
2888.9, -3.372e-08
2890.9, -3.485e-08
2892.9, -3.4e-08
2894.9, -3.136e-08
2896.9, -3.334e-08
2898.9, -3.361e-08
2900.9, -3.54e-08
2902.9, -3.432e-08
2904.9, -3.25e-08
2906.9, -3.166e-08
2908.9, -3.25e-08
2910.9, -3.221e-08
2912.9, -3.122e-08
2914.9, -3.231e-08
2916.9, -3.624e-08
2918.9, -3.577e-08
2920.9, -3.396e-08
2922.9, -3.562e-08
2924.9, -3.278e-08
2926.9, -3.174e-08
2928.9, -3.291e-08
2930.9, -3.29e-08
2932.9, -3.499e-08
2934.9, -3.634e-08
2936.9, -3.562e-08
2938.9, -3.5e-08
2940.9, -3.574e-08
2942.9, -3.389e-08
2944.9, -3.209e-08
2946.9, -3.125e-08
2948.9, -3.646e-08
2950.9, -2.934e-08
2952.9, -3.585e-08
2955.0, -3.14e-08
2957.0, -3.332e-08
2959.0, -3.095e-08
2961.0, -3.035e-08
2963.0, -3.526e-08
2965.0, -3.294e-08
2967.0, -3.452e-08
2969.0, -3.6e-08
2971.0, -3.623e-08
2973.0, -3.704e-08
2975.0, -3.696e-08
2977.0, -3.858e-08
2979.0, -3.939e-08
2981.0, -3.664e-08
2983.0, -3.9e-08
2985.0, -3.331e-08
2987.0, -3.31e-08
2989.0, -3.39e-08
2991.0, -3.524e-08
2993.0, -3.516e-08
2995.0, -3.552e-08
2997.0, -3.269e-08
2999.0, -3.25e-08
3001.0, -3.027e-08
3003.0, -3.359e-08
3005.0, -3.191e-08
3007.0, -3.284e-08
3009.0, -3.744e-08
3011.0, -3.488e-08
3013.0, -3.562e-08
3015.0, -3.591e-08
3017.0, -3.535e-08
3019.0, -3.903e-08
3021.0, -3.698e-08
3023.0, -3.366e-08
3025.0, -3.237e-08
3027.0, -3.334e-08
3029.0, -3.616e-08
3031.0, -3.575e-08
3033.0, -3.786e-08
3035.0, -3.358e-08
3037.0, -3.398e-08
3039.0, -3.342e-08
3041.0, -3.467e-08
3043.0, -3.744e-08
3045.0, -3.363e-08
3047.0, -3.249e-08
3049.0, -3.613e-08
3051.0, -3.191e-08
3053.0, -3.279e-08
3055.1, -3.106e-08
3057.1, -3.457e-08
3059.1, -3.478e-08
3061.1, -3.568e-08
3063.1, -3.262e-08
3065.1, 4.3627e-07
3067.1, 4.2258e-07
3069.1, 3.902e-07
3071.1, 4.324e-07
3073.1, 4.4374e-07
3075.1, 3.7056e-07
3077.1, 3.607e-07
3079.1, 3.8275e-07
3081.1, 4.3067e-07
3083.1, 3.3991e-07
3085.1, 4.1133e-07
3087.1, 3.9807e-07
3089.1, 4.0321e-07
3091.1, 4.1922e-07
3093.1, 3.9832e-07
3095.1, 4.0076e-07
3097.1, 4.2119e-07
3099.1, 4.386e-07
3101.1, 3.9215e-07
3103.1, 4.4808e-07
3105.1, 3.6837e-07
3107.1, 4.3505e-07
3109.1, 4.1211e-07
3111.1, 4.5365e-07
3113.1, 3.9786e-07
3115.1, 3.7523e-07
3117.1, 3.9192e-07
3119.1, 3.9796e-07
3121.1, 4.0836e-07
3123.1, 4.0793e-07
3125.1, 3.8547e-07
3127.1, 4.0726e-07
3129.1, 4.3494e-07
3131.1, 4.2309e-07
3133.1, 4.1794e-07
3135.1, 4.0043e-07
3137.1, 4.6016e-07
3139.1, 4.2097e-07
3141.1, 3.8984e-07
3143.1, 4.1982e-07
3145.1, 4.3193e-07
3147.1, 3.5756e-07
3149.1, 4.2734e-07
3151.1, 4.1174e-07
3153.1, 4.5628e-07
3155.2, 4.487e-07
3157.2, 4.3544e-07
3159.2, 3.4763e-07
3161.2, 4.0733e-07
3163.2, 4.2232e-07
3165.2, 4.2866e-07
3167.2, 4.3088e-07
3169.2, 4.2953e-07
3171.2, 4.2547e-07
3173.2, 4.1922e-07
3175.2, 3.9744e-07
3177.2, 4.1356e-07
3179.2, 4.0299e-07
3181.2, 3.9109e-07
3183.2, 4.2396e-07
3185.2, 4.0882e-07
3187.2, 4.579e-07
3189.2, 4.6975e-07
3191.2, 4.3076e-07
3193.2, 3.9271e-07
3195.2, 4.1048e-07
3197.2, 4.332e-07
3199.2, 4.2615e-07
3201.2, 4.9168e-07
3203.2, 4.4076e-07
3205.2, 4.0982e-07
3207.2, 4.0752e-07
3209.2, 4.496e-07
3211.2, 4.2894e-07
3213.2, 3.8392e-07
3215.2, 3.8413e-07
3217.2, 4.3125e-07
3219.2, 4.4614e-07
3221.2, 3.8531e-07
3223.2, 4.0008e-07
3225.2, 3.9799e-07
3227.2, 4.2459e-07
3229.2, 4.4259e-07
3231.2, 4.2131e-07
3233.2, 4.2686e-07
3235.2, 4.2533e-07
3237.2, 4.0853e-07
3239.2, 4.0258e-07
3241.2, 4.4029e-07
3243.2, 4.4115e-07
3245.2, 4.5022e-07
3247.2, 4.2341e-07
3249.2, 4.4122e-07
3251.2, 4.2704e-07
3253.2, 4.3125e-07
3255.3, 4.4092e-07
3257.3, 4.3683e-07
3259.3, 4.0481e-07
3261.3, 4.7517e-07
3263.3, 4.5202e-07
3265.3, 4.3804e-07
3267.3, 4.3572e-07
3269.3, 4.1078e-07
3271.3, 4.2264e-07
3273.3, 4.5438e-07
3275.3, 4.093e-07
3277.3, 4.2471e-07
3279.3, 4.2448e-07
3281.3, 4.869e-07
3283.3, 4.4647e-07
3285.3, 4.3418e-07
3287.3, 4.5312e-07
3289.3, 4.1332e-07
3291.3, 4.5399e-07
3293.3, 4.6174e-07
3295.3, 4.616e-07
3297.3, 4.3393e-07
3299.3, 4.1414e-07
3301.3, 4.5642e-07
3303.3, 4.2187e-07
3305.3, 4.3066e-07
3307.3, 4.7651e-07
3309.3, 3.9384e-07
3311.3, 4.3044e-07
3313.3, 4.0276e-07
3315.3, 4.2159e-07
3317.3, 4.6221e-07
3319.3, 4.4854e-07
3321.3, 4.1427e-07
3323.3, 3.9119e-07
3325.3, 4.7918e-07
3327.3, 4.1438e-07
3329.3, 3.7458e-07
3331.3, 4.1702e-07
3333.3, 3.6691e-07
3335.3, 4.2664e-07
3337.3, 4.4619e-07
3339.3, 4.2637e-07
3341.3, 4.6598e-07
3343.3, 4.3278e-07
3345.3, 4.3317e-07
3347.3, 4.1134e-07
3349.3, 4.4072e-07
3351.3, 4.03e-07
3353.3, 4.2156e-07
3355.4, 4.3834e-07
3357.4, 4.3293e-07
3359.4, 4.2438e-07
3361.4, 4.642e-07
3363.4, 4.6563e-07
3365.4, 4.2226e-07
3367.4, 4.1809e-07
3369.4, 4.5588e-07
3371.4, 4.5228e-07
3373.4, 4.6314e-07
3375.4, 4.7825e-07
3377.4, 4.2814e-07
3379.4, 4.2108e-07
3381.4, 4.038e-07
3383.4, 4.1657e-07
3385.4, 4.5053e-07
3387.4, 4.4874e-07
3389.4, 4.4654e-07
3391.4, 3.9709e-07
3393.4, 4.4676e-07
3395.4, 4.3571e-07
3397.4, 4.4397e-07
3399.4, 4.4269e-07
3401.4, 4.4049e-07
3403.4, 4.4119e-07
3405.4, 4.4001e-07
3407.4, 4.8171e-07
3409.4, 4.359e-07
3411.4, 4.5968e-07
3413.4, 4.5922e-07
3415.4, 4.5748e-07
3417.4, 4.5335e-07
3419.4, 4.5753e-07
3421.4, 4.7589e-07
3423.4, 3.8854e-07
3425.4, 4.7588e-07
3427.4, 4.7749e-07
3429.4, 4.3821e-07
3431.4, 4.7797e-07
3433.4, 3.9137e-07
3435.4, 4.3641e-07
3437.4, 4.5728e-07
3439.4, 4.7504e-07
3441.4, 4.7478e-07
3443.4, 4.4249e-07
3445.4, 4.2935e-07
3447.4, 4.4361e-07
3449.4, 4.4371e-07
3451.4, 4.6911e-07
3453.4, 4.3297e-07
3455.5, 4.828e-07
3457.5, 4.6812e-07
3459.5, 4.2846e-07
3461.5, 4.474e-07
3463.5, 4.1787e-07
3465.5, 4.1384e-07
3467.5, 4.3432e-07
3469.5, 4.7812e-07
3471.5, 4.5199e-07
3473.5, 4.7972e-07
3475.5, 4.0931e-07
3477.5, 3.9125e-07
3479.5, 4.3382e-07
3481.5, 4.6599e-07
3483.5, 4.1086e-07
3485.5, 4.2255e-07
3487.5, 4.2233e-07
3489.5, 4.367e-07
3491.5, 3.8234e-07
3493.5, 4.1446e-07
3495.5, 4.2093e-07
3497.5, 4.2915e-07
3499.5, 4.4712e-07
3501.5, 4.4102e-07
3503.5, 4.2983e-07
3505.5, 4.9584e-07
3507.5, 4.1984e-07
3509.5, 4.5236e-07
3511.5, 3.943e-07
3513.5, 4.4938e-07
3515.5, 4.6537e-07
3517.5, 4.596e-07
3519.5, 4.2684e-07
3521.5, 4.7715e-07
3523.5, 4.3789e-07
3525.5, 4.5724e-07
3527.5, 5.0649e-07
3529.5, 4.5363e-07
3531.5, 4.9915e-07
3533.5, 4.6313e-07
3535.5, 4.0394e-07
3537.5, 4.4641e-07
3539.5, 4.2576e-07
3541.5, 4.2378e-07
3543.5, 4.7227e-07
3545.5, 4.1359e-07
3547.5, 4.207e-07
3549.5, 4.9374e-07
3551.5, 4.3577e-07
3553.5, 4.7881e-07
3555.6, 4.9174e-07
3557.6, 4.4471e-07
3559.6, 4.6655e-07
3561.6, 4.6494e-07
3563.6, 4.3369e-07
3565.6, 4.7825e-07
3567.6, 4.5457e-07
3569.6, 4.3064e-07
3571.6, 4.3385e-07
3573.6, 4.1153e-07
3575.6, 4.2252e-07
3577.6, 4.418e-07
3579.6, 4.4925e-07
3581.6, 4.8187e-07
3583.6, 4.3316e-07
3585.6, 4.0383e-07
3587.6, 4.9416e-07
3589.6, 4.3853e-07
3591.6, 4.3189e-07
3593.6, 4.7242e-07
3595.6, 4.4701e-07
3597.6, 4.5731e-07
3599.6, 4.2257e-07
3601.6, 4.5041e-07
3603.6, 4.5743e-07
3605.6, 4.387e-07
3607.6, 4.052e-07
3609.6, 4.5807e-07
3611.6, 4.471e-07
3613.6, 3.7828e-07
3615.6, 4.223e-07
3617.6, 4.6877e-07
3619.6, 4.7079e-07
3621.6, 4.8949e-07
3623.6, 4.5314e-07
3625.6, 3.8481e-07
3627.6, 4.4954e-07
3629.6, 4.5696e-07
3631.6, 4.6102e-07
3633.6, 4.5125e-07
3635.6, 4.6035e-07
3637.6, 4.4924e-07
3639.6, 4.4741e-07
3641.6, 4.471e-07
3643.6, 4.5808e-07
3645.6, 4.4378e-07
3647.6, 4.4281e-07
3649.6, 3.9924e-07
3651.6, 4.3954e-07
3653.6, 4.2933e-07
3655.7, 4.3516e-07
3657.7, 4.2213e-07
3659.7, 4.7237e-07
3661.7, 4.181e-07
3663.7, 4.4416e-07
3665.7, 4.1944e-07
3667.7, 4.8047e-07
3669.7, 4.9948e-07
3671.7, 4.314e-07
3673.7, 4.725e-07
3675.7, 4.3607e-07
3677.7, 4.682e-07
3679.7, 4.3813e-07
3681.7, 4.6241e-07
3683.7, 4.2119e-07
3685.7, 4.5672e-07
3687.7, 3.8666e-07
3689.7, 4.469e-07
3691.7, 4.4011e-07
3693.7, 4.4713e-07
3695.7, 4.9585e-07
3697.7, 4.7647e-07
3699.7, 4.3421e-07
3701.7, 4.3417e-07
3703.7, 4.0736e-07
3705.7, 4.9607e-07
3707.7, 4.8853e-07
3709.7, 4.5895e-07
3711.7, 4.2648e-07
3713.7, 5.2171e-07
3715.7, 4.5132e-07
3717.7, 4.8454e-07
3719.7, 4.4114e-07
3721.7, 4.3092e-07
3723.7, 4.8863e-07
3725.7, 4.5842e-07
3727.7, 4.7207e-07
3729.7, 4.6021e-07
3731.7, 4.4774e-07
3733.7, 4.3116e-07
3735.7, 4.6267e-07
3737.7, 4.473e-07
3739.7, 4.4584e-07
3741.7, 4.0866e-07
3743.7, 4.5543e-07
3745.7, 4.9432e-07
3747.7, 4.1436e-07
3749.7, 4.475e-07
3751.7, 3.7592e-07
3753.7, 5.0275e-07
3755.8, 4.5726e-07
3757.8, 4.7154e-07
3759.8, 4.4646e-07
3761.8, 4.2981e-07
3763.8, 4.3657e-07
3765.8, 4.7517e-07
3767.8, 4.7945e-07
3769.8, 4.2767e-07
3771.8, 4.8879e-07
3773.8, 4.1803e-07
3775.8, 4.67e-07
3777.8, 4.6731e-07
3779.8, 4.5202e-07
3781.8, 4.6845e-07
3783.8, 4.4269e-07
3785.8, 4.4532e-07
3787.8, 4.0864e-07
3789.8, 4.652e-07
3791.8, 4.4491e-07
3793.8, 4.2058e-07
3795.8, 4.4094e-07
3797.8, 4.9421e-07
3799.8, 4.3327e-07
3801.8, 5.0102e-07
3803.8, 4.4279e-07
3805.8, 4.6789e-07
3807.8, 4.3336e-07
3809.8, 4.3842e-07
3811.8, 4.6444e-07
3813.8, 4.7826e-07
3815.8, 4.8255e-07
3817.8, 4.3944e-07
3819.8, 5.0087e-07
3821.8, 4.6497e-07
3823.8, 4.6167e-07
3825.8, 4.5091e-07
3827.8, 4.7027e-07
3829.8, 4.2099e-07
3831.8, 4.9106e-07
3833.8, 4.5155e-07
3835.8, 4.512e-07
3837.8, 3.8902e-07
3839.8, 4.7029e-07
3841.8, 4.071e-07
3843.8, 4.2926e-07
3845.8, 4.9401e-07
3847.8, 4.8768e-07
3849.8, 4.786e-07
3851.8, 4.1045e-07
3853.8, 4.4082e-07
3855.9, 4.6421e-07
3857.9, 4.5864e-07
3859.9, 4.856e-07
3861.9, 5.1694e-07
3863.9, 4.675e-07
3865.9, 4.3778e-07
3867.9, 4.5771e-07
3869.9, 4.4531e-07
3871.9, 4.8393e-07
3873.9, 4.563e-07
3875.9, 4.5999e-07
3877.9, 4.6636e-07
3879.9, 4.7776e-07
3881.9, 4.3388e-07
3883.9, 4.5617e-07
3885.9, 4.2401e-07
3887.9, 4.3516e-07
3889.9, 4.4149e-07
3891.9, 4.4132e-07
3893.9, 4.4636e-07
3895.9, 4.7917e-07
3897.9, 4.2851e-07
3899.9, 4.5511e-07
3901.9, 4.3367e-07
3903.9, 4.7445e-07
3905.9, 4.5992e-07
3907.9, 4.5328e-07
3909.9, 4.5693e-07
3911.9, 4.5246e-07
3913.9, 4.314e-07
3915.9, 4.8078e-07
3917.9, 4.5502e-07
3919.9, 4.6135e-07
3921.9, 4.0807e-07
3923.9, 4.4841e-07
3925.9, 4.9022e-07
3927.9, 4.4247e-07
3929.9, 4.4788e-07
3931.9, 4.8379e-07
3933.9, 4.6558e-07
3935.9, 4.3858e-07
3937.9, 4.1916e-07
3939.9, 4.9154e-07
3941.9, 4.5683e-07
3943.9, 4.1075e-07
3945.9, 4.4347e-07
3947.9, 4.1231e-07
3949.9, 4.5408e-07
3951.9, 4.5148e-07
3953.9, 4.7205e-07
3956.0, 4.1079e-07
3958.0, 4.7901e-07
3960.0, 4.5036e-07
3962.0, 4.6971e-07
3964.0, 4.3884e-07
3966.0, 4.5875e-07
3968.0, 4.6006e-07
3970.0, 4.802e-07
3972.0, 4.7792e-07
3974.0, 4.3111e-07
3976.0, 4.0636e-07
3978.0, 4.5626e-07
3980.0, 4.419e-07
3982.0, 4.8568e-07
3984.0, 4.652e-07
3986.0, 4.8798e-07
3988.0, 4.7833e-07
3990.0, 4.6814e-07
3992.0, 4.4227e-07
3994.0, 4.1108e-07
3996.0, 4.8659e-07
3998.0, 4.5894e-07
4000.0, 4.7967e-07
4002.0, 4.1608e-07
4004.0, 4.4462e-07
4006.0, 4.723e-07
4008.0, 4.4091e-07
4010.0, 4.1189e-07
4012.0, 4.6134e-07
4014.0, 4.5219e-07
4016.0, 4.5018e-07
4018.0, 4.4102e-07
4020.0, 4.5695e-07
4022.0, 4.5961e-07
4024.0, 4.6019e-07
4026.0, 4.4794e-07
4028.0, 4.4668e-07
4030.0, 4.7457e-07
4032.0, 4.7053e-07
4034.0, 5.0742e-07
4036.0, 4.278e-07
4038.0, 4.5088e-07
4040.0, 4.5384e-07
4042.0, 4.247e-07
4044.0, 4.4476e-07
4046.0, 4.4244e-07
4048.0, 4.5497e-07
4050.0, 4.6466e-07
4052.0, 4.4249e-07
4054.0, 4.7566e-07
4056.1, 4.6696e-07
4058.1, 4.7393e-07
4060.1, 4.3489e-07
4062.1, 4.7949e-07
4064.1, 4.2953e-07
4066.1, -4.418e-08
4068.1, -3.37e-08
4070.1, -3.156e-08
4072.1, -3.569e-08
4074.1, -3.382e-08
4076.1, -3.164e-08
4078.1, -3.548e-08
4080.1, -3.474e-08
4082.1, -3.458e-08
4084.1, -3.47e-08
4086.1, -3.456e-08
4088.1, -3.557e-08
4090.1, -3.197e-08
4092.1, -3.259e-08
4094.1, -2.864e-08
4096.1, -3.347e-08
4098.1, -3.169e-08
4100.1, -2.99e-08
4102.1, -3.312e-08
4104.1, -3.047e-08
4106.1, -3.402e-08
4108.1, -2.867e-08
4110.1, -3.518e-08
4112.1, -3.474e-08
4114.1, -3.095e-08
4116.1, -3.249e-08
4118.1, -3.27e-08
4120.1, -3.27e-08
4122.1, -3.426e-08
4124.1, -3.362e-08
4126.1, -3.525e-08
4128.1, -3.862e-08
4130.1, -3.575e-08
4132.1, -3.545e-08
4134.1, -3.506e-08
4136.1, -3.295e-08
4138.1, -3.351e-08
4140.1, -3.27e-08
4142.1, -2.995e-08
4144.1, -3.175e-08
4146.1, -3.43e-08
4148.1, -3.472e-08
4150.1, -3.813e-08
4152.1, -3.354e-08
4154.1, -3.432e-08
4156.2, -3.699e-08
4158.2, -3.657e-08
4160.2, -3.18e-08
4162.2, -3.431e-08
4164.2, -3.565e-08
4166.2, -3.575e-08
4168.2, -3.403e-08
4170.2, -3.677e-08
4172.2, -3.542e-08
4174.2, -3.762e-08
4176.2, -3.713e-08
4178.2, -3.651e-08
4180.2, -3.58e-08
4182.2, -3.602e-08
4184.2, -3.236e-08
4186.2, -3.177e-08
4188.2, -3.172e-08
4190.2, -3.587e-08
4192.2, -3.434e-08
4194.2, -3.638e-08
4196.2, -3.662e-08
4198.2, -3.573e-08
4200.2, -3.467e-08
4202.2, -3.785e-08
4204.2, -3.589e-08
4206.2, -3.152e-08
4208.2, -3.64e-08
4210.2, -3.468e-08
4212.2, -3.878e-08
4214.2, -3.649e-08
4216.2, -3.601e-08
4218.2, -3.175e-08
4220.2, -3.588e-08
4222.2, -3.432e-08
4224.2, -3.805e-08
4226.2, -3.629e-08
4228.2, -3.608e-08
4230.2, -3.771e-08
4232.2, -3.659e-08
4234.2, -3.46e-08
4236.2, -3.441e-08
4238.2, -3.508e-08
4240.2, -3.404e-08
4242.2, -3.809e-08
4244.2, -3.653e-08
4246.2, -3.69e-08
4248.2, -3.872e-08
4250.2, -3.573e-08
4252.2, -3.955e-08
4254.2, -3.713e-08
4256.3, -3.521e-08
4258.3, -3.618e-08
4260.3, -3.486e-08
4262.3, -3.483e-08
4264.3, -3.567e-08
4266.3, -3.545e-08
4268.3, -3.503e-08
4270.3, -3.731e-08
4272.3, -3.527e-08
4274.3, -3.54e-08
4276.3, -3.838e-08
4278.3, -3.305e-08
4280.3, -3.489e-08
4282.3, -3.573e-08
4284.3, -3.036e-08
4286.3, -3.064e-08
4288.3, -3.465e-08
4290.3, -3.41e-08
4292.3, -3.314e-08
4294.3, -3.132e-08
4296.3, -3.543e-08
4298.3, -2.907e-08
4300.3, -3.281e-08
4302.3, -3.105e-08
4304.3, -3.3e-08
4306.3, -3.309e-08
4308.3, -3.421e-08
4310.3, -3.481e-08
4312.3, -3.088e-08
4314.3, -3.403e-08
4316.3, -3.576e-08
4318.3, -3.686e-08
4320.3, -3.326e-08
4322.3, -3.395e-08
4324.3, -3.366e-08
4326.3, -3.873e-08
4328.3, -3.828e-08
4330.3, -3.871e-08
4332.3, -3.791e-08
4334.3, -3.485e-08
4336.3, -3.373e-08
4338.3, -3.743e-08
4340.3, -3.701e-08
4342.3, -3.771e-08
4344.3, -3.85e-08
4346.3, -3.808e-08
4348.3, -3.956e-08
4350.3, -3.64e-08
4352.3, -4.026e-08
4354.3, -3.931e-08
4356.4, -3.697e-08
4358.4, -3.851e-08
4360.4, -3.637e-08
4362.4, -3.629e-08
4364.4, -3.7e-08
4366.4, -3.466e-08
4368.4, -3.663e-08
4370.4, -3.598e-08
4372.4, -3.607e-08
4374.4, -3.6e-08
4376.4, -3.632e-08
4378.4, -3.611e-08
4380.4, -3.742e-08
4382.4, -3.201e-08
4384.4, -3.668e-08
4386.4, -3.568e-08
4388.4, -3.811e-08
4390.4, -3.499e-08
4392.4, -3.627e-08
4394.4, -3.888e-08
4396.4, -3.424e-08
4398.4, -3.996e-08
4400.4, -3.877e-08
4402.4, -4.058e-08
4404.4, -3.799e-08
4406.4, -3.826e-08
4408.4, -3.443e-08
4410.4, -3.879e-08
4412.4, -3.311e-08
4414.4, -3.685e-08
4416.4, -3.895e-08
4418.4, -3.801e-08
4420.4, -3.48e-08
4422.4, -3.762e-08
4424.4, -3.815e-08
4426.4, -4.121e-08
4428.4, -3.854e-08
4430.4, -3.743e-08
4432.4, -3.68e-08
4434.4, -3.575e-08
4436.4, -3.244e-08
4438.4, -3.586e-08
4440.4, -4.01e-08
4442.4, -3.677e-08
4444.4, -3.513e-08
4446.4, -3.84e-08
4448.4, -3.887e-08
4450.4, -3.759e-08
4452.4, -3.737e-08
4454.4, -3.371e-08
4456.5, -3.295e-08
4458.5, -3.974e-08
4460.5, -3.667e-08
4462.5, -3.541e-08
4464.5, -2.934e-08
4466.5, -3.306e-08
4468.5, -3.295e-08
4470.5, -3.744e-08
4472.5, -3.784e-08
4474.5, -3.986e-08
4476.5, -3.987e-08
4478.5, -4.178e-08
4480.5, -3.877e-08
4482.5, -3.498e-08
4484.5, -3.721e-08
4486.5, -3.543e-08
4488.5, -3.652e-08
4490.5, -3.538e-08
4492.5, -3.622e-08
4494.5, -3.727e-08
4496.5, -3.438e-08
4498.5, -3.511e-08
4500.5, -3.694e-08
4502.5, -3.924e-08
4504.5, -3.48e-08
4506.5, -3.475e-08
4508.5, -3.374e-08
4510.5, -3.629e-08
4512.5, -3.562e-08
4514.5, -3.755e-08
4516.5, -3.453e-08
4518.5, -3.623e-08
4520.5, -3.662e-08
4522.5, -3.71e-08
4524.5, -3.636e-08
4526.5, -3.358e-08
4528.5, -3.225e-08
4530.5, -3.493e-08
4532.5, -3.133e-08
4534.5, -3.541e-08
4536.5, -3.076e-08
4538.5, -3.031e-08
4540.5, -3.274e-08
4542.5, -3.327e-08
4544.5, -3.523e-08
4546.5, -3.261e-08
4548.5, -3.344e-08
4550.5, -3.644e-08
4552.5, -3.639e-08
4554.5, -3.161e-08
4556.6, -3.738e-08
4558.6, -3.532e-08
4560.6, -3.568e-08
4562.6, -4.074e-08
4564.6, -3.91e-08
4566.6, -3.608e-08
4568.6, -3.884e-08
4570.6, -3.588e-08
4572.6, -3.553e-08
4574.6, -3.487e-08
4576.6, -3.497e-08
4578.6, -3.404e-08
4580.6, -3.497e-08
4582.6, -3.376e-08
4584.6, -3.423e-08
4586.6, -3.825e-08
4588.6, -3.534e-08
4590.6, -3.84e-08
4592.6, -3.62e-08
4594.6, -3.411e-08
4596.6, -3.987e-08
4598.6, -3.538e-08
4600.6, -3.188e-08
4602.6, -3.312e-08
4604.6, -3.408e-08
4606.6, -3.117e-08
4608.6, -3.612e-08
4610.6, -3.555e-08
4612.6, -3.441e-08
4614.6, -3.473e-08
4616.6, -3.289e-08
4618.6, -3.68e-08
4620.6, -3.523e-08
4622.6, -3.735e-08
4624.6, -3.669e-08
4626.6, -3.404e-08
4628.6, -3.726e-08
4630.6, -4.069e-08
4632.6, -3.631e-08
4634.6, -3.395e-08
4636.6, -3.462e-08
4638.6, -3.42e-08
4640.6, -3.367e-08
4642.6, -3.157e-08
4644.6, -3.63e-08
4646.6, -3.347e-08
4648.6, -3.448e-08
4650.6, -3.408e-08
4652.6, -3.342e-08
4654.6, -3.338e-08
4656.7, -3.454e-08
4658.7, -3.604e-08
4660.7, -3.544e-08
4662.7, -3.473e-08
4664.7, -3.492e-08
4666.7, -3.674e-08
4668.7, -3.709e-08
4670.7, -3.841e-08
4672.7, -3.743e-08
4674.7, -3.723e-08
4676.7, -3.611e-08
4678.7, -3.767e-08
4680.7, -3.59e-08
4682.7, -3.593e-08
4684.7, -3.964e-08
4686.7, -3.411e-08
4688.7, -3.071e-08
4690.7, -3.236e-08
4692.7, -3.346e-08
4694.7, -3.38e-08
4696.7, -3.546e-08
4698.7, -3.52e-08
4700.7, -3.705e-08
4702.7, -3.519e-08
4704.7, -3.68e-08
4706.7, -3.202e-08
4708.7, -3.196e-08
4710.7, -3.236e-08
4712.7, -3.591e-08
4714.7, -3.579e-08
4716.7, -3.644e-08
4718.7, -3.411e-08
4720.7, -3.194e-08
4722.7, -3.296e-08
4724.7, -3.2e-08
4726.7, -3.198e-08
4728.7, -3.155e-08
4730.7, -3.268e-08
4732.7, -3.095e-08
4734.7, -3.039e-08
4736.7, -3.226e-08
4738.7, -3.417e-08
4740.7, -3.309e-08
4742.7, -3.43e-08
4744.7, -3.509e-08
4746.7, -3.432e-08
4748.7, -3.396e-08
4750.7, -3.355e-08
4752.7, -3.758e-08
4754.7, -3.556e-08
4756.8, -3.778e-08
4758.8, -3.572e-08
4760.8, -3.84e-08
4762.8, -3.778e-08
4764.8, -4.325e-08
4766.8, -4.066e-08
4768.8, -3.602e-08
4770.8, -3.93e-08
4772.8, -3.906e-08
4774.8, -4.156e-08
4776.8, -3.962e-08
4778.8, -3.808e-08
4780.8, -3.383e-08
4782.8, -3.562e-08
4784.8, -3.756e-08
4786.8, -3.172e-08
4788.8, -3.39e-08
4790.8, -3.516e-08
4792.8, -3.286e-08
4794.8, -3.515e-08
4796.8, -3.613e-08
4798.8, -3.561e-08
4800.8, -3.268e-08
4802.8, -3.578e-08
4804.8, -3.748e-08
4806.8, -3.75e-08
4808.8, -3.548e-08
4810.8, -3.304e-08
4812.8, -3.955e-08
4814.8, -3.918e-08
4816.8, -3.713e-08
4818.8, -3.697e-08
4820.8, -3.428e-08
4822.8, -3.774e-08
4824.8, -4.016e-08
4826.8, -3.646e-08
4828.8, -3.375e-08
4830.8, -3.428e-08
4832.8, -3.723e-08
4834.8, -3.449e-08
4836.8, -3.617e-08
4838.8, -3.495e-08
4840.8, -3.475e-08
4842.8, -3.584e-08
4844.8, -3.397e-08
4846.8, -3.418e-08
4848.8, -2.988e-08
4850.8, -3.383e-08
4852.8, -3.264e-08
4854.8, -3.221e-08
4856.9, -3.109e-08
4858.9, -3.475e-08
4860.9, -3.363e-08
4862.9, -3.11e-08
4864.9, -2.883e-08
4866.9, -3.385e-08
4868.9, -3.217e-08
4870.9, -3.04e-08
4872.9, -2.987e-08
4874.9, -3.018e-08
4876.9, -3.257e-08
4878.9, -3.597e-08
4880.9, -3.009e-08
4882.9, -3.229e-08
4884.9, -3.276e-08
4886.9, -3.238e-08
4888.9, -3.057e-08
4890.9, -3.152e-08
4892.9, -3.5e-08
4894.9, -3.538e-08
4896.9, -3.611e-08
4898.9, -3.493e-08
4900.9, -3.53e-08
4902.9, -3.955e-08
4904.9, -3.465e-08
4906.9, -3.537e-08
4908.9, -3.632e-08
4910.9, -3.822e-08
4912.9, -3.321e-08
4914.9, -3.157e-08
4916.9, -3.606e-08
4918.9, -3.26e-08
4920.9, -3.352e-08
4922.9, -3.368e-08
4924.9, -3.371e-08
4926.9, -3.575e-08
4928.9, -3.66e-08
4930.9, -3.348e-08
4932.9, -3.747e-08
4934.9, -3.801e-08
4936.9, -3.745e-08
4938.9, -3.749e-08
4940.9, -3.706e-08
4942.9, -4.094e-08
4944.9, -3.636e-08
4946.9, -3.799e-08
4948.9, -3.486e-08
4950.9, -3.885e-08
4952.9, -3.743e-08
4954.9, -4.036e-08
4957.0, -3.505e-08
4959.0, -3.888e-08
4961.0, -3.935e-08
4963.0, -4.004e-08
4965.0, -3.779e-08
4967.0, -4.045e-08
4969.0, -3.415e-08
4971.0, -3.89e-08
4973.0, -4.155e-08
4975.0, -3.918e-08
4977.0, -4.218e-08
4979.0, -4.351e-08
4981.0, -4.114e-08
4983.0, -3.818e-08
4985.0, -3.651e-08
4987.0, -3.917e-08
4989.0, -3.982e-08
4991.0, -3.654e-08
4993.0, -4.059e-08
4995.0, -3.788e-08
4997.0, -3.624e-08
4999.0, -3.781e-08
5001.0, -3.51e-08
5003.0, -3.668e-08
5005.0, -4.229e-08
5007.0, -3.538e-08
5009.0, -3.945e-08
5011.0, -3.58e-08
5013.0, -3.673e-08
5015.0, -3.438e-08
5017.0, -3.52e-08
5019.0, -4.335e-08
5021.0, -3.453e-08
5023.0, -3.755e-08
5025.0, -4.245e-08
5027.0, -3.837e-08
5029.0, -4.055e-08
5031.0, -3.646e-08
5033.0, -3.582e-08
5035.0, -3.689e-08
5037.0, -3.504e-08
5039.0, -3.74e-08
5041.0, -3.675e-08
5043.0, -3.651e-08
5045.0, -3.356e-08
5047.0, -3.417e-08
5049.0, -3.384e-08
5051.0, -3.332e-08
5053.0, -3.369e-08
5055.0, -3.625e-08
5057.1, -3.841e-08
5059.1, -3.576e-08
5061.1, -3.635e-08
5063.1, -3.721e-08
5065.1, -3.369e-08
5067.1, -3.517e-08
5069.1, -3.764e-08
5071.1, -3.611e-08
5073.1, -3.202e-08
5075.1, -3.843e-08
5077.1, -3.5e-08
5079.1, -3.569e-08
5081.1, -3.318e-08
5083.1, -3.287e-08
5085.1, -3.532e-08
5087.1, -3.692e-08
5089.1, -3.63e-08
5091.1, -3.618e-08
5093.1, -3.793e-08
5095.1, -4.025e-08
5097.1, -4.014e-08
5099.1, -4.081e-08
5101.1, 1.8293e-07
5103.1, 4.0161e-07
5105.1, 4.0571e-07
5107.1, 4.212e-07
5109.1, 3.6658e-07
5111.1, 4.0248e-07
5113.1, 3.933e-07
5115.1, 3.8968e-07
5117.1, 4.2069e-07
5119.1, 4.4354e-07
5121.1, 4.6956e-07
5123.1, 4.0924e-07
5125.1, 3.7679e-07
5127.1, 4.1197e-07
5129.1, 3.9806e-07
5131.1, 4.2413e-07
5133.1, 4.0175e-07
5135.1, 4.1936e-07
5137.1, 4.3614e-07
5139.1, 4.1794e-07
5141.1, 4.0216e-07
5143.1, 3.7745e-07
5145.1, 4.0065e-07
5147.1, 4.0324e-07
5149.1, 3.9248e-07
5151.1, 4.007e-07
5153.1, 3.8674e-07
5155.1, 4.0697e-07
5157.2, 4.3279e-07
5159.2, 3.877e-07
5161.2, 4.0237e-07
5163.2, 3.9944e-07
5165.2, 4.1604e-07
5167.2, 3.6379e-07
5169.2, 3.8413e-07
5171.2, 4.0197e-07
5173.2, 4.3978e-07
5175.2, 3.7366e-07
5177.2, 4.102e-07
5179.2, 4.2485e-07
5181.2, 4.7033e-07
5183.2, 4.4226e-07
5185.2, 4.1921e-07
5187.2, 4.4044e-07
5189.2, 3.947e-07
5191.2, 4.1411e-07
5193.2, 4.2513e-07
5195.2, 4.34e-07
5197.2, 4.0478e-07
5199.2, 3.8288e-07
5201.2, 4.1767e-07
5203.2, 4.2532e-07
5205.2, 4.0587e-07
5207.2, 4.2259e-07
5209.2, 4.2252e-07
5211.2, 4.4369e-07
5213.2, 4.0932e-07
5215.2, 4.3305e-07
5217.2, 4.31e-07
5219.2, 4.3125e-07
5221.2, 3.8666e-07
5223.2, 4.5108e-07
5225.2, 4.1919e-07
5227.2, 4.3031e-07
5229.2, 4.4857e-07
5231.2, 4.3055e-07
5233.2, 3.5094e-07
5235.2, 4.1273e-07
5237.2, 4.346e-07
5239.2, 4.2048e-07
5241.2, 4.2959e-07
5243.2, 4.618e-07
5245.2, 4.4275e-07
5247.2, 4.7168e-07
5249.2, 3.9689e-07
5251.2, 4.2258e-07
5253.2, 4.7383e-07
5255.2, 3.7042e-07
5257.3, 4.4677e-07
5259.3, 4.1318e-07
5261.3, 4.0234e-07
5263.3, 3.8614e-07
5265.3, 4.0744e-07
5267.3, 4.5037e-07
5269.3, 4.1534e-07
5271.3, 3.942e-07
5273.3, 4.0711e-07
5275.3, 4.4199e-07
5277.3, 4.1971e-07
5279.3, 4.1565e-07
5281.3, 4.093e-07
5283.3, 4.3203e-07
5285.3, 4.15e-07
5287.3, 4.4209e-07
5289.3, 4.3269e-07
5291.3, 4.1258e-07
5293.3, 4.0722e-07
5295.3, 4.1046e-07
5297.3, 4.4949e-07
5299.3, 4.4151e-07
5301.3, 4.1459e-07
5303.3, 4.3582e-07
5305.3, 4.7179e-07
5307.3, 3.9988e-07
5309.3, 3.8884e-07
5311.3, 4.653e-07
5313.3, 4.0967e-07
5315.3, 4.8607e-07
5317.3, 4.6702e-07
5319.3, 4.153e-07
5321.3, 4.2045e-07
5323.3, 3.881e-07
5325.3, 4.112e-07
5327.3, 4.3443e-07
5329.3, 4.7281e-07
5331.3, 4.8462e-07
5333.3, 4.0451e-07
5335.3, 4.2752e-07
5337.3, 4.2137e-07
5339.3, 4.6272e-07
5341.3, 4.5578e-07
5343.3, 4.2927e-07
5345.3, 4.3816e-07
5347.3, 4.0063e-07
5349.3, 4.4182e-07
5351.3, 4.2521e-07
5353.3, 4.533e-07
5355.3, 4.7505e-07
5357.4, 4.327e-07
5359.4, 4.5519e-07
5361.4, 4.1855e-07
5363.4, 4.4933e-07
5365.4, 4.1523e-07
5367.4, 4.185e-07
5369.4, 4.1257e-07
5371.4, 4.445e-07
5373.4, 4.535e-07
5375.4, 4.6246e-07
5377.4, 4.3574e-07
5379.4, 4.278e-07
5381.4, 4.1775e-07
5383.4, 4.6937e-07
5385.4, 4.6157e-07
5387.4, 4.2277e-07
5389.4, 4.4284e-07
5391.4, 4.6638e-07
5393.4, 4.5627e-07
5395.4, 4.1402e-07
5397.4, 4.211e-07
5399.4, 4.2478e-07
5401.4, 4.2167e-07
5403.4, 4.0364e-07
5405.4, 4.6703e-07
5407.4, 4.2452e-07
5409.4, 4.3021e-07
5411.4, 4.24e-07
5413.4, 4.363e-07
5415.4, 4.352e-07
5417.4, 4.547e-07
5419.4, 4.4708e-07
5421.4, 4.3297e-07
5423.4, 4.4098e-07
5425.4, 4.29e-07
5427.4, 4.7341e-07
5429.4, 4.0989e-07
5431.4, 4.002e-07
5433.4, 4.3494e-07
5435.4, 4.0744e-07
5437.4, 4.466e-07
5439.4, 4.4348e-07
5441.4, 4.801e-07
5443.4, 4.3197e-07
5445.4, 4.1962e-07
5447.4, 4.3907e-07
5449.4, 4.4695e-07
5451.4, 4.0362e-07
5453.4, 4.3639e-07
5455.4, 4.4763e-07
5457.5, 4.7757e-07
5459.5, 4.0981e-07
5461.5, 4.9524e-07
5463.5, 5.0251e-07
5465.5, 4.6019e-07
5467.5, 4.2788e-07
5469.5, 4.2707e-07
5471.5, 4.4578e-07
5473.5, 4.5332e-07
5475.5, 4.3894e-07
5477.5, 4.4767e-07
5479.5, 4.628e-07
5481.5, 4.0429e-07
5483.5, 4.4214e-07
5485.5, 3.9686e-07
5487.5, 4.291e-07
5489.5, 4.1209e-07
5491.5, 4.2451e-07
5493.5, 4.4308e-07
5495.5, 4.711e-07
5497.5, 4.2114e-07
5499.5, 4.735e-07
5501.5, 4.232e-07
5503.5, 4.7358e-07
5505.5, 4.3656e-07
5507.5, 4.3749e-07
5509.5, 4.405e-07
5511.5, 3.9675e-07
5513.5, 4.6177e-07
5515.5, 4.5006e-07
5517.5, 4.1267e-07
5519.5, 4.5877e-07
5521.5, 4.3203e-07
5523.5, 4.9276e-07
5525.5, 4.6091e-07
5527.5, 4.8292e-07
5529.5, 4.0091e-07
5531.5, 4.5262e-07
5533.5, 4.3935e-07
5535.5, 4.751e-07
5537.5, 4.2211e-07
5539.5, 4.332e-07
5541.5, 4.3756e-07
5543.5, 4.1873e-07
5545.5, 4.591e-07
5547.5, 4.1165e-07
5549.5, 4.5761e-07
5551.5, 4.1432e-07
5553.5, 4.5876e-07
5555.5, 4.4964e-07
5557.6, 4.2826e-07
5559.6, 4.01e-07
5561.6, 4.1128e-07
5563.6, 4.4091e-07
5565.6, 4.4838e-07
5567.6, 4.4505e-07
5569.6, 4.3309e-07
5571.6, 4.42e-07
5573.6, 4.1464e-07
5575.6, 4.2196e-07
5577.6, 4.1973e-07
5579.6, 4.3479e-07
5581.6, 4.2586e-07
5583.6, 4.2756e-07
5585.6, 4.6773e-07
5587.6, 4.1978e-07
5589.6, 4.4483e-07
5591.6, 4.745e-07
5593.6, 5.0628e-07
5595.6, 4.9515e-07
5597.6, 4.1928e-07
5599.6, 4.2305e-07
5601.6, 4.6628e-07
5603.6, 4.4929e-07
5605.6, 4.3487e-07
5607.6, 4.9697e-07
5609.6, 4.5431e-07
5611.6, 4.0248e-07
5613.6, 4.4221e-07
5615.6, 4.2882e-07
5617.6, 4.3846e-07
5619.6, 4.3251e-07
5621.6, 4.5574e-07
5623.6, 4.703e-07
5625.6, 4.6892e-07
5627.6, 4.4693e-07
5629.6, 4.7663e-07
5631.6, 5.1885e-07
5633.6, 4.1485e-07
5635.6, 3.8496e-07
5637.6, 4.376e-07
5639.6, 4.5671e-07
5641.6, 4.3196e-07
5643.6, 4.4653e-07
5645.6, 4.5262e-07
5647.6, 3.9401e-07
5649.6, 4.289e-07
5651.6, 4.3893e-07
5653.6, 4.1811e-07
5655.6, 4.6728e-07
5657.7, 4.1997e-07
5659.7, 4.2994e-07
5661.7, 4.1016e-07
5663.7, 4.5295e-07
5665.7, 4.2523e-07
5667.7, 4.209e-07
5669.7, 4.4727e-07
5671.7, 4.3721e-07
5673.7, 4.4916e-07
5675.7, 4.3672e-07
5677.7, 4.3497e-07
5679.7, 4.1831e-07
5681.7, 4.4859e-07
5683.7, 4.0622e-07
5685.7, 3.9763e-07
5687.7, 4.6037e-07
5689.7, 4.5018e-07
5691.7, 4.3193e-07
5693.7, 4.454e-07
5695.7, 4.5141e-07
5697.7, 4.3483e-07
5699.7, 4.1978e-07
5701.7, 4.0595e-07
5703.7, 4.5322e-07
5705.7, 4.2502e-07
5707.7, 4.6934e-07
5709.7, 4.6636e-07
5711.7, 4.7452e-07
5713.7, 4.267e-07
5715.7, 4.9178e-07
5717.7, 4.5898e-07
5719.7, 4.3627e-07
5721.7, 4.2668e-07
5723.7, 4.8309e-07
5725.7, 4.3361e-07
5727.7, 4.2751e-07
5729.7, 3.9644e-07
5731.7, 4.1379e-07
5733.7, 4.5659e-07
5735.7, 4.7165e-07
5737.7, 4.4787e-07
5739.7, 4.175e-07
5741.7, 4.5774e-07
5743.7, 4.3971e-07
5745.7, 4.4359e-07
5747.7, 4.4007e-07
5749.7, 4.5551e-07
5751.7, 4.3316e-07
5753.7, 4.2588e-07
5755.7, 4.2636e-07
5757.8, 4.2722e-07
5759.8, 4.1534e-07
5761.8, 3.978e-07
5763.8, 4.642e-07
5765.8, 5.0514e-07
5767.8, 4.6864e-07
5769.8, 4.2791e-07
5771.8, 4.3458e-07
5773.8, 4.4398e-07
5775.8, 4.2384e-07
5777.8, 4.7191e-07
5779.8, 4.4382e-07
5781.8, 4.0719e-07
5783.8, 4.5988e-07
5785.8, 4.4722e-07
5787.8, 4.6258e-07
5789.8, 4.6502e-07
5791.8, 4.1269e-07
5793.8, 4.6785e-07
5795.8, 4.2908e-07
5797.8, 4.599e-07
5799.8, 4.6198e-07
5801.8, 4.3204e-07
5803.8, 4.4897e-07
5805.8, 4.3172e-07
5807.8, 4.7158e-07
5809.8, 4.9742e-07
5811.8, 4.2106e-07
5813.8, 4.2924e-07
5815.8, 4.5539e-07
5817.8, 4.8232e-07
5819.8, 4.6158e-07
5821.8, 4.5077e-07
5823.8, 4.0639e-07
5825.8, 4.9005e-07
5827.8, 4.5499e-07
5829.8, 4.8234e-07
5831.8, 4.1952e-07
5833.8, 4.7181e-07
5835.8, 4.2092e-07
5837.8, 4.3124e-07
5839.8, 4.2053e-07
5841.8, 4.0837e-07
5843.8, 4.7361e-07
5845.8, 4.8424e-07
5847.8, 4.8194e-07
5849.8, 4.0161e-07
5851.8, 4.6937e-07
5853.8, 4.4166e-07
5855.8, 4.4821e-07
5857.9, 4.4289e-07
5859.9, 4.3631e-07
5861.9, 4.6881e-07
5863.9, 4.2159e-07
5865.9, 4.6145e-07
5867.9, 4.5489e-07
5869.9, 4.7459e-07
5871.9, 4.1979e-07
5873.9, 4.3279e-07
5875.9, 4.883e-07
5877.9, 4.4521e-07
5879.9, 4.4759e-07
5881.9, 4.2383e-07
5883.9, 4.3835e-07
5885.9, 4.5607e-07
5887.9, 4.3616e-07
5889.9, 4.7196e-07
5891.9, 4.213e-07
5893.9, 4.5171e-07
5895.9, 4.4539e-07
5897.9, 4.9071e-07
5899.9, 4.3678e-07
5901.9, 4.7318e-07
5903.9, 4.5164e-07
5905.9, 4.4953e-07
5907.9, 4.8474e-07
5909.9, 4.7937e-07
5911.9, 4.6788e-07
5913.9, 4.5301e-07
5915.9, 4.6345e-07
5917.9, 4.055e-07
5919.9, 4.5387e-07
5921.9, 4.4158e-07
5923.9, 4.8778e-07
5925.9, 4.3338e-07
5927.9, 4.3223e-07
5929.9, 4.7131e-07
5931.9, 4.4848e-07
5933.9, 4.6414e-07
5935.9, 4.3037e-07
5937.9, 4.2422e-07
5939.9, 4.3402e-07
5941.9, 4.2328e-07
5943.9, 4.4662e-07
5945.9, 4.2387e-07
5947.9, 4.3865e-07
5949.9, 4.2835e-07
5951.9, 4.3978e-07
5953.9, 4.2852e-07
5955.9, 4.5744e-07
5958.0, 4.8965e-07
5960.0, 4.7693e-07
5962.0, 4.7296e-07
5964.0, 4.5346e-07
5966.0, 4.2744e-07
5968.0, 4.537e-07
5970.0, 4.2031e-07
5972.0, 5.1588e-07
5974.0, 4.1265e-07
5976.0, 4.1547e-07
5978.0, 4.1697e-07
5980.0, 3.9734e-07
5982.0, 4.4295e-07
5984.0, 4.2752e-07
5986.0, 4.2354e-07
5988.0, 4.4519e-07
5990.0, 4.5198e-07
5992.0, 4.4182e-07
5994.0, 4.5922e-07
5996.0, 4.1305e-07
5998.0, 4.0229e-07
6000.0, 3.9661e-07
6002.0, 4.8522e-07
6004.0, 4.7279e-07
6006.0, 3.9999e-07
6008.0, 4.059e-07
6010.0, 4.7042e-07
6012.0, 4.8019e-07
6014.0, 4.5718e-07
6016.0, 4.2249e-07
6018.0, 4.105e-07
6020.0, 4.9091e-07
6022.0, 4.53e-07
6024.0, 4.7316e-07
6026.0, 4.5092e-07
6028.0, 4.4456e-07
6030.0, 4.7207e-07
6032.0, 4.4001e-07
6034.0, 4.4326e-07
6036.0, 4.1642e-07
6038.0, 4.2637e-07
6040.0, 4.3818e-07
6042.0, 4.4236e-07
6044.0, 4.4615e-07
6046.0, 4.5163e-07
6048.0, 4.674e-07
6050.0, 4.7678e-07
6052.0, 4.9361e-07
6054.0, 4.1882e-07
6056.0, 4.3335e-07
6058.1, 4.4658e-07
6060.1, 4.3551e-07
6062.1, 4.3353e-07
6064.1, 4.4462e-07
6066.1, 4.3945e-07
6068.1, 4.7038e-07
6070.1, 4.789e-07
6072.1, 4.5499e-07
6074.1, 4.8671e-07
6076.1, 4.7428e-07
6078.1, 4.6435e-07
6080.1, 4.0645e-07
6082.1, 4.5203e-07
6084.1, 4.2097e-07
6086.1, 4.7819e-07
6088.1, 4.4477e-07
6090.1, 5.0231e-07
6092.1, 5.3243e-07
6094.1, 4.7008e-07
6096.1, 4.1449e-07
6098.1, 4.8084e-07
6100.1, 4.7192e-07
6102.1, 2.0815e-07
6104.1, -3.441e-08
6106.1, -3.355e-08
6108.1, -3.346e-08
6110.1, -3.4e-08
6112.1, -3.52e-08
6114.1, -3.311e-08
6116.1, -3.676e-08
6118.1, -3.665e-08
6120.1, -3.496e-08
6122.1, -3.518e-08
6124.1, -3.127e-08
6126.1, -3.508e-08
6128.1, -3.338e-08
6130.1, -3.185e-08
6132.1, -3.457e-08
6134.1, -2.956e-08
6136.1, -3.082e-08
6138.1, -3.062e-08
6140.1, -3.192e-08
6142.1, -3.171e-08
6144.1, -3.213e-08
6146.1, -3.311e-08
6148.1, -2.914e-08
6150.1, -3.201e-08
6152.1, -3.381e-08
6154.1, -3.228e-08
6156.1, -3.472e-08
6158.2, -3.321e-08
6160.2, -3.3e-08
6162.2, -3.508e-08
6164.2, -3.378e-08
6166.2, -3.419e-08
6168.2, -3.258e-08
6170.2, -3.472e-08
6172.2, -3.341e-08
6174.2, -3.52e-08
6176.2, -3.518e-08
6178.2, -3.471e-08
6180.2, -2.889e-08
6182.2, -3.446e-08
6184.2, -3.501e-08
6186.2, -3.651e-08
6188.2, -2.913e-08
6190.2, -3.281e-08
6192.2, -3.367e-08
6194.2, -3.436e-08
6196.2, -3.515e-08
6198.2, -3.298e-08
6200.2, -2.945e-08
6202.2, -3.38e-08
6204.2, -3.473e-08
6206.2, -3.596e-08
6208.2, -3.551e-08
6210.2, -3.311e-08
6212.2, -3.337e-08
6214.2, -3.608e-08
6216.2, -3.441e-08
6218.2, -3.695e-08
6220.2, -3.329e-08
6222.2, -3.31e-08
6224.2, -3.291e-08
6226.2, -3.798e-08
6228.2, -3.875e-08
6230.2, -4.156e-08
6232.2, -3.564e-08
6234.2, -4.024e-08
6236.2, -3.505e-08
6238.2, -3.691e-08
6240.2, -3.648e-08
6242.2, -3.259e-08
6244.2, -3.258e-08
6246.2, -3.348e-08
6248.2, -3.372e-08
6250.2, -3.451e-08
6252.2, -3.516e-08
6254.2, -3.325e-08
6256.2, -3.031e-08
6258.3, -3.234e-08
6260.3, -3.427e-08
6262.3, -2.977e-08
6264.3, -3.244e-08
6266.3, -3.403e-08
6268.3, -3.186e-08
6270.3, -3.319e-08
6272.3, -3.211e-08
6274.3, -3.577e-08
6276.3, -3.427e-08
6278.3, -3.187e-08
6280.3, -3.117e-08
6282.3, -3.41e-08
6284.3, -3.158e-08
6286.3, -3.076e-08
6288.3, -3.528e-08
6290.3, -3.105e-08
6292.3, -3.217e-08
6294.3, -2.945e-08
6296.3, -3.307e-08
6298.3, -3.184e-08
6300.3, -3.169e-08
6302.3, -3.259e-08
6304.3, -3.139e-08
6306.3, -3.358e-08
6308.3, -3.421e-08
6310.3, -3.642e-08
6312.3, -3.124e-08
6314.3, -3.145e-08
6316.3, -3.251e-08
6318.3, -3.169e-08
6320.3, -3.321e-08
6322.3, -3.076e-08
6324.3, -3.179e-08
6326.3, -3.739e-08
6328.3, -3.073e-08
6330.3, -3.147e-08
6332.3, -3.536e-08
6334.3, -3.403e-08
6336.3, -3.437e-08
6338.3, -3.304e-08
6340.3, -2.7e-08
6342.3, -3.111e-08
6344.3, -3.252e-08
6346.3, -3.026e-08
6348.3, -2.977e-08
6350.3, -3.01e-08
6352.3, -3.091e-08
6354.3, -2.963e-08
6356.3, -3.03e-08
6358.4, -3.567e-08
6360.4, -3.007e-08
6362.4, -3.109e-08
6364.4, -2.933e-08
6366.4, -3.013e-08
6368.4, -3.186e-08
6370.4, -3.317e-08
6372.4, -3.356e-08
6374.4, -3.628e-08
6376.4, -3.294e-08
6378.4, -3.317e-08
6380.4, -3.393e-08
6382.4, -2.914e-08
6384.4, -2.712e-08
6386.4, -3.259e-08
6388.4, -3.271e-08
6390.4, -3.022e-08
6392.4, -3.167e-08
6394.4, -3.061e-08
6396.4, -3.294e-08
6398.4, -3.518e-08
6400.4, -3.316e-08
6402.4, -3.307e-08
6404.4, -3.058e-08
6406.4, -3.149e-08
6408.4, -3.025e-08
6410.4, -3.078e-08
6412.4, -3.028e-08
6414.4, -3.107e-08
6416.4, -2.996e-08
6418.4, -3.185e-08
6420.4, -3.408e-08
6422.4, -3.016e-08
6424.4, -3.249e-08
6426.4, -3.079e-08
6428.4, -3.395e-08
6430.4, -3.253e-08
6432.4, -3.4e-08
6434.4, -3.077e-08
6436.4, -3.184e-08
6438.4, -3.269e-08
6440.4, -3.165e-08
6442.4, -3.299e-08
6444.4, -3.486e-08
6446.4, -3.005e-08
6448.4, -3.108e-08
6450.4, -3.027e-08
6452.4, -3.204e-08
6454.4, -3.098e-08
6456.4, -3.038e-08
6458.5, -3.481e-08
6460.5, -3.277e-08
6462.5, -2.974e-08
6464.5, -2.999e-08
6466.5, -3.261e-08
6468.5, -3.064e-08
6470.5, -3.051e-08
6472.5, -2.767e-08
6474.5, -3.132e-08
6476.5, -3.316e-08
6478.5, -3.2e-08
6480.5, -3.013e-08
6482.5, -3.321e-08
6484.5, -3.243e-08
6486.5, -3.63e-08
6488.5, -3.767e-08
6490.5, -3.186e-08
6492.5, -3.58e-08
6494.5, -3.784e-08
6496.5, -3.77e-08
6498.5, -3.825e-08
6500.5, -3.877e-08
6502.5, -3.956e-08
6504.5, -3.573e-08
6506.5, -3.673e-08
6508.5, -3.431e-08
6510.5, -3.743e-08
6512.5, -3.141e-08
6514.5, -3.241e-08
6516.5, -3.454e-08
6518.5, -3.294e-08
6520.5, -3.026e-08
6522.5, -2.93e-08
6524.5, -3.265e-08
6526.5, -3.196e-08
6528.5, -3.281e-08
6530.5, -3.119e-08
6532.5, -2.865e-08
6534.5, -3.264e-08
6536.5, -3.24e-08
6538.5, -3.245e-08
6540.5, -3.021e-08
6542.5, -2.646e-08
6544.5, -2.883e-08
6546.5, -2.876e-08
6548.5, -3.015e-08
6550.5, -3.539e-08
6552.5, -3.502e-08
6554.5, -3.715e-08
6556.5, -3.429e-08
6558.6, -3.564e-08
6560.6, -3.498e-08
6562.6, -3.18e-08
6564.6, -3.209e-08
6566.6, -3.583e-08
6568.6, -3.553e-08
6570.6, -3.227e-08
6572.6, -3.448e-08
6574.6, -3.554e-08
6576.6, -3.508e-08
6578.6, -3.441e-08
6580.6, -3.835e-08
6582.6, -3.543e-08
6584.6, -3.743e-08
6586.6, -3.522e-08
6588.6, -3.762e-08
6590.6, -3.696e-08
6592.6, -3.609e-08
6594.6, -3.557e-08
6596.6, -3.059e-08
6598.6, -3.665e-08
6600.6, -3.596e-08
6602.6, -3.834e-08
6604.6, -3.479e-08
6606.6, -3.617e-08
6608.6, -3.711e-08
6610.6, -3.423e-08
6612.6, -3.146e-08
6614.6, -3.534e-08
6616.6, -3.065e-08
6618.6, -3.495e-08
6620.6, -3.8e-08
6622.6, -3.82e-08
6624.6, -3.392e-08
6626.6, -3.551e-08
6628.6, -3.523e-08
6630.6, -3.6e-08
6632.6, -3.545e-08
6634.6, -3.44e-08
6636.6, -3.393e-08
6638.6, -3.627e-08
6640.6, -3.893e-08
6642.6, -3.909e-08
6644.6, -3.499e-08
6646.6, -3.68e-08
6648.6, -3.461e-08
6650.6, -3.584e-08
6652.6, -3.904e-08
6654.6, -3.6e-08
6656.6, -3.802e-08
6658.7, -3.597e-08
6660.7, -3.179e-08
6662.7, -3.656e-08
6664.7, -3.608e-08
6666.7, -3.564e-08
6668.7, -3.529e-08
6670.7, -3.547e-08
6672.7, -3.895e-08
6674.7, -4.02e-08
6676.7, -3.555e-08
6678.7, -3.255e-08
6680.7, -3.299e-08
6682.7, -3.587e-08
6684.7, -3.177e-08
6686.7, -3.37e-08
6688.7, -3.368e-08
6690.7, -3.622e-08
6692.7, -3.364e-08
6694.7, -3.7e-08
6696.7, -3.863e-08
6698.7, -3.558e-08
6700.7, -3.495e-08
6702.7, -3.724e-08
6704.7, -3.76e-08
6706.7, -3.721e-08
6708.7, -3.287e-08
6710.7, -3.62e-08
6712.7, -3.954e-08
6714.7, -3.708e-08
6716.7, -3.664e-08
6718.7, -3.642e-08
6720.7, -3.526e-08
6722.7, -3.465e-08
6724.7, -3.547e-08
6726.7, -3.474e-08
6728.7, -3.297e-08
6730.7, -3.627e-08
6732.7, -4.131e-08
6734.7, -3.681e-08
6736.7, -3.762e-08
6738.7, -3.24e-08
6740.7, -3.566e-08
6742.7, -3.833e-08
6744.7, -3.313e-08
6746.7, -3.122e-08
6748.7, -3.136e-08
6750.7, -3.589e-08
6752.7, -3.416e-08
6754.7, -3.461e-08
6756.7, -3.564e-08
6758.8, -3.442e-08
6760.8, -3.208e-08
6762.8, -3.398e-08
6764.8, -3.313e-08
6766.8, -3.845e-08
6768.8, -3.715e-08
6770.8, -3.206e-08
6772.8, -3.274e-08
6774.8, -3.198e-08
6776.8, -3.595e-08
6778.8, -3.668e-08
6780.8, -3.693e-08
6782.8, -3.498e-08
6784.8, -3.696e-08
6786.8, -3.62e-08
6788.8, -3.651e-08
6790.8, -3.44e-08
6792.8, -3.549e-08
6794.8, -3.295e-08
6796.8, -3.527e-08
6798.8, -3.315e-08
6800.8, -3.39e-08
6802.8, -3.326e-08
6804.8, -3.421e-08
6806.8, -3.56e-08
6808.8, -3.742e-08
6810.8, -3.523e-08
6812.8, -3.316e-08
6814.8, -3.078e-08
6816.8, -3.467e-08
6818.8, -3.324e-08
6820.8, -3.062e-08
6822.8, -3.407e-08
6824.8, -3.497e-08
6826.8, -3.455e-08
6828.8, -3.264e-08
6830.8, -3.819e-08
6832.8, -3.582e-08
6834.8, -3.599e-08
6836.8, -3.66e-08
6838.8, -3.799e-08
6840.8, -3.753e-08
6842.8, -3.804e-08
6844.8, -3.845e-08
6846.8, -3.856e-08
6848.8, -3.726e-08
6850.8, -3.676e-08
6852.8, -3.78e-08
6854.8, -4.066e-08
6856.8, -3.842e-08
6858.9, -3.622e-08
6860.9, -3.782e-08
6862.9, -3.478e-08
6864.9, -3.689e-08
6866.9, -3.849e-08
6868.9, -3.792e-08
6870.9, -3.779e-08
6872.9, -3.619e-08
6874.9, -3.66e-08
6876.9, -3.765e-08
6878.9, -3.769e-08
6880.9, -3.822e-08
6882.9, -3.553e-08
6884.9, -3.219e-08
6886.9, -3.15e-08
6888.9, -3.627e-08
6890.9, -3.548e-08
6892.9, -3.733e-08
6894.9, -3.439e-08
6896.9, -3.478e-08
6898.9, -3.72e-08
6900.9, -3.822e-08
6902.9, -3.254e-08
6904.9, -3.318e-08
6906.9, -3.334e-08
6908.9, -3.306e-08
6910.9, -3.389e-08
6912.9, -3.431e-08
6914.9, -2.951e-08
6916.9, -3.463e-08
6918.9, -3.4e-08
6920.9, -3.245e-08
6922.9, -3.144e-08
6924.9, -3.109e-08
6926.9, -3.327e-08
6928.9, -3.72e-08
6930.9, -3.389e-08
6932.9, -3.283e-08
6934.9, -2.92e-08
6936.9, -3.045e-08
6938.9, -3.235e-08
6940.9, -3.276e-08
6942.9, -3.198e-08
6944.9, -3.325e-08
6946.9, -3.588e-08
6948.9, -3.61e-08
6950.9, -3.574e-08
6952.9, -3.655e-08
6954.9, -3.911e-08
6956.9, -3.394e-08
6959.0, -3.346e-08
6961.0, -3.482e-08
6963.0, -3.282e-08
6965.0, -3.308e-08
6967.0, -3.568e-08
6969.0, -3.072e-08
6971.0, -3.489e-08
6973.0, -3.633e-08
6975.0, -3.695e-08
6977.0, -3.593e-08
6979.0, -3.404e-08
6981.0, -3.453e-08
6983.0, -3.151e-08
6985.0, -3.459e-08
6987.0, -3.518e-08
6989.0, -3.526e-08
6991.0, -3.563e-08
6993.0, -3.29e-08
6995.0, -3.479e-08
6997.0, -3.139e-08
6999.0, -3.306e-08
7001.0, -3.25e-08
7003.0, -3.146e-08
7005.0, -3.324e-08
7007.0, -3.744e-08
7009.0, -3.655e-08
7011.0, -3.489e-08
7013.0, -3.841e-08
7015.0, -3.204e-08
7017.0, -3.063e-08
7019.0, -3.351e-08
7021.0, -3.515e-08
7023.0, -3.499e-08
7025.0, -3.338e-08
7027.0, -3.536e-08
7029.0, -3.502e-08
7031.0, -3.194e-08
7033.0, -3.535e-08
7035.0, -3.555e-08
7037.0, -3.138e-08
7039.0, -3.358e-08
7041.0, -3.242e-08
7043.0, -3.41e-08
7045.0, -3.2e-08
7047.0, -3.678e-08
7049.0, -3.733e-08
7051.0, -3.938e-08
7053.0, -3.638e-08
7055.0, -3.785e-08
7057.0, -3.407e-08
7059.1, -3.863e-08
7061.1, -3.69e-08
7063.1, -3.83e-08
7065.1, -3.742e-08
7067.1, -3.576e-08
7069.1, -3.618e-08
7071.1, -3.535e-08
7073.1, -3.626e-08
7075.1, -3.126e-08
7077.1, -3.45e-08
7079.1, -3.436e-08
7081.1, -3.36e-08
7083.1, -3.568e-08
7085.1, -3.606e-08
7087.1, -3.654e-08
7089.1, -3.176e-08
7091.1, -3.515e-08
7093.1, -3.168e-08
7095.1, -3.498e-08
7097.1, -3.308e-08
7099.1, -3.408e-08
7101.1, -2.935e-08
7103.1, -2.887e-08
7105.1, -3.087e-08
7107.1, -3.384e-08
7109.1, -2.877e-08
7111.1, -3.155e-08
7113.1, -3.015e-08
7115.1, -3.244e-08
7117.1, -3.154e-08
7119.1, -3.266e-08
7121.1, -3.316e-08
7123.1, -2.927e-08
7125.1, -3.218e-08
7127.1, -3.56e-08
7129.1, -3.327e-08
7131.1, -3.37e-08
7133.1, 2.3945e-07
7135.1, 4.3835e-07
7137.1, 3.6865e-07
7139.1, 4.0631e-07
7141.1, 4.0053e-07
7143.1, 4.0618e-07
7145.1, 3.856e-07
7147.1, 4.4357e-07
7149.1, 4.2281e-07
7151.1, 3.8633e-07
7153.1, 4.5643e-07
7155.1, 4.4014e-07
7157.1, 3.8478e-07
7159.2, 4.0953e-07
7161.2, 4.0163e-07
7163.2, 4.1035e-07
7165.2, 4.0441e-07
7167.2, 4.1165e-07
7169.2, 3.8661e-07
7171.2, 3.8553e-07
7173.2, 4.5258e-07
7175.2, 3.7674e-07
7177.2, 4.0091e-07
7179.2, 3.6497e-07
7181.2, 4.346e-07
7183.2, 4.1799e-07
7185.2, 4.0363e-07
7187.2, 4.1162e-07
7189.2, 4.2689e-07
7191.2, 4.3198e-07
7193.2, 4.1882e-07
7195.2, 3.9507e-07
7197.2, 4.1203e-07
7199.2, 4.3933e-07
7201.2, 4.2498e-07
7203.2, 4.3983e-07
7205.2, 3.8453e-07
7207.2, 4.1253e-07
7209.2, 4.3975e-07
7211.2, 4.1064e-07
7213.2, 4.4526e-07
7215.2, 4.4891e-07
7217.2, 4.2931e-07
7219.2, 4.1041e-07
7221.2, 4.3581e-07
7223.2, 4.1201e-07
7225.2, 4.6009e-07
7227.2, 4.3763e-07
7229.2, 4.196e-07
7231.2, 3.9433e-07
7233.2, 4.0537e-07
7235.2, 3.886e-07
7237.2, 4.513e-07
7239.2, 3.876e-07
7241.2, 4.1407e-07
7243.2, 4.2426e-07
7245.2, 4.0081e-07
7247.2, 4.2093e-07
7249.2, 4.3805e-07
7251.2, 4.237e-07
7253.2, 4.2808e-07
7255.2, 3.9695e-07
7257.2, 4.1855e-07
7259.3, 3.9835e-07
7261.3, 4.3304e-07
7263.3, 4.0624e-07
7265.3, 4.4823e-07
7267.3, 4.2811e-07
7269.3, 4.7618e-07
7271.3, 4.1516e-07
7273.3, 4.2383e-07
7275.3, 4.5077e-07
7277.3, 4.7253e-07
7279.3, 4.1681e-07
7281.3, 4.1878e-07
7283.3, 4.347e-07
7285.3, 4.8113e-07
7287.3, 4.3563e-07
7289.3, 4.4492e-07
7291.3, 4.1446e-07
7293.3, 4.5984e-07
7295.3, 4.2597e-07
7297.3, 4.2387e-07
7299.3, 4.7274e-07
7301.3, 4.5072e-07
7303.3, 4.2251e-07
7305.3, 4.3793e-07
7307.3, 4.6282e-07
7309.3, 4.5036e-07
7311.3, 4.1318e-07
7313.3, 4.2249e-07
7315.3, 4.4839e-07
7317.3, 4.1623e-07
7319.3, 4.3502e-07
7321.3, 4.0696e-07
7323.3, 4.1339e-07
7325.3, 4.4328e-07
7327.3, 4.109e-07
7329.3, 4.4361e-07
7331.3, 4.141e-07
7333.3, 4.318e-07
7335.3, 4.3085e-07
7337.3, 4.108e-07
7339.3, 4.0784e-07
7341.3, 4.1591e-07
7343.3, 4.2048e-07
7345.3, 4.888e-07
7347.3, 4.1797e-07
7349.3, 4.2857e-07
7351.3, 3.9986e-07
7353.3, 4.5248e-07
7355.3, 4.6434e-07
7357.3, 4.5235e-07
7359.4, 4.5191e-07
7361.4, 4.4867e-07
7363.4, 4.1639e-07
7365.4, 4.2555e-07
7367.4, 3.9849e-07
7369.4, 4.321e-07
7371.4, 4.43e-07
7373.4, 4.0268e-07
7375.4, 4.2081e-07
7377.4, 4.198e-07
7379.4, 4.3577e-07
7381.4, 4.5997e-07
7383.4, 4.3861e-07
7385.4, 4.5091e-07
7387.4, 4.4516e-07
7389.4, 4.4758e-07
7391.4, 4.7063e-07
7393.4, 4.2728e-07
7395.4, 4.4927e-07
7397.4, 4.3784e-07
7399.4, 5.0488e-07
7401.4, 4.5401e-07
7403.4, 4.2748e-07
7405.4, 4.1159e-07
7407.4, 4.308e-07
7409.4, 4.2971e-07
7411.4, 4.141e-07
7413.4, 4.5601e-07
7415.4, 3.974e-07
7417.4, 4.3599e-07
7419.4, 4.3307e-07
7421.4, 4.3528e-07
7423.4, 4.2872e-07
7425.4, 4.4956e-07
7427.4, 4.356e-07
7429.4, 4.093e-07
7431.4, 4.2607e-07
7433.4, 4.3501e-07
7435.4, 4.2104e-07
7437.4, 4.6511e-07
7439.4, 4.1979e-07
7441.4, 4.6082e-07
7443.4, 4.4265e-07
7445.4, 4.2802e-07
7447.4, 4.3121e-07
7449.4, 4.1685e-07
7451.4, 4.5804e-07
7453.4, 4.1842e-07
7455.4, 4.5971e-07
7457.4, 4.7232e-07
7459.5, 4.3477e-07
7461.5, 4.3656e-07
7463.5, 4.222e-07
7465.5, 4.5392e-07
7467.5, 4.4836e-07
7469.5, 4.2441e-07
7471.5, 4.5417e-07
7473.5, 4.7332e-07
7475.5, 4.3568e-07
7477.5, 4.2306e-07
7479.5, 4.7995e-07
7481.5, 4.6135e-07
7483.5, 4.4746e-07
7485.5, 4.1175e-07
7487.5, 4.3304e-07
7489.5, 4.4772e-07
7491.5, 4.3148e-07
7493.5, 4.3081e-07
7495.5, 4.4422e-07
7497.5, 4.4072e-07
7499.5, 4.2779e-07
7501.5, 4.6148e-07
7503.5, 4.5098e-07
7505.5, 4.3774e-07
7507.5, 4.4007e-07
7509.5, 4.5398e-07
7511.5, 4.3784e-07
7513.5, 4.3293e-07
7515.5, 4.6888e-07
7517.5, 4.6746e-07
7519.5, 4.7077e-07
7521.5, 3.9107e-07
7523.5, 4.5087e-07
7525.5, 4.2889e-07
7527.5, 4.4582e-07
7529.5, 4.5887e-07
7531.5, 4.6496e-07
7533.5, 4.2776e-07
7535.5, 4.651e-07
7537.5, 4.5724e-07
7539.5, 5.0403e-07
7541.5, 4.6449e-07
7543.5, 4.7974e-07
7545.5, 4.5029e-07
7547.5, 4.3399e-07
7549.5, 4.5814e-07
7551.5, 4.8394e-07
7553.5, 4.4594e-07
7555.5, 4.482e-07
7557.5, 4.2712e-07
7559.6, 4.398e-07
7561.6, 4.8563e-07
7563.6, 4.736e-07
7565.6, 4.5177e-07
7567.6, 4.1699e-07
7569.6, 4.5243e-07
7571.6, 4.5681e-07
7573.6, 4.9162e-07
7575.6, 4.2053e-07
7577.6, 4.1913e-07
7579.6, 4.0649e-07
7581.6, 4.6424e-07
7583.6, 5.1447e-07
7585.6, 4.7692e-07
7587.6, 4.1385e-07
7589.6, 4.0581e-07
7591.6, 4.5687e-07
7593.6, 4.6871e-07
7595.6, 4.8088e-07
7597.6, 4.0435e-07
7599.6, 4.519e-07
7601.6, 4.3051e-07
7603.6, 4.6106e-07
7605.6, 4.6733e-07
7607.6, 4.1906e-07
7609.6, 4.0111e-07
7611.6, 3.996e-07
7613.6, 4.6964e-07
7615.6, 4.1883e-07
7617.6, 4.3093e-07
7619.6, 4.1862e-07
7621.6, 4.4157e-07
7623.6, 4.1966e-07
7625.6, 4.6318e-07
7627.6, 4.5095e-07
7629.6, 4.504e-07
7631.6, 4.5751e-07
7633.6, 4.5483e-07
7635.6, 4.6915e-07
7637.6, 4.0874e-07
7639.6, 4.6597e-07
7641.6, 4.5105e-07
7643.6, 4.3909e-07
7645.6, 4.3537e-07
7647.6, 4.7794e-07
7649.6, 4.6729e-07
7651.6, 4.5457e-07
7653.6, 4.6625e-07
7655.6, 4.5951e-07
7657.6, 4.0735e-07
7659.7, 4.6929e-07
7661.7, 4.0311e-07
7663.7, 4.6813e-07
7665.7, 4.6751e-07
7667.7, 4.341e-07
7669.7, 4.2486e-07
7671.7, 4.6191e-07
7673.7, 4.1534e-07
7675.7, 4.4693e-07
7677.7, 4.4845e-07
7679.7, 4.4419e-07
7681.7, 4.4648e-07
7683.7, 4.713e-07
7685.7, 4.664e-07
7687.7, 4.3261e-07
7689.7, 4.6889e-07
7691.7, 4.9491e-07
7693.7, 4.7966e-07
7695.7, 4.512e-07
7697.7, 4.5111e-07
7699.7, 4.0294e-07
7701.7, 4.5292e-07
7703.7, 4.3859e-07
7705.7, 4.0898e-07
7707.7, 4.5761e-07
7709.7, 4.7623e-07
7711.7, 4.3219e-07
7713.7, 4.1955e-07
7715.7, 4.3047e-07
7717.7, 4.1878e-07
7719.7, 4.5952e-07
7721.7, 4.7103e-07
7723.7, 4.1877e-07
7725.7, 4.7165e-07
7727.7, 4.9949e-07
7729.7, 4.872e-07
7731.7, 4.7225e-07
7733.7, 4.2729e-07
7735.7, 4.597e-07
7737.7, 4.231e-07
7739.7, 4.3292e-07
7741.7, 5.2096e-07
7743.7, 4.5825e-07
7745.7, 4.6608e-07
7747.7, 4.7991e-07
7749.7, 4.1881e-07
7751.7, 4.4515e-07
7753.7, 4.4677e-07
7755.7, 4.3927e-07
7757.7, 4.2776e-07
7759.8, 4.3817e-07
7761.8, 4.4158e-07
7763.8, 4.3455e-07
7765.8, 4.8644e-07
7767.8, 4.273e-07
7769.8, 4.1579e-07
7771.8, 4.4447e-07
7773.8, 4.52e-07
7775.8, 4.7574e-07
7777.8, 4.8168e-07
7779.8, 4.326e-07
7781.8, 4.5459e-07
7783.8, 4.6843e-07
7785.8, 4.0667e-07
7787.8, 4.4648e-07
7789.8, 4.1007e-07
7791.8, 4.5654e-07
7793.8, 4.7163e-07
7795.8, 4.5356e-07
7797.8, 4.2706e-07
7799.8, 4.1852e-07
7801.8, 4.5522e-07
7803.8, 4.6693e-07
7805.8, 4.5768e-07
7807.8, 4.0492e-07
7809.8, 4.6534e-07
7811.8, 4.4124e-07
7813.8, 4.4064e-07
7815.8, 4.1515e-07
7817.8, 4.8648e-07
7819.8, 4.1941e-07
7821.8, 4.4193e-07
7823.8, 4.8148e-07
7825.8, 4.4578e-07
7827.8, 4.6305e-07
7829.8, 4.2521e-07
7831.8, 4.0382e-07
7833.8, 4.4291e-07
7835.8, 4.5538e-07
7837.8, 4.2913e-07
7839.8, 4.7495e-07
7841.8, 4.3692e-07
7843.8, 4.5911e-07
7845.8, 4.6967e-07
7847.8, 4.8764e-07
7849.8, 4.3841e-07
7851.8, 4.2988e-07
7853.8, 4.2762e-07
7855.8, 4.4871e-07
7857.8, 4.3442e-07
7859.9, 4.7708e-07
7861.9, 4.1391e-07
7863.9, 4.3756e-07
7865.9, 4.1353e-07
7867.9, 4.0485e-07
7869.9, 4.8004e-07
7871.9, 4.8169e-07
7873.9, 4.4695e-07
7875.9, 4.7601e-07
7877.9, 4.3826e-07
7879.9, 4.2526e-07
7881.9, 4.5634e-07
7883.9, 4.4944e-07
7885.9, 4.4908e-07
7887.9, 4.237e-07
7889.9, 4.2365e-07
7891.9, 4.219e-07
7893.9, 4.3464e-07
7895.9, 4.7947e-07
7897.9, 4.6584e-07
7899.9, 5.3707e-07
7901.9, 4.4372e-07
7903.9, 4.4989e-07
7905.9, 4.9789e-07
7907.9, 4.1049e-07
7909.9, 4.5137e-07
7911.9, 4.8361e-07
7913.9, 4.5609e-07
7915.9, 4.9399e-07
7917.9, 4.5525e-07
7919.9, 4.2443e-07
7921.9, 5.0644e-07
7923.9, 4.5504e-07
7925.9, 4.4901e-07
7927.9, 4.8406e-07
7929.9, 4.8008e-07
7931.9, 4.3649e-07
7933.9, 4.797e-07
7935.9, 4.2611e-07
7937.9, 4.1385e-07
7939.9, 4.3886e-07
7941.9, 4.4263e-07
7943.9, 4.2318e-07
7945.9, 4.6707e-07
7947.9, 4.6028e-07
7949.9, 4.5249e-07
7951.9, 4.3903e-07
7953.9, 4.6996e-07
7955.9, 4.5418e-07
7957.9, 4.8139e-07
7960.0, 4.4327e-07
7962.0, 4.6282e-07
7964.0, 4.5506e-07
7966.0, 4.2974e-07
7968.0, 5.0065e-07
7970.0, 4.7108e-07
7972.0, 4.5184e-07
7974.0, 4.1425e-07
7976.0, 4.2284e-07
7978.0, 4.3366e-07
7980.0, 4.7178e-07
7982.0, 4.7127e-07
7984.0, 4.2765e-07
7986.0, 4.7372e-07
7988.0, 4.621e-07
7990.0, 4.6382e-07
7992.0, 4.5126e-07
7994.0, 4.6964e-07
7996.0, 4.2038e-07
7998.0, 4.5677e-07
8000.0, 4.6172e-07
8002.0, 4.2682e-07
8004.0, 4.5894e-07
8006.0, 4.2146e-07
8008.0, 4.8633e-07
8010.0, 4.8147e-07
8012.0, 3.9355e-07
8014.0, 4.6988e-07
8016.0, 4.6082e-07
8018.0, 4.7962e-07
8020.0, 4.1917e-07
8022.0, 4.6537e-07
8024.0, 4.4381e-07
8026.0, 4.4717e-07
8028.0, 4.6008e-07
8030.0, 4.5314e-07
8032.0, 4.8659e-07
8034.0, 4.3532e-07
8036.0, 4.7326e-07
8038.0, 4.7459e-07
8040.0, 5.0065e-07
8042.0, 4.6259e-07
8044.0, 4.4173e-07
8046.0, 4.6029e-07
8048.0, 5.209e-07
8050.0, 4.9306e-07
8052.0, 4.4965e-07
8054.0, 4.3517e-07
8056.0, 4.8138e-07
8058.0, 4.862e-07
8060.1, 4.4903e-07
8062.1, 5.272e-07
8064.1, 4.4711e-07
8066.1, 4.8756e-07
8068.1, 4.669e-07
8070.1, 5.1384e-07
8072.1, 4.8173e-07
8074.1, 4.5392e-07
8076.1, 4.433e-07
8078.1, 3.9554e-07
8080.1, 4.4101e-07
8082.1, 4.4109e-07
8084.1, 4.9528e-07
8086.1, 4.2617e-07
8088.1, 4.1736e-07
8090.1, 4.3231e-07
8092.1, 4.7208e-07
8094.1, 4.7868e-07
8096.1, 4.3343e-07
8098.1, 4.6778e-07
8100.1, 4.491e-07
8102.1, 4.5794e-07
8104.1, 4.5165e-07
8106.1, 4.3233e-07
8108.1, 4.6246e-07
8110.1, 4.3828e-07
8112.1, 4.5394e-07
8114.1, 4.6302e-07
8116.1, 4.4876e-07
8118.1, 4.6965e-07
8120.1, 4.8055e-07
8122.1, 4.5783e-07
8124.1, 4.8237e-07
8126.1, 4.7552e-07
8128.1, 4.5925e-07
8130.1, 4.5191e-07
8132.1, 4.3601e-07
8134.1, 2.2802e-07
8136.1, -3.102e-08
8138.1, -2.871e-08
8140.1, -3.119e-08
8142.1, -3.187e-08
8144.1, -2.901e-08
8146.1, -2.986e-08
8148.1, -3.008e-08
8150.1, -3.462e-08
8152.1, -3.026e-08
8154.1, -3.186e-08
8156.1, -2.807e-08
8158.1, -3.306e-08
8160.2, -2.995e-08
8162.2, -3.07e-08
8164.2, -3.101e-08
8166.2, -2.801e-08
8168.2, -2.77e-08
8170.2, -2.815e-08
8172.2, -2.983e-08
8174.2, -3.084e-08
8176.2, -2.764e-08
8178.2, -2.994e-08
8180.2, -3.064e-08
8182.2, -2.75e-08
8184.2, -3.051e-08
8186.2, -2.969e-08
8188.2, -3.252e-08
8190.2, -3.103e-08
8192.2, -3.158e-08
8194.2, -3.089e-08
8196.2, -3.136e-08
8198.2, -2.91e-08
8200.2, -2.828e-08
8202.2, -3.306e-08
8204.2, -3.038e-08
8206.2, -3.19e-08
8208.2, -3.129e-08
8210.2, -2.922e-08
8212.2, -2.834e-08
8214.2, -2.84e-08
8216.2, -2.873e-08
8218.2, -2.909e-08
8220.2, -2.812e-08
8222.2, -2.546e-08
8224.2, -3.105e-08
8226.2, -2.954e-08
8228.2, -2.973e-08
8230.2, -2.958e-08
8232.2, -3.048e-08
8234.2, -3.099e-08
8236.2, -2.972e-08
8238.2, -2.993e-08
8240.2, -2.951e-08
8242.2, -3.051e-08
8244.2, -2.794e-08
8246.2, -2.834e-08
8248.2, -2.565e-08
8250.2, -2.976e-08
8252.2, -2.916e-08
8254.2, -2.741e-08
8256.2, -2.957e-08
8258.2, -3.064e-08
8260.3, -3.046e-08
8262.3, -2.634e-08
8264.3, -2.745e-08
8266.3, -2.724e-08
8268.3, -2.643e-08
8270.3, -2.439e-08
8272.3, -2.904e-08
8274.3, -2.917e-08
8276.3, -2.626e-08
8278.3, -3.01e-08
8280.3, -2.796e-08
8282.3, -2.572e-08
8284.3, -2.787e-08
8286.3, -3.095e-08
8288.3, -3.114e-08
8290.3, -2.711e-08
8292.3, -2.667e-08
8294.3, -2.477e-08
8296.3, -3.084e-08
8298.3, -2.635e-08
8300.3, -2.811e-08
8302.3, -2.694e-08
8304.3, -2.82e-08
8306.3, -2.893e-08
8308.3, -3.185e-08
8310.3, -3.3e-08
8312.3, -3.059e-08
8314.3, -3.273e-08
8316.3, -3.249e-08
8318.3, -3.412e-08
8320.3, -3.316e-08
8322.3, -3.616e-08
8324.3, -3.293e-08
8326.3, -3.441e-08
8328.3, -3.361e-08
8330.3, -3.233e-08
8332.3, -3.096e-08
8334.3, -3.194e-08
8336.3, -2.802e-08
8338.3, -3.29e-08
8340.3, -3.397e-08
8342.3, -3.566e-08
8344.3, -3.181e-08
8346.3, -2.968e-08
8348.3, -3.195e-08
8350.3, -3.194e-08
8352.3, -3.213e-08
8354.3, -3.649e-08
8356.3, -3.698e-08
8358.3, -3.651e-08
8360.4, -3.224e-08
8362.4, -3.516e-08
8364.4, -3.395e-08
8366.4, -3.527e-08
8368.4, -3.313e-08
8370.4, -3.157e-08
8372.4, -3.075e-08
8374.4, -3.503e-08
8376.4, -2.794e-08
8378.4, -3.102e-08
8380.4, -2.961e-08
8382.4, -3.204e-08
8384.4, -3.479e-08
8386.4, -3.15e-08
8388.4, -3.175e-08
8390.4, -3.061e-08
8392.4, -3.242e-08
8394.4, -3.047e-08
8396.4, -3.413e-08
8398.4, -2.99e-08
8400.4, -3.152e-08
8402.4, -3.016e-08
8404.4, -3.423e-08
8406.4, -2.953e-08
8408.4, -3.087e-08
8410.4, -3.435e-08
8412.4, -3.194e-08
8414.4, -2.86e-08
8416.4, -2.981e-08
8418.4, -2.92e-08
8420.4, -2.885e-08
8422.4, -3.057e-08
8424.4, -3.216e-08
8426.4, -2.954e-08
8428.4, -2.728e-08
8430.4, -2.566e-08
8432.4, -2.907e-08
8434.4, -2.853e-08
8436.4, -2.885e-08
8438.4, -2.872e-08
8440.4, -2.654e-08
8442.4, -2.63e-08
8444.4, -2.799e-08
8446.4, -2.788e-08
8448.4, -2.781e-08
8450.4, -2.874e-08
8452.4, -3.161e-08
8454.4, -3.036e-08
8456.4, -3.147e-08
8458.4, -3.062e-08
8460.5, -3.235e-08
8462.5, -3.013e-08
8464.5, -3.286e-08
8466.5, -3.513e-08
8468.5, -3.323e-08
8470.5, -2.921e-08
8472.5, -3.058e-08
8474.5, -3.247e-08
8476.5, -3.423e-08
8478.5, -3.535e-08
8480.5, -3.134e-08
8482.5, -3.248e-08
8484.5, -3.211e-08
8486.5, -3.458e-08
8488.5, -3.074e-08
8490.5, -3.692e-08
8492.5, -3.562e-08
8494.5, -3.476e-08
8496.5, -3.411e-08
8498.5, -3.349e-08
8500.5, -3.734e-08
8502.5, -3.532e-08
8504.5, -3.384e-08
8506.5, -3.15e-08
8508.5, -3.676e-08
8510.5, -3.608e-08
8512.5, -3.625e-08
8514.5, -3.129e-08
8516.5, -3.192e-08
8518.5, -3.382e-08
8520.5, -3.152e-08
8522.5, -3.218e-08
8524.5, -3.234e-08
8526.5, -2.911e-08
8528.5, -3.104e-08
8530.5, -2.658e-08
8532.5, -3.333e-08
8534.5, -2.593e-08
8536.5, -3.049e-08
8538.5, -3.007e-08
8540.5, -3.343e-08
8542.5, -3.145e-08
8544.5, -3.008e-08
8546.5, -2.833e-08
8548.5, -2.692e-08
8550.5, -2.86e-08
8552.5, -2.973e-08
8554.5, -2.682e-08
8556.5, -2.91e-08
8558.5, -3.192e-08
8560.6, -2.957e-08
8562.6, -3.131e-08
8564.6, -3.059e-08
8566.6, -3.311e-08
8568.6, -2.639e-08
8570.6, -2.838e-08
8572.6, -2.927e-08
8574.6, -3.331e-08
8576.6, -3.07e-08
8578.6, -3.035e-08
8580.6, -2.979e-08
8582.6, -2.64e-08
8584.6, -2.789e-08
8586.6, -2.718e-08
8588.6, -2.758e-08
8590.6, -3.271e-08
8592.6, -2.733e-08
8594.6, -2.89e-08
8596.6, -3.109e-08
8598.6, -2.66e-08
8600.6, -3.075e-08
8602.6, -3.049e-08
8604.6, -2.996e-08
8606.6, -3.178e-08
8608.6, -3.059e-08
8610.6, -2.84e-08
8612.6, -2.88e-08
8614.6, -2.753e-08
8616.6, -3.035e-08
8618.6, -2.951e-08
8620.6, -2.892e-08
8622.6, -3.32e-08
8624.6, -3.104e-08
8626.6, -3.395e-08
8628.6, -3.555e-08
8630.6, -3.22e-08
8632.6, -3.43e-08
8634.6, -2.996e-08
8636.6, -3.233e-08
8638.6, -3.143e-08
8640.6, -3.291e-08
8642.6, -3.236e-08
8644.6, -3.521e-08
8646.6, -3.251e-08
8648.6, -3.416e-08
8650.6, -3.322e-08
8652.6, -3.211e-08
8654.6, -2.999e-08
8656.6, -3.434e-08
8658.6, -3.215e-08
8660.7, -3.328e-08
8662.7, -3.182e-08
8664.7, -3.04e-08
8666.7, -3.036e-08
8668.7, -3.006e-08
8670.7, -2.597e-08
8672.7, -3.136e-08
8674.7, -2.825e-08
8676.7, -2.675e-08
8678.7, -3.023e-08
8680.7, -2.899e-08
8682.7, -3.23e-08
8684.7, -2.981e-08
8686.7, -3.008e-08
8688.7, -2.957e-08
8690.7, -3.296e-08
8692.7, -3.136e-08
8694.7, -3.096e-08
8696.7, -3.102e-08
8698.7, -3.165e-08
8700.7, -3.227e-08
8702.7, -3.566e-08
8704.7, -3.661e-08
8706.7, -3.112e-08
8708.7, -3.066e-08
8710.7, -3.356e-08
8712.7, -3.609e-08
8714.7, -3.663e-08
8716.7, -3.198e-08
8718.7, -3.125e-08
8720.7, -3.168e-08
8722.7, -3.102e-08
8724.7, -3.024e-08
8726.7, -2.866e-08
8728.7, -2.869e-08
8730.7, -3.265e-08
8732.7, -3.199e-08
8734.7, -3.613e-08
8736.7, -2.804e-08
8738.7, -3.299e-08
8740.7, -3.303e-08
8742.7, -3.055e-08
8744.7, -3.07e-08
8746.7, -2.762e-08
8748.7, -3.052e-08
8750.7, -3.066e-08
8752.7, -3.201e-08
8754.7, -3.221e-08
8756.7, -2.997e-08
8758.7, -2.774e-08
8760.8, -2.928e-08
8762.8, -3.087e-08
8764.8, -2.764e-08
8766.8, -3.145e-08
8768.8, -2.951e-08
8770.8, -3.274e-08
8772.8, -3.105e-08
8774.8, -2.953e-08
8776.8, -3.085e-08
8778.8, -3.309e-08
8780.8, -2.885e-08
8782.8, -3.082e-08
8784.8, -3.33e-08
8786.8, -3.384e-08
8788.8, -3.55e-08
8790.8, -3.054e-08
8792.8, -3.395e-08
8794.8, -3.824e-08
8796.8, -3.56e-08
8798.8, -3.6e-08
8800.8, -3.824e-08
8802.8, -3.376e-08
8804.8, -3.506e-08
8806.8, -3.552e-08
8808.8, -3.156e-08
8810.8, -3.656e-08
8812.8, -3.804e-08
8814.8, -3.471e-08
8816.8, -3.451e-08
8818.8, -3.513e-08
8820.8, -2.736e-08
8822.8, -3.329e-08
8824.8, -3.248e-08
8826.8, -3.372e-08
8828.8, -3.252e-08
8830.8, -3.142e-08
8832.8, -3.303e-08
8834.8, -3.505e-08
8836.8, -3.141e-08
8838.8, -3.019e-08
8840.8, -3.58e-08
8842.8, -3.229e-08
8844.8, -3.297e-08
8846.8, -3.478e-08
8848.8, -3.336e-08
8850.8, -3.359e-08
8852.8, -3.597e-08
8854.8, -3.797e-08
8856.8, -3.404e-08
8858.8, -2.962e-08
8860.9, -3.627e-08
8862.9, -3.548e-08
8864.9, -3.301e-08
8866.9, -3.201e-08
8868.9, -3.51e-08
8870.9, -3.824e-08
8872.9, -3.298e-08
8874.9, -3.425e-08
8876.9, -3.323e-08
8878.9, -3.228e-08
8880.9, -3.391e-08
8882.9, -3.497e-08
8884.9, -3.451e-08
8886.9, -3.53e-08
8888.9, -3.542e-08
8890.9, -3.542e-08
8892.9, -3.481e-08
8894.9, -3.52e-08
8896.9, -3.566e-08
8898.9, -3.387e-08
8900.9, -3.487e-08
8902.9, -3.466e-08
8904.9, -3.71e-08
8906.9, -3.194e-08
8908.9, -3.318e-08
8910.9, -3.275e-08
8912.9, -3.43e-08
8914.9, -3.372e-08
8916.9, -3.132e-08
8918.9, -3.326e-08
8920.9, -3.435e-08
8922.9, -3.213e-08
8924.9, -2.795e-08
8926.9, -2.771e-08
8928.9, -3.285e-08
8930.9, -3.168e-08
8932.9, -3.229e-08
8934.9, -2.956e-08
8936.9, -2.951e-08
8938.9, -3.188e-08
8940.9, -2.987e-08
8942.9, -3.193e-08
8944.9, -2.76e-08
8946.9, -2.999e-08
8948.9, -2.672e-08
8950.9, -2.891e-08
8952.9, -2.802e-08
8954.9, -2.818e-08
8956.9, -3.355e-08
8958.9, -3.06e-08
8961.0, -3.538e-08
8963.0, -3.183e-08
8965.0, -3.019e-08
8967.0, -3.094e-08
8969.0, -2.87e-08
8971.0, -3.159e-08
8973.0, -2.987e-08
8975.0, -2.874e-08
8977.0, -2.947e-08
8979.0, -2.983e-08
8981.0, -3.104e-08
8983.0, -3.23e-08
8985.0, -2.909e-08
8987.0, -3.114e-08
8989.0, -2.842e-08
8991.0, -3.428e-08
8993.0, -2.836e-08
8995.0, -2.81e-08
8997.0, -3.008e-08
8999.0, -3.374e-08
9001.0, -3.312e-08
9003.0, -2.917e-08
9005.0, -2.626e-08
9007.0, -2.841e-08
9009.0, -2.71e-08
9011.0, -3.162e-08
9013.0, -2.957e-08
9015.0, -2.925e-08
9017.0, -3.216e-08
9019.0, -2.994e-08
9021.0, -2.879e-08
9023.0, -3.263e-08
9025.0, -3.199e-08
9027.0, -3.627e-08
9029.0, -3.411e-08
9031.0, -3.356e-08
9033.0, -3.983e-08
9035.0, -2.941e-08
9037.0, -3.396e-08
9039.0, -3.187e-08
9041.0, -3.295e-08
9043.0, -2.965e-08
9045.0, -3.069e-08
9047.0, -3.485e-08
9049.0, -3.212e-08
9051.0, -3.389e-08
9053.0, -3.012e-08
9055.0, -3.001e-08
9057.0, -2.611e-08
9059.0, -2.913e-08
9061.1, -3.201e-08
9063.1, -3.292e-08
9065.1, -2.709e-08
9067.1, -3.046e-08
9069.1, -3.266e-08
9071.1, -3.32e-08
9073.1, -3.574e-08
9075.1, -3.265e-08
9077.1, -3.353e-08
9079.1, -3.444e-08
9081.1, -3.328e-08
9083.1, -3.319e-08
9085.1, -3.059e-08
9087.1, -3.039e-08
9089.1, -3.281e-08
9091.1, -3.065e-08
9093.1, -3.291e-08
9095.1, -3.1e-08
9097.1, -2.79e-08
9099.1, -3.05e-08
9101.1, -2.833e-08
9103.1, -2.938e-08
9105.1, -2.739e-08
9107.1, -2.865e-08
9109.1, -2.755e-08
9111.1, -2.982e-08
9113.1, -3.069e-08
9115.1, -2.76e-08
9117.1, -2.762e-08
9119.1, -2.809e-08
9121.1, -3.285e-08
9123.1, -2.698e-08
9125.1, -2.717e-08
9127.1, -2.872e-08
9129.1, -2.846e-08
9131.1, -2.869e-08
9133.1, -2.975e-08
9135.1, -3.077e-08
9137.1, -3.099e-08
9139.1, -2.98e-08
9141.1, -3.115e-08
9143.1, -3.279e-08
9145.1, -3.096e-08
9147.1, -3.069e-08
9149.1, -2.961e-08
9151.1, -3.013e-08
9153.1, -2.954e-08
9155.1, -2.712e-08
9157.1, -2.777e-08
9159.1, -3.093e-08
9161.2, -3.071e-08
9163.2, -2.866e-08
9165.2, -2.771e-08
9167.2, -2.76e-08
9169.2, -2.839e-08
9171.2, -2.864e-08
9173.2, -3.173e-08
9175.2, -2.845e-08
9177.2, -2.736e-08
9179.2, -2.935e-08
9181.2, -2.962e-08
9183.2, -2.819e-08
9185.2, -3.26e-08
9187.2, -3.116e-08
9189.2, -2.841e-08
9191.2, -2.985e-08
9193.2, -3.104e-08
9195.2, -2.911e-08
9197.2, 2.2406e-07
9199.2, 4.5667e-07
9201.2, 3.6341e-07
9203.2, 4.1275e-07
9205.2, 3.8566e-07
9207.2, 3.4822e-07
9209.2, 3.9156e-07
9211.2, 4.0122e-07
9213.2, 4.415e-07
9215.2, 3.8774e-07
9217.2, 4.1584e-07
9219.2, 4.096e-07
9221.2, 4.3578e-07
9223.2, 4.1091e-07
9225.2, 4.2925e-07
9227.2, 4.0306e-07
9229.2, 4.0221e-07
9231.2, 4.3239e-07
9233.2, 4.0675e-07
9235.2, 4.2734e-07
9237.2, 4.1514e-07
9239.2, 4.4427e-07
9241.2, 4.3763e-07
9243.2, 4.171e-07
9245.2, 4.3649e-07
9247.2, 4.4826e-07
9249.2, 4.1608e-07
9251.2, 4.334e-07
9253.2, 4.6062e-07
9255.2, 4.4572e-07
9257.2, 4.3099e-07
9259.2, 4.6915e-07
9261.3, 3.907e-07
9263.3, 4.1665e-07
9265.3, 4.4534e-07
9267.3, 4.0527e-07
9269.3, 4.3998e-07
9271.3, 4.6422e-07
9273.3, 4.106e-07
9275.3, 4.4037e-07
9277.3, 4.1013e-07
9279.3, 4.173e-07
9281.3, 4.6661e-07
9283.3, 4.1126e-07
9285.3, 4.1907e-07
9287.3, 4.5781e-07
9289.3, 3.9593e-07
9291.3, 4.3956e-07
9293.3, 4.0627e-07
9295.3, 4.1469e-07
9297.3, 4.3138e-07
9299.3, 4.3164e-07
9301.3, 4.5205e-07
9303.3, 4.1609e-07
9305.3, 4.0469e-07
9307.3, 4.2217e-07
9309.3, 4.4758e-07
9311.3, 4.5458e-07
9313.3, 4.4914e-07
9315.3, 4.1497e-07
9317.3, 4.6516e-07
9319.3, 4.4111e-07
9321.3, 4.6295e-07
9323.3, 4.8322e-07
9325.3, 4.5157e-07
9327.3, 4.6409e-07
9329.3, 4.348e-07
9331.3, 4.3346e-07
9333.3, 4.5374e-07
9335.3, 4.4287e-07
9337.3, 4.3677e-07
9339.3, 4.4661e-07
9341.3, 4.429e-07
9343.3, 4.3686e-07
9345.3, 4.1891e-07
9347.3, 4.5697e-07
9349.3, 4.2177e-07
9351.3, 4.1409e-07
9353.3, 4.6486e-07
9355.3, 3.9841e-07
9357.3, 4.1563e-07
9359.3, 4.4994e-07
9361.4, 3.9191e-07
9363.4, 4.4048e-07
9365.4, 4.7137e-07
9367.4, 4.4133e-07
9369.4, 4.279e-07
9371.4, 4.3674e-07
9373.4, 4.6917e-07
9375.4, 4.3111e-07
9377.4, 4.1819e-07
9379.4, 4.7115e-07
9381.4, 4.7174e-07
9383.4, 4.5833e-07
9385.4, 4.3218e-07
9387.4, 4.2621e-07
9389.4, 4.4979e-07
9391.4, 4.5577e-07
9393.4, 4.3333e-07
9395.4, 4.396e-07
9397.4, 4.1774e-07
9399.4, 4.3576e-07
9401.4, 4.2778e-07
9403.4, 4.7444e-07
9405.4, 4.4398e-07
9407.4, 4.1446e-07
9409.4, 4.4339e-07
9411.4, 4.3121e-07
9413.4, 4.8615e-07
9415.4, 4.6024e-07
9417.4, 4.2632e-07
9419.4, 4.4268e-07
9421.4, 4.7228e-07
9423.4, 4.4514e-07
9425.4, 4.1605e-07
9427.4, 4.5322e-07
9429.4, 4.1826e-07
9431.4, 4.4515e-07
9433.4, 4.8398e-07
9435.4, 4.2498e-07
9437.4, 4.4223e-07
9439.4, 4.546e-07
9441.4, 4.3939e-07
9443.4, 4.2329e-07
9445.4, 4.873e-07
9447.4, 4.7925e-07
9449.4, 4.013e-07
9451.4, 4.9139e-07
9453.4, 4.0708e-07
9455.4, 4.3873e-07
9457.4, 4.1524e-07
9459.4, 4.433e-07
9461.5, 4.2645e-07
9463.5, 5.1811e-07
9465.5, 4.3526e-07
9467.5, 4.6594e-07
9469.5, 4.366e-07
9471.5, 4.4203e-07
9473.5, 4.511e-07
9475.5, 4.2883e-07
9477.5, 4.0636e-07
9479.5, 4.4928e-07
9481.5, 4.812e-07
9483.5, 4.1999e-07
9485.5, 4.6288e-07
9487.5, 4.466e-07
9489.5, 3.9356e-07
9491.5, 4.6822e-07
9493.5, 4.1772e-07
9495.5, 4.5747e-07
9497.5, 4.6159e-07
9499.5, 4.3579e-07
9501.5, 4.3816e-07
9503.5, 4.6087e-07
9505.5, 4.3905e-07
9507.5, 4.542e-07
9509.5, 4.3445e-07
9511.5, 4.815e-07
9513.5, 4.5481e-07
9515.5, 4.519e-07
9517.5, 4.2104e-07
9519.5, 4.6526e-07
9521.5, 4.5904e-07
9523.5, 4.2926e-07
9525.5, 4.361e-07
9527.5, 4.7173e-07
9529.5, 4.0098e-07
9531.5, 4.4511e-07
9533.5, 4.2477e-07
9535.5, 4.1963e-07
9537.5, 4.6628e-07
9539.5, 4.4393e-07
9541.5, 4.7541e-07
9543.5, 4.7574e-07
9545.5, 4.3864e-07
9547.5, 4.0195e-07
9549.5, 4.8416e-07
9551.5, 4.6048e-07
9553.5, 4.1896e-07
9555.5, 4.6324e-07
9557.5, 4.2231e-07
9559.5, 4.4382e-07
9561.6, 4.1308e-07
9563.6, 4.1097e-07
9565.6, 4.6848e-07
9567.6, 4.8438e-07
9569.6, 4.923e-07
9571.6, 4.1085e-07
9573.6, 4.4962e-07
9575.6, 4.8027e-07
9577.6, 4.134e-07
9579.6, 4.1663e-07
9581.6, 4.0675e-07
9583.6, 4.3837e-07
9585.6, 4.5189e-07
9587.6, 4.6317e-07
9589.6, 4.1259e-07
9591.6, 4.1846e-07
9593.6, 4.4904e-07
9595.6, 4.1921e-07
9597.6, 4.4831e-07
9599.6, 4.6368e-07
9601.6, 4.5302e-07
9603.6, 4.8697e-07
9605.6, 4.4344e-07
9607.6, 4.3993e-07
9609.6, 4.8406e-07
9611.6, 4.3393e-07
9613.6, 4.3623e-07
9615.6, 4.98e-07
9617.6, 4.7916e-07
9619.6, 4.7143e-07
9621.6, 4.0124e-07
9623.6, 4.1221e-07
9625.6, 4.5139e-07
9627.6, 4.8121e-07
9629.6, 4.884e-07
9631.6, 4.364e-07
9633.6, 5.0109e-07
9635.6, 4.8557e-07
9637.6, 4.7059e-07
9639.6, 4.464e-07
9641.6, 3.9413e-07
9643.6, 4.1686e-07
9645.6, 3.9674e-07
9647.6, 4.7353e-07
9649.6, 4.4165e-07
9651.6, 4.7362e-07
9653.6, 4.3556e-07
9655.6, 4.6674e-07
9657.6, 4.3433e-07
9659.6, 4.6678e-07
9661.7, 4.7169e-07
9663.7, 4.4231e-07
9665.7, 4.2868e-07
9667.7, 5.0565e-07
9669.7, 4.3674e-07
9671.7, 4.7273e-07
9673.7, 4.7566e-07
9675.7, 4.4416e-07
9677.7, 4.5845e-07
9679.7, 4.9007e-07
9681.7, 4.5373e-07
9683.7, 4.5675e-07
9685.7, 4.1482e-07
9687.7, 4.3735e-07
9689.7, 4.7389e-07
9691.7, 5.1029e-07
9693.7, 4.1842e-07
9695.7, 4.3771e-07
9697.7, 4.6797e-07
9699.7, 4.2498e-07
9701.7, 4.3988e-07
9703.7, 4.9165e-07
9705.7, 4.6531e-07
9707.7, 4.5393e-07
9709.7, 4.6321e-07
9711.7, 4.6249e-07
9713.7, 4.659e-07
9715.7, 4.5867e-07
9717.7, 4.1055e-07
9719.7, 3.9494e-07
9721.7, 4.8066e-07
9723.7, 4.4767e-07
9725.7, 4.7027e-07
9727.7, 4.638e-07
9729.7, 4.6192e-07
9731.7, 4.3861e-07
9733.7, 4.4284e-07
9735.7, 4.4464e-07
9737.7, 4.5285e-07
9739.7, 4.4499e-07
9741.7, 4.8726e-07
9743.7, 5.2163e-07
9745.7, 4.5991e-07
9747.7, 4.9354e-07
9749.7, 4.201e-07
9751.7, 4.551e-07
9753.7, 4.4299e-07
9755.7, 4.7963e-07
9757.7, 4.6208e-07
9759.7, 4.669e-07
9761.8, 4.2329e-07
9763.8, 4.6675e-07
9765.8, 4.5136e-07
9767.8, 4.3504e-07
9769.8, 4.5595e-07
9771.8, 4.4196e-07
9773.8, 4.3725e-07
9775.8, 4.6183e-07
9777.8, 4.3584e-07
9779.8, 5.0138e-07
9781.8, 4.5398e-07
9783.8, 4.8796e-07
9785.8, 4.8153e-07
9787.8, 4.4978e-07
9789.8, 4.5883e-07
9791.8, 4.6608e-07
9793.8, 4.3112e-07
9795.8, 4.5435e-07
9797.8, 4.8297e-07
9799.8, 4.5231e-07
9801.8, 4.7178e-07
9803.8, 4.7211e-07
9805.8, 4.4654e-07
9807.8, 4.7105e-07
9809.8, 4.2253e-07
9811.8, 4.6142e-07
9813.8, 4.622e-07
9815.8, 4.0532e-07
9817.8, 4.5345e-07
9819.8, 4.2452e-07
9821.8, 4.9737e-07
9823.8, 4.074e-07
9825.8, 4.2166e-07
9827.8, 4.4732e-07
9829.8, 4.5868e-07
9831.8, 4.436e-07
9833.8, 4.5208e-07
9835.8, 4.3976e-07
9837.8, 4.5859e-07
9839.8, 4.4491e-07
9841.8, 4.2686e-07
9843.8, 4.8428e-07
9845.8, 4.9327e-07
9847.8, 4.3681e-07
9849.8, 4.4435e-07
9851.8, 4.7381e-07
9853.8, 4.4715e-07
9855.8, 4.5486e-07
9857.8, 4.6258e-07
9859.8, 4.5217e-07
9861.9, 4.2267e-07
9863.9, 4.8887e-07
9865.9, 4.4107e-07
9867.9, 4.5972e-07
9869.9, 4.6357e-07
9871.9, 5.1157e-07
9873.9, 4.471e-07
9875.9, 4.4335e-07
9877.9, 4.8483e-07
9879.9, 4.5113e-07
9881.9, 4.7241e-07
9883.9, 4.8503e-07
9885.9, 4.5492e-07
9887.9, 4.5267e-07
9889.9, 4.6017e-07
9891.9, 4.7076e-07
9893.9, 4.6032e-07
9895.9, 4.8287e-07
9897.9, 4.9416e-07
9899.9, 4.6314e-07
9901.9, 4.1758e-07
9903.9, 4.7836e-07
9905.9, 4.69e-07
9907.9, 5.195e-07
9909.9, 4.5864e-07
9911.9, 4.6167e-07
9913.9, 4.1327e-07
9915.9, 4.6e-07
9917.9, 4.504e-07
9919.9, 4.434e-07
9921.9, 4.5659e-07
9923.9, 4.7672e-07
9925.9, 4.7379e-07
9927.9, 4.6935e-07
9929.9, 4.3593e-07
9931.9, 4.7351e-07
9933.9, 4.5598e-07
9935.9, 4.3879e-07
9937.9, 4.5888e-07
9939.9, 4.7122e-07
9941.9, 4.372e-07
9943.9, 4.6566e-07
9945.9, 4.8252e-07
9947.9, 4.6984e-07
9949.9, 4.5742e-07
9951.9, 4.4286e-07
9953.9, 4.7669e-07
9955.9, 4.886e-07
9957.9, 4.5343e-07
9959.9, 4.8463e-07
9962.0, 4.4613e-07
9964.0, 4.6368e-07
9966.0, 4.4677e-07
9968.0, 4.6315e-07
9970.0, 4.224e-07
9972.0, 5.0091e-07
9974.0, 4.8467e-07
9976.0, 4.292e-07
9978.0, 4.8236e-07
9980.0, 4.3364e-07
9982.0, 4.6859e-07
9984.0, 4.2111e-07
9986.0, 4.6045e-07
9988.0, 4.2572e-07
9990.0, 4.4265e-07
9992.0, 4.8899e-07
9994.0, 4.9265e-07
9996.0, 4.8021e-07
9998.0, 4.5278e-07
10000.0, 4.5487e-07
10002.0, 4.7693e-07
10004.0, 4.613e-07
10006.0, 4.5997e-07
10008.0, 4.3961e-07
10010.0, 4.351e-07
10012.0, 4.8947e-07
10014.0, 4.7406e-07
10016.0, 4.4474e-07
10018.0, 4.911e-07
10020.0, 4.3975e-07
10022.0, 4.7552e-07
10024.0, 4.5622e-07
10026.0, 4.4579e-07
10028.0, 4.2372e-07
10030.0, 4.731e-07
10032.0, 4.5711e-07
10034.0, 4.9992e-07
10036.0, 4.9473e-07
10038.0, 4.3867e-07
10040.0, 4.5479e-07
10042.0, 4.9141e-07
10044.0, 4.4162e-07
10046.0, 4.8271e-07
10048.0, 4.4465e-07
10050.0, 4.4347e-07
10052.0, 5.1622e-07
10054.0, 4.3785e-07
10056.0, 4.4812e-07
10058.0, 4.5264e-07
10060.0, 4.8949e-07
10062.0, 4.6526e-07
10064.0, 4.2281e-07
10066.0, 4.524e-07
10068.0, 4.5489e-07
10070.0, 4.9685e-07
10072.0, 4.1217e-07
10074.0, 4.0108e-07
10076.0, 4.5358e-07
10078.0, 4.424e-07
10080.0, 4.5459e-07
10082.0, 4.8015e-07
10084.0, 4.48e-07
10086.0, 4.7576e-07
10088.0, 4.8584e-07
10090.0, 4.73e-07
10092.0, 4.6401e-07
10094.0, 4.7762e-07
10096.0, 5.2011e-07
10098.0, 4.6242e-07
10100.0, 4.6295e-07
10102.0, 4.6165e-07
10104.0, 4.1715e-07
10106.0, 4.9588e-07
10108.0, 4.9731e-07
10110.0, 4.8937e-07
10112.0, 4.8564e-07
10114.0, 4.963e-07
10116.0, 4.4015e-07
10118.0, 4.8813e-07
10120.0, 4.7939e-07
10122.0, 4.2763e-07
10124.0, 4.4034e-07
10126.0, 5.0337e-07
10128.0, 4.4401e-07
10130.0, 4.4769e-07
10132.0, 4.4558e-07
10134.0, 4.5765e-07
10136.0, 4.6726e-07
10138.0, 4.5796e-07
10140.0, 4.8104e-07
10142.0, 4.2488e-07
10144.0, 4.2788e-07
10146.0, 4.5418e-07
10148.0, 4.5167e-07
10150.0, 4.7269e-07
10152.0, 4.6326e-07
10154.0, 4.818e-07
10156.0, 4.7031e-07
10158.0, 4.4881e-07
10160.0, 4.5122e-07
10162.0, 4.2969e-07
10164.0, 4.5304e-07
10166.0, 4.8784e-07
10168.0, 4.4028e-07
10170.0, 4.5877e-07
10172.0, 4.2436e-07
10174.0, 4.3695e-07
10176.0, 3.9504e-07
10178.0, 4.7497e-07
10180.0, 4.489e-07
10182.0, 4.6759e-07
10184.0, 5.3273e-07
10186.0, 4.8266e-07
10188.0, 4.9155e-07
10190.0, 4.4452e-07
10192.0, 4.4936e-07
10194.0, 4.6741e-07
10196.0, 4.776e-07
10198.0, 1.9485e-07
10200.0, -2.97e-08
10202.0, -3.073e-08
10204.0, -2.864e-08
10206.0, -3.018e-08
10208.0, -3.327e-08
10210.0, -2.953e-08
10212.0, -3.2e-08
10214.0, -3.391e-08
10216.0, -3.058e-08
10218.0, -3.2e-08
10220.0, -2.833e-08
10222.0, -3.298e-08
10224.0, -3.241e-08
10226.0, -3.055e-08
10228.0, -3.029e-08
10230.0, -3.093e-08
10232.0, -3.285e-08
10234.0, -3.209e-08
10236.0, -3.129e-08
10238.0, -3.136e-08
10240.0, -3.009e-08
10242.0, -3.096e-08
10244.0, -3.113e-08
10246.0, -3.221e-08
10248.0, -3.146e-08
10250.0, -3.347e-08
10252.0, -3.401e-08
10254.0, -3.225e-08
10256.0, -3.597e-08
10258.0, -3.104e-08
10260.0, -3.315e-08
10262.0, -3.206e-08
10264.0, -3.052e-08
10266.0, -3.221e-08
10268.0, -2.91e-08
10270.0, -3.293e-08
10272.0, -3.36e-08
10274.0, -3.186e-08
10276.0, -3.283e-08
10278.0, -3.182e-08
10280.0, -3.224e-08
10282.0, -3.353e-08
10284.0, -3.484e-08
10286.0, -3.176e-08
10288.0, -3.128e-08
10290.0, -3.437e-08
10292.0, -3.272e-08
10294.0, -3.477e-08
10296.0, -3.333e-08
10298.0, -3.568e-08
10300.0, -3.565e-08
10302.0, -3.02e-08
10304.0, -3.589e-08
10306.0, -3.339e-08
10308.0, -3.249e-08
10310.0, -3.431e-08
10312.0, -3.172e-08
10314.0, -3.319e-08
10316.0, -3.165e-08
10318.0, -3.027e-08
10320.0, -3.098e-08
10322.0, -3.14e-08
10324.0, -3.398e-08
10326.0, -3.315e-08
10328.0, -3.583e-08
10330.0, -3.179e-08
10332.0, -3.315e-08
10334.0, -3.693e-08
10336.0, -3.348e-08
10338.0, -3.781e-08
10340.0, -3.418e-08
10342.0, -3.775e-08
10344.0, -3.334e-08
10346.0, -3.389e-08
10348.0, -3.461e-08
10350.0, -3.478e-08
10352.0, -3.36e-08
10354.0, -3.526e-08
10356.0, -3.475e-08
10358.0, -3.111e-08
10360.0, -3.241e-08
10362.0, -3.298e-08
10364.0, -3.413e-08
10366.0, -3.145e-08
10368.0, -3.157e-08
10370.0, -3.452e-08
10372.0, -3.455e-08
10374.0, -3.431e-08
10376.0, -3.298e-08
10378.0, -3.32e-08
10380.0, -3.179e-08
10382.0, -3.547e-08
10384.0, -3.972e-08
10386.0, -3.841e-08
10388.0, -3.635e-08
10390.0, -3.449e-08
10392.0, -3.642e-08
10394.0, -3.451e-08
10396.0, -3.474e-08
10398.0, -2.97e-08
10400.0, -3.164e-08
10402.0, -3.236e-08
10404.0, -3.661e-08
10406.0, -3.37e-08
10408.0, -3.359e-08
10410.0, -3.653e-08
10412.0, -3.333e-08
10414.0, -3.434e-08
10416.0, -3.163e-08
10418.0, -3.457e-08
10420.0, -3.34e-08
10422.0, -3.306e-08
10424.0, -3.423e-08
10426.0, -3.505e-08
10428.0, -3.3e-08
10430.0, -3.402e-08
10432.0, -3.868e-08
10434.0, -3.557e-08
10436.0, -3.295e-08
10438.0, -3.525e-08
10440.0, -3.179e-08
10442.0, -3.338e-08
10444.0, -3.431e-08
10446.0, -3.513e-08
10448.0, -3.183e-08
10450.0, -3.406e-08
10452.0, -3.21e-08
10454.0, -2.954e-08
10456.0, -3.273e-08
10458.0, -3.338e-08
10460.0, -3.368e-08
10462.0, -3.263e-08
10464.0, -3.346e-08
10466.0, -3.25e-08
10468.0, -3.022e-08
10470.0, -3.35e-08
10472.0, -3.365e-08
10474.0, -3.203e-08
10476.0, -3.365e-08
10478.0, -3.336e-08
10480.0, -3.573e-08
10482.0, -3.582e-08
10484.0, -3.153e-08
10486.0, -3.344e-08
10488.0, -3.497e-08
10490.0, -3.032e-08
10492.0, -3.466e-08
10494.0, -3.293e-08
10496.0, -3.658e-08
10498.0, -3.3e-08
10500.0, -3.509e-08
10502.0, -3.608e-08
10504.0, -3.478e-08
10506.0, -3.439e-08
10508.0, -3.351e-08
10510.0, -3.403e-08
10513.0, -3.524e-08
10515.0, -3.615e-08
10517.0, -3.466e-08
10519.0, -3.541e-08
10521.0, -3.263e-08
10523.0, -3.143e-08
10525.0, -3.369e-08
10527.0, -3.366e-08
10529.0, -3.204e-08
10531.0, -3.131e-08
10533.0, -2.967e-08
10535.0, -3.456e-08
10537.0, -2.96e-08
10539.0, -3.149e-08
10541.0, -3.01e-08
10543.0, -3.131e-08
10545.0, -3.518e-08
10547.0, -3.443e-08
10549.0, -3.722e-08
10551.0, -3.736e-08
10553.0, -3.487e-08
10555.0, -3.444e-08
10557.0, -3.153e-08
10559.0, -3.235e-08
10561.0, -3.295e-08
10563.0, -2.979e-08
10565.0, -3.464e-08
10567.0, -3.159e-08
10569.0, -3.47e-08
10571.0, -2.993e-08
10573.0, -3.25e-08
10575.0, -3.229e-08
10577.0, -3.107e-08
10579.0, -3.415e-08
10581.0, -3.144e-08
10583.0, -3.456e-08
10585.0, -3.571e-08
10587.0, -3.388e-08
10589.0, -2.98e-08
10591.0, -3.207e-08
10593.0, -3.709e-08
10595.0, -3.42e-08
10597.0, -3.419e-08
10599.0, -3.501e-08
10601.0, -3.306e-08
10603.0, -3.339e-08
10605.0, -3.381e-08
10607.0, -3.538e-08
10609.0, -3.34e-08
10611.0, -3.769e-08
10613.0, -4.162e-08
10615.0, -3.767e-08
10617.0, -3.605e-08
10619.0, -3.406e-08
10621.0, -3.649e-08
10623.0, -3.454e-08
10625.0, -3.441e-08
10627.0, -3.563e-08
10629.0, -4.046e-08
10631.0, -3.653e-08
10633.0, -3.465e-08
10635.0, -3.607e-08
10637.0, -4.027e-08
10639.0, -4.095e-08
10641.0, -3.82e-08
10643.0, -3.689e-08
10645.0, -3.65e-08
10647.0, -3.817e-08
10649.0, -3.228e-08
10651.0, -3.444e-08
10653.0, -3.612e-08
10655.0, -3.969e-08
10657.0, -3.799e-08
10659.0, -3.815e-08
10661.0, -3.688e-08
10663.0, -3.546e-08
10665.0, -3.678e-08
10667.0, -3.868e-08
10669.0, -3.582e-08
10671.0, -3.212e-08
10673.0, -3.792e-08
10675.0, -3.759e-08
10677.0, -3.5e-08
10679.0, -3.349e-08
10681.0, -3.32e-08
10683.0, -3.347e-08
10685.0, -3.081e-08
10687.0, -3.655e-08
10689.0, -3.011e-08
10691.0, -3.556e-08
10693.0, -3.33e-08
10695.0, -3.482e-08
10697.0, -3.599e-08
10699.0, -3.477e-08
10701.0, -3.476e-08
10703.0, -3.39e-08
10705.0, -3.593e-08
10707.0, -3.618e-08
10709.0, -3.573e-08
10711.0, -3.686e-08
10713.0, -3.945e-08
10715.0, -3.656e-08
10717.0, -3.647e-08
10719.0, -3.58e-08
10721.0, -3.763e-08
10723.0, -3.497e-08
10725.0, -3.437e-08
10727.0, -3.335e-08
10729.0, -3.355e-08
10731.0, -3.604e-08
10733.0, -3.555e-08
10735.0, -3.308e-08
10737.0, -3.162e-08
10739.0, -3.674e-08
10741.0, -3.56e-08
10743.0, -3.379e-08
10745.0, -3.903e-08
10747.0, -3.345e-08
10749.0, -3.312e-08
10751.0, -3.182e-08
10753.0, -3.509e-08
10755.0, -3.455e-08
10757.0, -3.54e-08
10759.0, -3.792e-08
10761.0, -3.255e-08
10763.0, -3.729e-08
10765.0, -3.114e-08
10767.0, -3.636e-08
10769.0, -3.515e-08
10771.0, -3.444e-08
10773.0, -3.227e-08
10775.0, -3.784e-08
10777.0, -3.383e-08
10779.0, -3.726e-08
10781.0, -3.443e-08
10783.0, -3.272e-08
10785.0, -3.188e-08
10787.0, -3.264e-08
10789.0, -3.456e-08
10791.0, -3.165e-08
10793.0, -3.892e-08
10795.0, -3.226e-08
10797.0, -2.917e-08
10799.0, -3.135e-08
10801.0, -3.168e-08
10803.0, -2.99e-08
10805.0, -3.309e-08
10807.0, -3.124e-08
10809.0, -2.961e-08
10811.0, -3.055e-08
10813.0, -3.061e-08
10815.0, -3.166e-08
10817.0, -3.242e-08
10819.0, -3.126e-08
10821.0, -2.714e-08
10823.0, -3.072e-08
10825.0, -2.859e-08
10827.0, -2.931e-08
10829.0, -3.183e-08
10831.0, -2.837e-08
10833.0, -3.315e-08
10835.0, -3.375e-08
10837.0, -3.168e-08
10839.0, -3.083e-08
10841.0, -3.166e-08
10843.0, -3.043e-08
10845.0, -3.5e-08
10847.0, -3.482e-08
10849.0, -3.203e-08
10851.0, -3.458e-08
10853.0, -3.473e-08
10855.0, -3.764e-08
10857.0, -3.181e-08
10859.0, -3.448e-08
10861.0, -3.337e-08
10863.0, -3.574e-08
10865.0, -3.573e-08
10867.0, -3.609e-08
10869.0, -4.148e-08
10871.0, -3.996e-08
10873.0, -3.946e-08
10875.0, -3.455e-08
10877.0, -3.514e-08
10879.0, -3.621e-08
10881.0, -4.008e-08
10883.0, -3.737e-08
10885.0, -3.698e-08
10887.0, -3.659e-08
10889.0, -3.385e-08
10891.0, -3.53e-08
10893.0, -3.437e-08
10895.0, -3.593e-08
10897.0, -3.554e-08
10899.0, -3.383e-08
10901.0, -3.352e-08
10903.0, -3.806e-08
10905.0, -3.934e-08
10907.0, -3.589e-08
10909.0, -3.847e-08
10911.0, -3.312e-08
10913.0, -3.677e-08
10915.0, -3.594e-08
10917.0, -3.537e-08
10919.0, -3.485e-08
10921.0, -3.45e-08
10923.0, -3.875e-08
10925.0, -3.579e-08
10927.0, -3.878e-08
10929.0, -3.361e-08
10931.0, -3.398e-08
10933.0, -3.559e-08
10935.0, -3.404e-08
10937.0, -3.514e-08
10939.0, -2.976e-08
10941.0, -3.22e-08
10943.0, -3.166e-08
10945.0, -3.051e-08
10947.0, -2.968e-08
10949.0, -3.179e-08
10951.0, -3.444e-08
10953.0, -2.904e-08
10955.0, -2.782e-08
10957.0, -3.13e-08
10959.0, -3.62e-08
10961.0, -3.368e-08
10963.0, -3.565e-08
10965.0, -3.343e-08
10967.0, -3.574e-08
10969.0, -3.573e-08
10971.0, -3.404e-08
10973.0, -3.128e-08
10975.0, -3.43e-08
10977.0, -3.741e-08
10979.0, -3.432e-08
10981.0, -3.327e-08
10983.0, -3.321e-08
10985.0, -3.387e-08
10987.0, -3.424e-08
10989.0, -3.264e-08
10991.0, -2.964e-08
10993.0, -3.514e-08
10995.0, -2.931e-08
10997.0, -3.235e-08
10999.0, -3.297e-08
11001.0, -3.535e-08
11003.0, -3.323e-08
11005.0, -3.411e-08
11007.0, -3.322e-08
11009.0, -3.431e-08
