Time sep (ms?), Current (A)
0.0, -2.196e-08
2.002, -2.312e-08
4.004, -2.174e-08
6.006, -2.376e-08
8.008, -2.336e-08
10.01, -2.49e-08
12.012, -2.127e-08
14.014, -1.966e-08
16.016, -2.197e-08
18.018, -2.286e-08
20.02, -2.044e-08
22.022, -2.401e-08
24.024, -2.484e-08
26.026, -2.357e-08
28.028, -2.592e-08
30.03, -2.381e-08
32.032, -2.257e-08
34.034, -2.525e-08
36.036, -1.906e-08
38.038, -2.256e-08
40.04, -2.256e-08
42.042, -2.131e-08
44.044, -2.407e-08
46.046, -1.983e-08
48.048, -2.228e-08
50.05, -2.374e-08
52.052, -2.612e-08
54.054, -2.087e-08
56.056, -2.039e-08
58.058, -2.157e-08
60.06, -2.211e-08
62.062, -2.38e-08
64.064, -2.242e-08
66.066, -2.388e-08
68.068, -2.309e-08
70.07, -2.233e-08
72.072, -2.429e-08
74.074, -2.204e-08
76.076, -2.049e-08
78.078, -2.265e-08
80.08, -2.291e-08
82.082, -2.103e-08
84.084, -2.365e-08
86.086, -2.059e-08
88.088, -2.169e-08
90.09, -2.135e-08
92.092, -2.001e-08
94.094, -1.826e-08
96.096, -2.097e-08
98.098, -2.024e-08
100.1, -1.814e-08
102.1, -2.185e-08
104.1, -2.098e-08
106.11, -1.968e-08
108.11, -2.121e-08
110.11, -1.95e-08
112.11, -1.811e-08
114.11, -1.913e-08
116.12, -1.885e-08
118.12, -1.977e-08
120.12, -2.318e-08
122.12, -1.829e-08
124.12, -1.943e-08
126.13, -1.985e-08
128.13, -1.901e-08
130.13, -2.176e-08
132.13, -2.091e-08
134.13, -1.913e-08
136.14, -1.818e-08
138.14, -2.012e-08
140.14, -1.943e-08
142.14, -2.145e-08
144.14, -2.074e-08
146.15, -2.029e-08
148.15, -2.008e-08
150.15, -2.211e-08
152.15, -1.937e-08
154.15, -1.954e-08
156.16, -1.789e-08
158.16, -1.935e-08
160.16, -2.102e-08
162.16, -2.139e-08
164.16, -2.15e-08
166.17, -2.069e-08
168.17, -2.069e-08
170.17, -2.144e-08
172.17, -2.418e-08
174.17, -1.916e-08
176.18, -1.839e-08
178.18, -2.501e-08
180.18, -2.263e-08
182.18, -2.569e-08
184.18, -2.566e-08
186.19, -2.374e-08
188.19, -2.547e-08
190.19, -2.389e-08
192.19, -2.136e-08
194.19, -2.36e-08
196.2, -2.333e-08
198.2, -2.104e-08
200.2, -1.894e-08
202.2, -1.912e-08
204.2, -1.757e-08
206.21, -1.905e-08
208.21, -1.487e-08
210.21, -1.999e-08
212.21, -1.672e-08
214.21, -2.055e-08
216.22, -1.858e-08
218.22, -2.342e-08
220.22, -1.964e-08
222.22, -2.079e-08
224.22, -1.8e-08
226.23, -1.833e-08
228.23, -2.211e-08
230.23, -2.003e-08
232.23, -2.056e-08
234.23, -2.131e-08
236.24, -1.958e-08
238.24, -2.263e-08
240.24, -1.983e-08
242.24, -2.246e-08
244.24, -2.109e-08
246.25, -2.057e-08
248.25, -2.091e-08
250.25, -1.834e-08
252.25, -2.242e-08
254.25, -2.267e-08
256.26, -2.126e-08
258.26, -2.171e-08
260.26, -2.46e-08
262.26, -2.225e-08
264.26, -2.166e-08
266.27, -2.228e-08
268.27, -2.185e-08
270.27, -2.659e-08
272.27, -2.362e-08
274.27, -2.563e-08
276.28, -2.443e-08
278.28, -2.123e-08
280.28, -2.311e-08
282.28, -2.085e-08
284.28, -2.31e-08
286.29, -2.416e-08
288.29, -2.268e-08
290.29, -2.399e-08
292.29, -2.37e-08
294.29, -2.043e-08
296.3, -2.193e-08
298.3, -2.119e-08
300.3, -2.343e-08
302.3, -2.189e-08
304.3, -2.11e-08
306.31, -2.088e-08
308.31, -2.332e-08
310.31, -2.489e-08
312.31, -2.097e-08
314.31, -2.238e-08
316.32, -2.268e-08
318.32, -2.547e-08
320.32, -2.187e-08
322.32, -2.133e-08
324.32, -2.109e-08
326.33, -2.064e-08
328.33, -2.176e-08
330.33, -2.183e-08
332.33, -2.153e-08
334.33, -2.069e-08
336.34, -2.112e-08
338.34, -2.491e-08
340.34, -2.26e-08
342.34, -2.193e-08
344.34, -2.686e-08
346.35, -2.4e-08
348.35, -2.436e-08
350.35, -2.492e-08
352.35, -2.507e-08
354.35, -2.327e-08
356.36, -2.17e-08
358.36, -2.196e-08
360.36, -2.162e-08
362.36, -2.133e-08
364.36, -2.012e-08
366.37, -2.19e-08
368.37, -2.049e-08
370.37, -2.42e-08
372.37, -2.059e-08
374.37, -1.906e-08
376.38, -2.016e-08
378.38, -2.242e-08
380.38, -2.323e-08
382.38, -1.884e-08
384.38, -2.101e-08
386.39, -2.144e-08
388.39, -1.968e-08
390.39, -1.967e-08
392.39, -2.388e-08
394.39, -2.044e-08
396.4, -1.961e-08
398.4, -2.134e-08
400.4, -2.009e-08
402.4, -2.272e-08
404.4, -1.889e-08
406.41, -2.223e-08
408.41, -1.754e-08
410.41, -2.303e-08
412.41, -1.814e-08
414.41, -1.872e-08
416.42, -2.169e-08
418.42, -1.944e-08
420.42, -2.06e-08
422.42, -2.061e-08
424.42, -2.185e-08
426.43, -2.439e-08
428.43, -2.328e-08
430.43, -2.154e-08
432.43, -2.206e-08
434.43, -2.202e-08
436.44, -2.089e-08
438.44, -2.284e-08
440.44, -1.756e-08
442.44, -1.83e-08
444.44, -1.509e-08
446.45, -2.225e-08
448.45, -1.738e-08
450.45, -1.941e-08
452.45, -2.033e-08
454.45, -1.907e-08
456.46, -1.804e-08
458.46, -1.712e-08
460.46, -1.755e-08
462.46, -1.857e-08
464.46, -1.873e-08
466.47, -1.877e-08
468.47, -1.944e-08
470.47, -2.088e-08
472.47, -2.237e-08
474.47, -1.968e-08
476.48, -2.097e-08
478.48, -1.923e-08
480.48, -2.625e-08
482.48, -2.202e-08
484.48, -2.117e-08
486.49, -2.058e-08
488.49, -2.109e-08
490.49, -2.153e-08
492.49, -2.035e-08
494.49, -1.695e-08
496.5, -2.123e-08
498.5, -1.866e-08
500.5, -2.02e-08
502.5, -2.155e-08
504.5, -2.007e-08
506.51, -1.891e-08
508.51, -1.992e-08
510.51, -2.057e-08
512.51, -1.826e-08
514.51, -1.897e-08
516.52, -1.775e-08
518.52, -2.149e-08
520.52, -2.285e-08
522.52, -2.002e-08
524.52, -1.97e-08
526.53, -2.003e-08
528.53, -2.269e-08
530.53, -2.088e-08
532.53, -2.102e-08
534.53, -1.971e-08
536.54, -1.833e-08
538.54, -1.871e-08
540.54, -2.2e-08
542.54, -1.788e-08
544.54, -2.153e-08
546.55, -2.283e-08
548.55, -2.248e-08
550.55, -2.295e-08
552.55, -2.327e-08
554.55, -2.297e-08
556.56, -2.215e-08
558.56, -1.712e-08
560.56, -1.925e-08
562.56, -2.07e-08
564.56, -1.908e-08
566.57, -2.032e-08
568.57, -2.051e-08
570.57, -1.911e-08
572.57, -1.818e-08
574.57, -1.896e-08
576.58, -1.764e-08
578.58, -2.06e-08
580.58, -1.646e-08
582.58, -2.029e-08
584.58, -1.88e-08
586.59, -1.953e-08
588.59, -1.835e-08
590.59, -1.832e-08
592.59, -2.103e-08
594.59, -1.585e-08
596.6, -1.651e-08
598.6, -2.039e-08
600.6, -1.621e-08
602.6, -1.483e-08
604.6, -1.677e-08
606.61, -1.334e-08
608.61, -1.559e-08
610.61, -1.759e-08
612.61, -2.195e-08
614.61, -1.963e-08
616.62, -2.026e-08
618.62, -2.166e-08
620.62, -1.826e-08
622.62, -1.579e-08
624.62, -1.718e-08
626.63, -1.548e-08
628.63, -1.413e-08
630.63, -1.883e-08
632.63, -1.771e-08
634.63, -1.805e-08
636.64, -1.998e-08
638.64, -1.734e-08
640.64, -2.334e-08
642.64, -1.957e-08
644.64, -2.176e-08
646.65, -2.022e-08
648.65, -2.11e-08
650.65, -2.083e-08
652.65, -1.769e-08
654.65, -2.338e-08
656.66, -2.319e-08
658.66, -2.32e-08
660.66, -1.865e-08
662.66, -2.305e-08
664.66, -2.118e-08
666.67, -2.003e-08
668.67, -1.846e-08
670.67, -1.832e-08
672.67, -1.96e-08
674.67, -1.981e-08
676.68, -1.997e-08
678.68, -1.893e-08
680.68, -1.791e-08
682.68, -1.766e-08
684.68, -1.848e-08
686.69, -1.979e-08
688.69, -2.382e-08
690.69, -2.213e-08
692.69, -2.091e-08
694.69, -2.064e-08
696.7, -2.134e-08
698.7, -2.171e-08
700.7, -2.148e-08
702.7, -2.161e-08
704.7, -2.405e-08
706.71, -1.936e-08
708.71, -2.157e-08
710.71, -1.87e-08
712.71, -2.066e-08
714.71, -1.877e-08
716.72, -1.739e-08
718.72, -2.082e-08
720.72, -1.688e-08
722.72, -1.594e-08
724.72, -1.86e-08
726.73, -1.903e-08
728.73, -1.505e-08
730.73, -1.61e-08
732.73, -1.673e-08
734.73, -1.597e-08
736.74, -1.853e-08
738.74, -2.063e-08
740.74, -2.22e-08
742.74, -2.106e-08
744.74, -1.832e-08
746.75, -1.884e-08
748.75, -2.184e-08
750.75, -2.127e-08
752.75, -2.033e-08
754.75, -1.947e-08
756.76, -2.221e-08
758.76, -2.407e-08
760.76, -2.252e-08
762.76, -2.172e-08
764.76, -2.402e-08
766.77, -1.78e-08
768.77, -2.226e-08
770.77, -1.853e-08
772.77, -1.675e-08
774.77, -1.733e-08
776.78, -1.58e-08
778.78, -1.496e-08
780.78, -1.432e-08
782.78, -1.497e-08
784.78, -1.317e-08
786.79, -1.665e-08
788.79, -1.979e-08
790.79, -2.006e-08
792.79, -1.51e-08
794.79, -1.377e-08
796.8, -9.37e-09
798.8, -1.087e-08
800.8, -1.215e-08
802.8, -1.548e-08
804.8, -1.501e-08
806.81, -1.063e-08
808.81, -1.573e-08
810.81, -1.332e-08
812.81, -1.382e-08
814.81, -1.597e-08
816.82, -1.804e-08
818.82, -1.866e-08
820.82, -1.845e-08
822.82, -1.765e-08
824.82, -2.157e-08
826.83, -1.775e-08
828.83, -1.971e-08
830.83, -1.62e-08
832.83, -2.24e-08
834.83, -1.912e-08
836.84, -2.028e-08
838.84, -2.223e-08
840.84, -2.138e-08
842.84, -2.097e-08
844.84, -2.019e-08
846.85, -2.318e-08
848.85, -2.339e-08
850.85, -2.148e-08
852.85, -2.277e-08
854.85, -2.401e-08
856.86, -2.142e-08
858.86, -2.334e-08
860.86, -2.528e-08
862.86, -2.719e-08
864.86, -2.331e-08
866.87, -2.362e-08
868.87, -2.264e-08
870.87, -2.463e-08
872.87, -2.42e-08
874.87, -2.289e-08
876.88, -2.292e-08
878.88, -2.259e-08
880.88, -2.043e-08
882.88, -1.783e-08
884.88, -1.748e-08
886.89, -1.963e-08
888.89, -2.623e-08
890.89, -2.164e-08
892.89, -2.266e-08
894.89, -2.259e-08
896.9, -2.281e-08
898.9, -2.254e-08
900.9, -2.164e-08
902.9, -2.2e-08
904.9, -2.345e-08
906.91, -2.454e-08
908.91, -2.39e-08
910.91, -2.097e-08
912.91, -1.776e-08
914.91, -1.845e-08
916.92, -1.622e-08
918.92, -1.768e-08
920.92, -1.883e-08
922.92, -2.203e-08
924.92, -2.14e-08
926.93, -2.05e-08
928.93, -2.42e-08
930.93, -2.12e-08
932.93, -2.495e-08
934.93, -2.232e-08
936.94, -2.543e-08
938.94, -2.059e-08
940.94, -2.086e-08
942.94, -2.323e-08
944.94, -1.995e-08
946.95, -2.146e-08
948.95, -2.482e-08
950.95, -2.591e-08
952.95, -2.055e-08
954.95, -2.158e-08
956.96, -2.163e-08
958.96, -1.987e-08
960.96, -1.717e-08
962.96, -1.896e-08
964.96, -1.699e-08
966.97, -2.033e-08
968.97, -1.818e-08
970.97, -1.693e-08
972.97, -1.864e-08
974.97, -2.067e-08
976.98, -2.264e-08
978.98, -2.189e-08
980.98, -1.876e-08
982.98, -1.921e-08
984.98, -1.996e-08
986.99, -2.312e-08
988.99, -2.211e-08
990.99, -2.223e-08
992.99, -2.065e-08
994.99, -2.084e-08
997.0, -1.894e-08
999.0, -2.137e-08
1001.0, -2.089e-08
1003.0, -2.441e-08
1005.0, -2.366e-08
1007.0, -1.782e-08
1009.0, -2.005e-08
1011.0, -2.002e-08
1013.0, -1.845e-08
1015.0, -2.199e-08
1017.0, -2.404e-08
1019.0, -2.048e-08
1021.0, -1.847e-08
1023.0, -2.354e-08
1025.0, -2.39e-08
1027.0, -2.524e-08
1029.0, -2.609e-08
1031.0, -2.686e-08
1033.0, -2.725e-08
1035.0, -2.542e-08
1037.0, -2.388e-08
1039.0, -2.641e-08
1041.0, -2.471e-08
1043.0, -2.369e-08
1045.0, -2.56e-08
1047.0, -2.672e-08
1049.0, -2.668e-08
1051.0, -2.239e-08
1053.1, -2.574e-08
1055.1, -2.574e-08
1057.1, -2.308e-08
1059.1, -2.331e-08
1061.1, -2.499e-08
1063.1, -2.102e-08
1065.1, -2.159e-08
1067.1, -2.101e-08
1069.1, -2.108e-08
1071.1, -2.182e-08
1073.1, -2.154e-08
1075.1, -1.776e-08
1077.1, -1.868e-08
1079.1, -2.152e-08
1081.1, -2.233e-08
1083.1, -2.11e-08
1085.1, -2.207e-08
1087.1, -2.476e-08
1089.1, -2.342e-08
1091.1, -2.52e-08
1093.1, -2.12e-08
1095.1, -2.461e-08
1097.1, -2.614e-08
1099.1, -2.563e-08
1101.1, -2.436e-08
1103.1, -2.358e-08
1105.1, -2.286e-08
1107.1, -2.461e-08
1109.1, -2.339e-08
1111.1, -2.322e-08
1113.1, -2.399e-08
1115.1, -2.341e-08
1117.1, -2.381e-08
1119.1, -2.541e-08
1121.1, -2.432e-08
1123.1, -2.423e-08
1125.1, -2.311e-08
1127.1, -2.562e-08
1129.1, -2.09e-08
1131.1, -2.197e-08
1133.1, -2.282e-08
1135.1, -2.327e-08
1137.1, -2.18e-08
1139.1, -2.329e-08
1141.1, -2.291e-08
1143.1, -2.437e-08
1145.1, -2.381e-08
1147.1, -2.239e-08
1149.1, -2.567e-08
1151.1, -2.387e-08
1153.2, -2.446e-08
1155.2, -2.209e-08
1157.2, -2.464e-08
1159.2, -2.325e-08
1161.2, -2.445e-08
1163.2, -2.547e-08
1165.2, -2.417e-08
1167.2, -2.239e-08
1169.2, -2.404e-08
1171.2, -2.203e-08
1173.2, -2.725e-08
1175.2, -2.053e-08
1177.2, -2.269e-08
1179.2, -2.259e-08
1181.2, -2.168e-08
1183.2, -2.52e-08
1185.2, -1.948e-08
1187.2, -2.12e-08
1189.2, -2.491e-08
1191.2, -2.306e-08
1193.2, -2.196e-08
1195.2, -2.354e-08
1197.2, -2.45e-08
1199.2, -2.436e-08
1201.2, -2.404e-08
1203.2, -2.495e-08
1205.2, -2.525e-08
1207.2, -2.454e-08
1209.2, -2.249e-08
1211.2, -2.039e-08
1213.2, -2.31e-08
1215.2, -2.059e-08
1217.2, -2.105e-08
1219.2, -2.101e-08
1221.2, -2.211e-08
1223.2, -1.983e-08
1225.2, -2.101e-08
1227.2, -2.086e-08
1229.2, -2.302e-08
1231.2, -1.992e-08
1233.2, -1.997e-08
1235.2, -2.158e-08
1237.2, -1.913e-08
1239.2, -1.805e-08
1241.2, -2.288e-08
1243.2, -1.838e-08
1245.2, -2.221e-08
1247.2, -2.151e-08
1249.2, -1.955e-08
1251.2, -1.891e-08
1253.3, -2.346e-08
1255.3, -2.045e-08
1257.3, -1.73e-08
1259.3, -1.762e-08
1261.3, -1.832e-08
1263.3, -1.89e-08
1265.3, -2.071e-08
1267.3, -1.997e-08
1269.3, -2.09e-08
1271.3, -2.23e-08
1273.3, -2.069e-08
1275.3, -2.091e-08
1277.3, -2.284e-08
1279.3, -2.011e-08
1281.3, -2.375e-08
1283.3, -2.555e-08
1285.3, -2.288e-08
1287.3, -2.236e-08
1289.3, -2.748e-08
1291.3, -2.732e-08
1293.3, -2.272e-08
1295.3, -2.651e-08
1297.3, -2.632e-08
1299.3, -2.593e-08
1301.3, -2.328e-08
1303.3, -2.243e-08
1305.3, -2.348e-08
1307.3, -2.614e-08
1309.3, -2.499e-08
1311.3, -2.543e-08
1313.3, -2.29e-08
1315.3, -2.116e-08
1317.3, -2.076e-08
1319.3, -2.484e-08
1321.3, -2.169e-08
1323.3, -2.403e-08
1325.3, -2.772e-08
1327.3, -2.544e-08
1329.3, -2.736e-08
1331.3, -2.284e-08
1333.3, -2.525e-08
1335.3, -2.614e-08
1337.3, -2.29e-08
1339.3, -1.993e-08
1341.3, -2.073e-08
1343.3, -2.318e-08
1345.3, -2.419e-08
1347.3, -2.096e-08
1349.3, -2.352e-08
1351.3, -2.487e-08
1353.4, -2.425e-08
1355.4, -2.424e-08
1357.4, -2.378e-08
1359.4, -2.588e-08
1361.4, -2.572e-08
1363.4, -2.513e-08
1365.4, -2.052e-08
1367.4, -2.019e-08
1369.4, -2.104e-08
1371.4, -2.068e-08
1373.4, -2.257e-08
1375.4, -2.537e-08
1377.4, -2.375e-08
1379.4, -2.166e-08
1381.4, -2.106e-08
1383.4, -2.051e-08
1385.4, -2.085e-08
1387.4, -2.216e-08
1389.4, -2.508e-08
1391.4, -2.412e-08
1393.4, -2.101e-08
1395.4, -2.621e-08
1397.4, -2.278e-08
1399.4, -2.593e-08
1401.4, -2.524e-08
1403.4, -2.157e-08
1405.4, -2.703e-08
1407.4, -2.659e-08
1409.4, -2.538e-08
1411.4, -2.601e-08
1413.4, -2.647e-08
1415.4, -2.312e-08
1417.4, -2.239e-08
1419.4, -2.291e-08
1421.4, -2.429e-08
1423.4, -2.438e-08
1425.4, -2.314e-08
1427.4, -2.323e-08
1429.4, -2.436e-08
1431.4, -2.584e-08
1433.4, -2.367e-08
1435.4, -2.259e-08
1437.4, -2.094e-08
1439.4, -2.179e-08
1441.4, -2.115e-08
1443.4, -2.411e-08
1445.4, -2.389e-08
1447.4, -2.412e-08
1449.4, -2.482e-08
1451.4, -2.711e-08
1453.5, -2.261e-08
1455.5, -2.31e-08
1457.5, -2.365e-08
1459.5, -2.119e-08
1461.5, -2.102e-08
1463.5, -2.09e-08
1465.5, -2.52e-08
1467.5, -2.288e-08
1469.5, -2.461e-08
1471.5, -2.582e-08
1473.5, -2.305e-08
1475.5, 2.5058e-07
1477.5, 2.0532e-07
1479.5, 2.0613e-07
1481.5, 1.8787e-07
1483.5, 2.1251e-07
1485.5, 1.6034e-07
1487.5, 2.2719e-07
1489.5, 1.7205e-07
1491.5, 1.5142e-07
1493.5, 1.8398e-07
1495.5, 2.1138e-07
1497.5, 2.0756e-07
1499.5, 1.7022e-07
1501.5, 1.9831e-07
1503.5, 2.1937e-07
1505.5, 1.953e-07
1507.5, 2.1609e-07
1509.5, 1.8079e-07
1511.5, 1.6714e-07
1513.5, 2.0021e-07
1515.5, 1.8358e-07
1517.5, 2.1171e-07
1519.5, 1.8669e-07
1521.5, 1.924e-07
1523.5, 1.943e-07
1525.5, 1.723e-07
1527.5, 2.0767e-07
1529.5, 1.7477e-07
1531.5, 1.7391e-07
1533.5, 1.9511e-07
1535.5, 1.7874e-07
1537.5, 1.7522e-07
1539.5, 1.6433e-07
1541.5, 2.0639e-07
1543.5, 1.9746e-07
1545.5, 2.1268e-07
1547.5, 2.074e-07
1549.5, 1.8117e-07
1551.5, 2.4685e-07
1553.6, 1.778e-07
1555.6, 2.2809e-07
1557.6, 2.0388e-07
1559.6, 2.0595e-07
1561.6, 1.6996e-07
1563.6, 2.588e-07
1565.6, 2.3429e-07
1567.6, 2.1079e-07
1569.6, 1.8716e-07
1571.6, 2.3579e-07
1573.6, 2.1115e-07
1575.6, 2.3594e-07
1577.6, 2.1064e-07
1579.6, 2.3523e-07
1581.6, 1.8022e-07
1583.6, 1.8913e-07
1585.6, 2.2656e-07
1587.6, 1.8468e-07
1589.6, 2.0868e-07
1591.6, 2.3143e-07
1593.6, 2.141e-07
1595.6, 2.2343e-07
1597.6, 2.6161e-07
1599.6, 2.3507e-07
1601.6, 2.4305e-07
1603.6, 1.6121e-07
1605.6, 2.1953e-07
1607.6, 1.8749e-07
1609.6, 1.9205e-07
1611.6, 1.9375e-07
1613.6, 2.298e-07
1615.6, 2.1947e-07
1617.6, 2.262e-07
1619.6, 1.997e-07
1621.6, 1.8157e-07
1623.6, 2.0512e-07
1625.6, 1.9265e-07
1627.6, 2.4586e-07
1629.6, 1.8468e-07
1631.6, 1.959e-07
1633.6, 2.0027e-07
1635.6, 2.2549e-07
1637.6, 2.3127e-07
1639.6, 1.6242e-07
1641.6, 1.9702e-07
1643.6, 2.1451e-07
1645.6, 2.3536e-07
1647.6, 2.169e-07
1649.6, 2.0567e-07
1651.6, 2.4917e-07
1653.7, 2.0411e-07
1655.7, 2.242e-07
1657.7, 2.5994e-07
1659.7, 2.4733e-07
1661.7, 2.3291e-07
1663.7, 2.3389e-07
1665.7, 1.836e-07
1667.7, 1.9626e-07
1669.7, 2.4464e-07
1671.7, 2.2383e-07
1673.7, 2.6439e-07
1675.7, 2.4202e-07
1677.7, 2.2469e-07
1679.7, 2.7653e-07
1681.7, 2.3221e-07
1683.7, 2.3737e-07
1685.7, 2.3678e-07
1687.7, 2.1809e-07
1689.7, 2.4602e-07
1691.7, 2.0973e-07
1693.7, 2.115e-07
1695.7, 2.0145e-07
1697.7, 2.1654e-07
1699.7, 2.1801e-07
1701.7, 2.3234e-07
1703.7, 1.8279e-07
1705.7, 1.814e-07
1707.7, 2.0322e-07
1709.7, 2.0497e-07
1711.7, 2.265e-07
1713.7, 1.9709e-07
1715.7, 2.1661e-07
1717.7, 2.3532e-07
1719.7, 2.2001e-07
1721.7, 2.6522e-07
1723.7, 2.6682e-07
1725.7, 2.1201e-07
1727.7, 2.1329e-07
1729.7, 2.2885e-07
1731.7, 2.2779e-07
1733.7, 2.4518e-07
1735.7, 2.0499e-07
1737.7, 2.3765e-07
1739.7, 2.7689e-07
1741.7, 2.3238e-07
1743.7, 2.4512e-07
1745.7, 1.9555e-07
1747.7, 2.3387e-07
1749.7, 1.5944e-07
1751.7, 2.0332e-07
1753.8, 2.1303e-07
1755.8, 2.4435e-07
1757.8, 2.1758e-07
1759.8, 2.5927e-07
1761.8, 2.3582e-07
1763.8, 1.8979e-07
1765.8, 2.618e-07
1767.8, 1.89e-07
1769.8, 2.2974e-07
1771.8, 1.9271e-07
1773.8, 2.258e-07
1775.8, 2.0972e-07
1777.8, 2.3481e-07
1779.8, 1.7311e-07
1781.8, 2.2686e-07
1783.8, 2.1325e-07
1785.8, 1.9235e-07
1787.8, 2.2505e-07
1789.8, 2.0866e-07
1791.8, 2.4593e-07
1793.8, 2.248e-07
1795.8, 2.3924e-07
1797.8, 2.2155e-07
1799.8, 2.3218e-07
1801.8, 2.0353e-07
1803.8, 2.0212e-07
1805.8, 2.3002e-07
1807.8, 2.0192e-07
1809.8, 2.2021e-07
1811.8, 2.1113e-07
1813.8, 2.1321e-07
1815.8, 2.4932e-07
1817.8, 1.6253e-07
1819.8, 2.46e-07
1821.8, 2.1315e-07
1823.8, 2.1343e-07
1825.8, 2.6759e-07
1827.8, 1.6528e-07
1829.8, 2.064e-07
1831.8, 2.6505e-07
1833.8, 2.0935e-07
1835.8, 2.3668e-07
1837.8, 2.2088e-07
1839.8, 2.3529e-07
1841.8, 2.209e-07
1843.8, 2.6549e-07
1845.8, 2.3791e-07
1847.8, 2.2232e-07
1849.8, 2.5531e-07
1851.8, 1.8825e-07
1853.9, 2.6685e-07
1855.9, 2.3999e-07
1857.9, 1.702e-07
1859.9, 2.6655e-07
1861.9, 2.1069e-07
1863.9, 2.2156e-07
1865.9, 1.6761e-07
1867.9, 1.8187e-07
1869.9, 1.7263e-07
1871.9, 2.66e-07
1873.9, 2.4954e-07
1875.9, 2.5503e-07
1877.9, 2.2902e-07
1879.9, 2.4144e-07
1881.9, 2.2304e-07
1883.9, 2.1016e-07
1885.9, 2.3907e-07
1887.9, 1.7879e-07
1889.9, 2.7991e-07
1891.9, 2.6146e-07
1893.9, 2.063e-07
1895.9, 2.2987e-07
1897.9, 2.3043e-07
1899.9, 2.3036e-07
1901.9, 2.2213e-07
1903.9, 2.2157e-07
1905.9, 2.6814e-07
1907.9, 2.2214e-07
1909.9, 2.3643e-07
1911.9, 2.5793e-07
1913.9, 2.1563e-07
1915.9, 2.4268e-07
1917.9, 2.2464e-07
1919.9, 2.7216e-07
1921.9, 2.644e-07
1923.9, 2.4771e-07
1925.9, 2.2549e-07
1927.9, 2.3857e-07
1929.9, 2.2784e-07
1931.9, 2.2269e-07
1933.9, 2.1288e-07
1935.9, 2.3538e-07
1937.9, 2.3734e-07
1939.9, 2.2266e-07
1941.9, 1.9714e-07
1943.9, 2.2886e-07
1945.9, 2.4289e-07
1947.9, 2.6907e-07
1949.9, 2.1421e-07
1951.9, 2e-07
1954.0, 2.1981e-07
1956.0, 2.1446e-07
1958.0, 2.3778e-07
1960.0, 2.8891e-07
1962.0, 1.9045e-07
1964.0, 2.5724e-07
1966.0, 1.9495e-07
1968.0, 2.4568e-07
1970.0, 2.2784e-07
1972.0, 2.3441e-07
1974.0, 2.7242e-07
1976.0, 2.4855e-07
1978.0, 2.7294e-07
1980.0, 2.3908e-07
1982.0, 2.245e-07
1984.0, 2.1621e-07
1986.0, 2.3052e-07
1988.0, 2.4408e-07
1990.0, 2.9347e-07
1992.0, 2.4292e-07
1994.0, 2.5518e-07
1996.0, 2.2189e-07
1998.0, 2.6146e-07
2000.0, 2.6626e-07
2002.0, 2.4516e-07
2004.0, 2.5801e-07
2006.0, 2.3747e-07
2008.0, 2.0456e-07
2010.0, 2.7153e-07
2012.0, 2.6152e-07
2014.0, 2.5151e-07
2016.0, 2.114e-07
2018.0, 2.0337e-07
2020.0, 2.6821e-07
2022.0, 2.2155e-07
2024.0, 2.1434e-07
2026.0, 2.4063e-07
2028.0, 1.8234e-07
2030.0, 2.8952e-07
2032.0, 2.2061e-07
2034.0, 2.5347e-07
2036.0, 2.109e-07
2038.0, 2.4551e-07
2040.0, 2.2453e-07
2042.0, 2.2223e-07
2044.0, 2.3926e-07
2046.0, 2.3408e-07
2048.0, 2.3012e-07
2050.0, 2.371e-07
2052.0, 2.4826e-07
2054.1, 2.0245e-07
2056.1, 2.077e-07
2058.1, 1.9266e-07
2060.1, 2.1275e-07
2062.1, 2.4421e-07
2064.1, 2.4547e-07
2066.1, 1.8785e-07
2068.1, 1.8576e-07
2070.1, 2.388e-07
2072.1, 1.982e-07
2074.1, 2.4251e-07
2076.1, 2.3474e-07
2078.1, 2.4529e-07
2080.1, 2.2791e-07
2082.1, 2.4347e-07
2084.1, 2.816e-07
2086.1, 2.2984e-07
2088.1, 2.098e-07
2090.1, 2.282e-07
2092.1, 2.2657e-07
2094.1, 2.4019e-07
2096.1, 2.3227e-07
2098.1, 2.7142e-07
2100.1, 1.7779e-07
2102.1, 2.8126e-07
2104.1, 2.3701e-07
2106.1, 2.2075e-07
2108.1, 2.3744e-07
2110.1, 2.0391e-07
2112.1, 1.7832e-07
2114.1, 2.1765e-07
2116.1, 2.3509e-07
2118.1, 2.033e-07
2120.1, 2.2955e-07
2122.1, 1.9057e-07
2124.1, 2.7852e-07
2126.1, 2.3685e-07
2128.1, 2.3863e-07
2130.1, 2.3161e-07
2132.1, 2.1763e-07
2134.1, 2.5436e-07
2136.1, 1.9324e-07
2138.1, 2.0898e-07
2140.1, 2.481e-07
2142.1, 2.7184e-07
2144.1, 2.001e-07
2146.1, 2.6982e-07
2148.1, 2.4712e-07
2150.1, 2.4507e-07
2152.1, 2.6437e-07
2154.2, 2.3689e-07
2156.2, 2.7296e-07
2158.2, 2.3339e-07
2160.2, 2.2904e-07
2162.2, 2.312e-07
2164.2, 2.8894e-07
2166.2, 2.0338e-07
2168.2, 2.3124e-07
2170.2, 2.9017e-07
2172.2, 2.2974e-07
2174.2, 2.566e-07
2176.2, 2.5511e-07
2178.2, 2.175e-07
2180.2, 2.5682e-07
2182.2, 3.1142e-07
2184.2, 2.3183e-07
2186.2, 2.6598e-07
2188.2, 2.6943e-07
2190.2, 2.4473e-07
2192.2, 2.8747e-07
2194.2, 2.0834e-07
2196.2, 2.261e-07
2198.2, 2.1081e-07
2200.2, 2.7286e-07
2202.2, 2.0831e-07
2204.2, 2.5427e-07
2206.2, 2.2193e-07
2208.2, 2.189e-07
2210.2, 2.475e-07
2212.2, 2.3617e-07
2214.2, 2.0107e-07
2216.2, 2.6371e-07
2218.2, 2.0616e-07
2220.2, 2.0224e-07
2222.2, 2.4103e-07
2224.2, 2.6363e-07
2226.2, 2.5508e-07
2228.2, 2.5037e-07
2230.2, 2.1322e-07
2232.2, 2.4232e-07
2234.2, 2.8836e-07
2236.2, 2.376e-07
2238.2, 2.9329e-07
2240.2, 2.2397e-07
2242.2, 2.0763e-07
2244.2, 2.1177e-07
2246.2, 2.5095e-07
2248.2, 2.644e-07
2250.2, 2.402e-07
2252.2, 2.4033e-07
2254.3, 2.9381e-07
2256.3, 2.1212e-07
2258.3, 2.2616e-07
2260.3, 2.5767e-07
2262.3, 2.4808e-07
2264.3, 2.1014e-07
2266.3, 2.3664e-07
2268.3, 2.3401e-07
2270.3, 2.1743e-07
2272.3, 2.3846e-07
2274.3, 2.1771e-07
2276.3, 2.6853e-07
2278.3, 2.2573e-07
2280.3, 2.6e-07
2282.3, 2.4874e-07
2284.3, 2.3228e-07
2286.3, 2.4029e-07
2288.3, 2.9847e-07
2290.3, 2.0863e-07
2292.3, 2.4821e-07
2294.3, 2.6609e-07
2296.3, 2.4288e-07
2298.3, 2.0509e-07
2300.3, 2.3103e-07
2302.3, 2.4558e-07
2304.3, 2.6257e-07
2306.3, 2.4881e-07
2308.3, 2.5026e-07
2310.3, 2.2527e-07
2312.3, 2.7892e-07
2314.3, 2.2988e-07
2316.3, 2.6719e-07
2318.3, 2.7535e-07
2320.3, 2.4503e-07
2322.3, 1.8339e-07
2324.3, 1.8624e-07
2326.3, 2.3423e-07
2328.3, 2.0559e-07
2330.3, 2.2593e-07
2332.3, 2.4141e-07
2334.3, 2.0681e-07
2336.3, 2.3977e-07
2338.3, 2.6384e-07
2340.3, 2.5521e-07
2342.3, 2.2964e-07
2344.3, 3.0832e-07
2346.3, 2.5695e-07
2348.3, 2.6307e-07
2350.3, 2.025e-07
2352.3, 2.3239e-07
2354.4, 2.5642e-07
2356.4, 2.2922e-07
2358.4, 2.5418e-07
2360.4, 2.0016e-07
2362.4, 2.6622e-07
2364.4, 2.2887e-07
2366.4, 2.3249e-07
2368.4, 2.024e-07
2370.4, 2.7611e-07
2372.4, 2.0347e-07
2374.4, 2.4706e-07
2376.4, 2.7483e-07
2378.4, 2.8341e-07
2380.4, 2.3507e-07
2382.4, 2.3862e-07
2384.4, 2.3867e-07
2386.4, 2.5587e-07
2388.4, 2.9095e-07
2390.4, 2.0408e-07
2392.4, 2.949e-07
2394.4, 3.0904e-07
2396.4, 1.9244e-07
2398.4, 3.0006e-07
2400.4, 2.644e-07
2402.4, 2.6038e-07
2404.4, 2.376e-07
2406.4, 2.4635e-07
2408.4, 2.7259e-07
2410.4, 2.2203e-07
2412.4, 2.3214e-07
2414.4, 2.3826e-07
2416.4, 1.8916e-07
2418.4, 2.7578e-07
2420.4, 2.1544e-07
2422.4, 2.1194e-07
2424.4, 2.2191e-07
2426.4, 2.3118e-07
2428.4, 2.4945e-07
2430.4, 2.257e-07
2432.4, 1.9613e-07
2434.4, 2.1214e-07
2436.4, 2.237e-07
2438.4, 2.6437e-07
2440.4, 2.0779e-07
2442.4, 2.5219e-07
2444.4, 2.9619e-07
2446.4, 2.2256e-07
2448.4, 2.7017e-07
2450.4, 2.0437e-07
2452.4, 2.3779e-07
2454.5, 2.6227e-07
2456.5, 2.5456e-07
2458.5, 2.3852e-07
2460.5, 2.7362e-07
2462.5, 2.2994e-07
2464.5, 2.1445e-07
2466.5, 2.9869e-07
2468.5, 2.2639e-07
2470.5, 2.4018e-07
2472.5, 2.8606e-07
2474.5, 2.029e-07
2476.5, -1.702e-08
2478.5, -1.747e-08
2480.5, -2.216e-08
2482.5, -2.005e-08
2484.5, -1.865e-08
2486.5, -2.164e-08
2488.5, -1.938e-08
2490.5, -1.893e-08
2492.5, -2.399e-08
2494.5, -2.121e-08
2496.5, -2.223e-08
2498.5, -2.358e-08
2500.5, -2.545e-08
2502.5, -2.033e-08
2504.5, -2.018e-08
2506.5, -1.828e-08
2508.5, -1.769e-08
2510.5, -1.859e-08
2512.5, -1.95e-08
2514.5, -1.603e-08
2516.5, -1.764e-08
2518.5, -1.81e-08
2520.5, -1.517e-08
2522.5, -1.849e-08
2524.5, -2.096e-08
2526.5, -1.939e-08
2528.5, -2.035e-08
2530.5, -2.127e-08
2532.5, -2.011e-08
2534.5, -2.166e-08
2536.5, -1.764e-08
2538.5, -1.847e-08
2540.5, -1.592e-08
2542.5, -2.258e-08
2544.5, -1.983e-08
2546.5, -1.925e-08
2548.5, -2.16e-08
2550.5, -2.051e-08
2552.5, -2.299e-08
2554.6, -2.194e-08
2556.6, -2.324e-08
2558.6, -2.123e-08
2560.6, -1.858e-08
2562.6, -2.317e-08
2564.6, -2.24e-08
2566.6, -2.254e-08
2568.6, -2.445e-08
2570.6, -1.844e-08
2572.6, -2.092e-08
2574.6, -1.953e-08
2576.6, -2.39e-08
2578.6, -2.269e-08
2580.6, -2.364e-08
2582.6, -2.247e-08
2584.6, -2.525e-08
2586.6, -2.195e-08
2588.6, -2.101e-08
2590.6, -1.96e-08
2592.6, -2.373e-08
2594.6, -1.917e-08
2596.6, -1.859e-08
2598.6, -2.055e-08
2600.6, -2.076e-08
2602.6, -2.165e-08
2604.6, -2.002e-08
2606.6, -2.226e-08
2608.6, -1.95e-08
2610.6, -2.098e-08
2612.6, -1.827e-08
2614.6, -1.833e-08
2616.6, -2.177e-08
2618.6, -2.015e-08
2620.6, -2.468e-08
2622.6, -1.853e-08
2624.6, -1.78e-08
2626.6, -1.926e-08
2628.6, -1.555e-08
2630.6, -1.829e-08
2632.6, -1.682e-08
2634.6, -2.001e-08
2636.6, -2.205e-08
2638.6, -1.774e-08
2640.6, -2.24e-08
2642.6, -2.427e-08
2644.6, -2.318e-08
2646.6, -2.094e-08
2648.6, -2.11e-08
2650.6, -2.022e-08
2652.6, -2.117e-08
2654.7, -2.334e-08
2656.7, -1.711e-08
2658.7, -2.287e-08
2660.7, -1.942e-08
2662.7, -2.168e-08
2664.7, -2.021e-08
2666.7, -2.011e-08
2668.7, -2.13e-08
2670.7, -2.404e-08
2672.7, -2.07e-08
2674.7, -2.067e-08
2676.7, -1.862e-08
2678.7, -1.72e-08
2680.7, -2.248e-08
2682.7, -2.363e-08
2684.7, -1.747e-08
2686.7, -1.868e-08
2688.7, -2.072e-08
2690.7, -2.007e-08
2692.7, -2.155e-08
2694.7, -2.024e-08
2696.7, -2.077e-08
2698.7, -2.124e-08
2700.7, -1.452e-08
2702.7, -1.874e-08
2704.7, -1.791e-08
2706.7, -2.037e-08
2708.7, -2.024e-08
2710.7, -2.156e-08
2712.7, -2.054e-08
2714.7, -2.143e-08
2716.7, -2.126e-08
2718.7, -2.166e-08
2720.7, -2.477e-08
2722.7, -2.312e-08
2724.7, -2.109e-08
2726.7, -2.014e-08
2728.7, -2.069e-08
2730.7, -2.265e-08
2732.7, -2.038e-08
2734.7, -2.004e-08
2736.7, -1.91e-08
2738.7, -2.161e-08
2740.7, -2.217e-08
2742.7, -2.314e-08
2744.7, -2.114e-08
2746.7, -2.177e-08
2748.7, -2.241e-08
2750.7, -1.765e-08
2752.7, -1.996e-08
2754.8, -1.986e-08
2756.8, -2.012e-08
2758.8, -2.014e-08
2760.8, -1.888e-08
2762.8, -2.074e-08
2764.8, -1.978e-08
2766.8, -1.847e-08
2768.8, -1.871e-08
2770.8, -1.872e-08
2772.8, -1.672e-08
2774.8, -1.997e-08
2776.8, -2.249e-08
2778.8, -1.805e-08
2780.8, -2.095e-08
2782.8, -2.335e-08
2784.8, -2.555e-08
2786.8, -2.312e-08
2788.8, -2.342e-08
2790.8, -2.163e-08
2792.8, -2.238e-08
2794.8, -2.204e-08
2796.8, -2.396e-08
2798.8, -2.017e-08
2800.8, -2.23e-08
2802.8, -1.806e-08
2804.8, -2.215e-08
2806.8, -1.79e-08
2808.8, -1.968e-08
2810.8, -1.999e-08
2812.8, -2.192e-08
2814.8, -2.473e-08
2816.8, -2.337e-08
2818.8, -2.173e-08
2820.8, -2.548e-08
2822.8, -2.174e-08
2824.8, -2.11e-08
2826.8, -1.806e-08
2828.8, -2.029e-08
2830.8, -2.099e-08
2832.8, -2.001e-08
2834.8, -2.077e-08
2836.8, -1.818e-08
2838.8, -2.091e-08
2840.8, -2.077e-08
2842.8, -2.114e-08
2844.8, -2.035e-08
2846.8, -1.846e-08
2848.8, -1.896e-08
2850.8, -2.207e-08
2852.8, -2.083e-08
2854.9, -2.602e-08
2856.9, -2.4e-08
2858.9, -2.476e-08
2860.9, -2.065e-08
2862.9, -2.292e-08
2864.9, -2.159e-08
2866.9, -2.21e-08
2868.9, -1.771e-08
2870.9, -2.075e-08
2872.9, -1.813e-08
2874.9, -2.068e-08
2876.9, -1.663e-08
2878.9, -1.56e-08
2880.9, -1.461e-08
2882.9, -1.763e-08
2884.9, -1.787e-08
2886.9, -1.776e-08
2888.9, -1.786e-08
2890.9, -1.889e-08
2892.9, -1.592e-08
2894.9, -1.735e-08
2896.9, -1.808e-08
2898.9, -1.895e-08
2900.9, -1.998e-08
2902.9, -1.977e-08
2904.9, -2.107e-08
2906.9, -1.437e-08
2908.9, -1.685e-08
2910.9, -1.883e-08
2912.9, -2.299e-08
2914.9, -2.061e-08
2916.9, -2.171e-08
2918.9, -1.77e-08
2920.9, -1.74e-08
2922.9, -1.9e-08
2924.9, -2.136e-08
2926.9, -1.948e-08
2928.9, -2.193e-08
2930.9, -2.015e-08
2932.9, -1.952e-08
2934.9, -1.948e-08
2936.9, -2.168e-08
2938.9, -1.958e-08
2940.9, -2.193e-08
2942.9, -2.223e-08
2944.9, -2.073e-08
2946.9, -1.76e-08
2948.9, -1.77e-08
2950.9, -2.058e-08
2952.9, -2.245e-08
2955.0, -1.895e-08
2957.0, -2.116e-08
2959.0, -2.193e-08
2961.0, -2.197e-08
2963.0, -1.989e-08
2965.0, -2.073e-08
2967.0, -1.662e-08
2969.0, -1.792e-08
2971.0, -1.935e-08
2973.0, -2.184e-08
2975.0, -2.047e-08
2977.0, -1.925e-08
2979.0, -1.888e-08
2981.0, -2.394e-08
2983.0, -1.818e-08
2985.0, -2.219e-08
2987.0, -2.279e-08
2989.0, -1.915e-08
2991.0, -2.591e-08
2993.0, -2.361e-08
2995.0, -2.762e-08
2997.0, -2.404e-08
2999.0, -2.314e-08
3001.0, -2.28e-08
3003.0, -2.164e-08
3005.0, -1.928e-08
3007.0, -2.196e-08
3009.0, -2.182e-08
3011.0, -2.101e-08
3013.0, -2.313e-08
3015.0, -2.451e-08
3017.0, -2.579e-08
3019.0, -2.371e-08
3021.0, -2.209e-08
3023.0, -2.077e-08
3025.0, -2.155e-08
3027.0, -2.451e-08
3029.0, -2.344e-08
3031.0, -2.456e-08
3033.0, -2.054e-08
3035.0, -2.144e-08
3037.0, -2.208e-08
3039.0, -2.186e-08
3041.0, -2.257e-08
3043.0, -2.219e-08
3045.0, -1.693e-08
3047.0, -1.991e-08
3049.0, -1.806e-08
3051.0, -1.875e-08
3053.0, -2.123e-08
3055.1, -2.344e-08
3057.1, -1.942e-08
3059.1, -1.886e-08
3061.1, -2.121e-08
3063.1, -2.289e-08
3065.1, -2.402e-08
3067.1, -1.776e-08
3069.1, -1.807e-08
3071.1, -1.674e-08
3073.1, -1.85e-08
3075.1, -1.97e-08
3077.1, -1.742e-08
3079.1, -1.993e-08
3081.1, -2.183e-08
3083.1, -2.147e-08
3085.1, -2.047e-08
3087.1, -1.573e-08
3089.1, -2.029e-08
3091.1, -1.539e-08
3093.1, -1.552e-08
3095.1, -2.154e-08
3097.1, -2.034e-08
3099.1, -1.738e-08
3101.1, -2.326e-08
3103.1, -2.159e-08
3105.1, -1.981e-08
3107.1, -1.794e-08
3109.1, -1.55e-08
3111.1, -1.795e-08
3113.1, -1.931e-08
3115.1, -1.757e-08
3117.1, -1.933e-08
3119.1, -2.151e-08
3121.1, -1.611e-08
3123.1, -2.077e-08
3125.1, -1.739e-08
3127.1, -1.71e-08
3129.1, -1.759e-08
3131.1, -2.178e-08
3133.1, -1.645e-08
3135.1, -1.505e-08
3137.1, -1.78e-08
3139.1, -2.018e-08
3141.1, -1.884e-08
3143.1, -1.792e-08
3145.1, -1.591e-08
3147.1, -1.901e-08
3149.1, -1.804e-08
3151.1, -1.594e-08
3153.1, -1.607e-08
3155.2, -2.281e-08
3157.2, -1.857e-08
3159.2, -2.022e-08
3161.2, -2.036e-08
3163.2, -2.154e-08
3165.2, -1.765e-08
3167.2, -1.902e-08
3169.2, -2.093e-08
3171.2, -2.187e-08
3173.2, -2.063e-08
3175.2, -2.124e-08
3177.2, -2.49e-08
3179.2, -2.613e-08
3181.2, -2.033e-08
3183.2, -2.222e-08
3185.2, -2.199e-08
3187.2, -2.375e-08
3189.2, -2.263e-08
3191.2, -2.359e-08
3193.2, -2.125e-08
3195.2, -2.112e-08
3197.2, -2.055e-08
3199.2, -2.264e-08
3201.2, -2.209e-08
3203.2, -2.45e-08
3205.2, -1.954e-08
3207.2, -2.267e-08
3209.2, -2.358e-08
3211.2, -2.499e-08
3213.2, -2.518e-08
3215.2, -2.617e-08
3217.2, -2.686e-08
3219.2, -2.527e-08
3221.2, -2.465e-08
3223.2, -2.52e-08
3225.2, -2.163e-08
3227.2, -2.556e-08
3229.2, -2.301e-08
3231.2, -2.596e-08
3233.2, -2.654e-08
3235.2, -2.476e-08
3237.2, -2.688e-08
3239.2, -2.356e-08
3241.2, -2.208e-08
3243.2, -1.991e-08
3245.2, -2.216e-08
3247.2, -2.116e-08
3249.2, -2.035e-08
3251.2, -1.902e-08
3253.2, -2.421e-08
3255.3, -2.175e-08
3257.3, -1.77e-08
3259.3, -2.091e-08
3261.3, -1.908e-08
3263.3, -1.77e-08
3265.3, -1.985e-08
3267.3, -1.958e-08
3269.3, -2.404e-08
3271.3, -1.881e-08
3273.3, -1.841e-08
3275.3, -2.162e-08
3277.3, -2.133e-08
3279.3, -1.892e-08
3281.3, -1.599e-08
3283.3, -2.108e-08
3285.3, -2.072e-08
3287.3, -2.142e-08
3289.3, -2.249e-08
3291.3, -2.651e-08
3293.3, -2.552e-08
3295.3, -2.686e-08
3297.3, -2.496e-08
3299.3, -2.424e-08
3301.3, -2.135e-08
3303.3, -2.43e-08
3305.3, -2.32e-08
3307.3, -2.238e-08
3309.3, -2.451e-08
3311.3, -2.454e-08
3313.3, -2.241e-08
3315.3, -2.016e-08
3317.3, -2.195e-08
3319.3, -2.063e-08
3321.3, -2.354e-08
3323.3, -2.332e-08
3325.3, -2.375e-08
3327.3, -2.283e-08
3329.3, -2.271e-08
3331.3, -2.181e-08
3333.3, -1.99e-08
3335.3, -2.335e-08
3337.3, -2.091e-08
3339.3, -1.709e-08
3341.3, -1.932e-08
3343.3, -1.84e-08
3345.3, -2.132e-08
3347.3, -2.019e-08
3349.3, -2.352e-08
3351.3, -2.032e-08
3353.3, -2.125e-08
3355.4, -2.113e-08
3357.4, -1.643e-08
3359.4, -1.955e-08
3361.4, -1.905e-08
3363.4, -1.722e-08
3365.4, -2.157e-08
3367.4, -2.029e-08
3369.4, -1.763e-08
3371.4, -1.828e-08
3373.4, -2.058e-08
3375.4, -2.342e-08
3377.4, -2.301e-08
3379.4, -1.929e-08
3381.4, -1.964e-08
3383.4, -1.524e-08
3385.4, -1.906e-08
3387.4, -1.797e-08
3389.4, -1.47e-08
3391.4, -1.283e-08
3393.4, -1.48e-08
3395.4, -1.813e-08
3397.4, -1.64e-08
3399.4, -1.304e-08
3401.4, -1.694e-08
3403.4, -1.866e-08
3405.4, -1.55e-08
3407.4, -1.782e-08
3409.4, -1.706e-08
3411.4, -1.901e-08
3413.4, -2.064e-08
3415.4, -1.668e-08
3417.4, -1.396e-08
3419.4, -1.535e-08
3421.4, -1.524e-08
3423.4, -1.972e-08
3425.4, -1.551e-08
3427.4, -2.116e-08
3429.4, -1.429e-08
3431.4, -1.49e-08
3433.4, -1.813e-08
3435.4, -2.047e-08
3437.4, -1.592e-08
3439.4, -2.133e-08
3441.4, -1.61e-08
3443.4, -1.747e-08
3445.4, -1.807e-08
3447.4, -2.152e-08
3449.4, -1.822e-08
3451.4, -1.669e-08
3453.4, -1.819e-08
3455.5, -1.575e-08
3457.5, -1.551e-08
3459.5, -1.855e-08
3461.5, -1.857e-08
3463.5, -1.898e-08
3465.5, -1.94e-08
3467.5, -1.817e-08
3469.5, -1.926e-08
3471.5, -1.87e-08
3473.5, -1.729e-08
3475.5, -2.094e-08
3477.5, -1.867e-08
3479.5, -2.258e-08
3481.5, -2.166e-08
3483.5, -2.017e-08
3485.5, -1.962e-08
3487.5, -1.71e-08
3489.5, -2.124e-08
3491.5, -1.907e-08
3493.5, -1.875e-08
3495.5, -1.762e-08
3497.5, -1.618e-08
3499.5, -2.276e-08
3501.5, -1.996e-08
3503.5, -2.582e-08
3505.5, -2.195e-08
3507.5, -1.816e-08
3509.5, -2.271e-08
3511.5, -2.077e-08
3513.5, -2.272e-08
3515.5, -2.553e-08
3517.5, 2.2648e-07
3519.5, 2.246e-07
3521.5, 1.8118e-07
3523.5, 1.6754e-07
3525.5, 1.6627e-07
3527.5, 2.0458e-07
3529.5, 1.5899e-07
3531.5, 2.3059e-07
3533.5, 2.2466e-07
3535.5, 2.0322e-07
3537.5, 1.8204e-07
3539.5, 2.1338e-07
3541.5, 1.7907e-07
3543.5, 1.8716e-07
3545.5, 1.7745e-07
3547.5, 2.1773e-07
3549.5, 1.9729e-07
3551.5, 2.1541e-07
3553.5, 1.5129e-07
3555.6, 1.8386e-07
3557.6, 2.2449e-07
3559.6, 1.9048e-07
3561.6, 1.5706e-07
3563.6, 1.8194e-07
3565.6, 2.19e-07
3567.6, 1.6897e-07
3569.6, 1.9587e-07
3571.6, 2.5106e-07
3573.6, 2.1286e-07
3575.6, 2.3372e-07
3577.6, 2.1115e-07
3579.6, 2.2999e-07
3581.6, 2.0054e-07
3583.6, 1.5879e-07
3585.6, 2.3048e-07
3587.6, 1.736e-07
3589.6, 1.783e-07
3591.6, 2.2081e-07
3593.6, 2.1091e-07
3595.6, 1.9101e-07
3597.6, 1.9456e-07
3599.6, 2.3023e-07
3601.6, 1.8681e-07
3603.6, 2.54e-07
3605.6, 2.0807e-07
3607.6, 2.4089e-07
3609.6, 2.0041e-07
3611.6, 2.6607e-07
3613.6, 1.9664e-07
3615.6, 2.2113e-07
3617.6, 2.0379e-07
3619.6, 1.7128e-07
3621.6, 2.0626e-07
3623.6, 1.993e-07
3625.6, 1.7488e-07
3627.6, 2.2691e-07
3629.6, 1.981e-07
3631.6, 1.9392e-07
3633.6, 1.7732e-07
3635.6, 2.0735e-07
3637.6, 2.0923e-07
3639.6, 2.1614e-07
3641.6, 2.2358e-07
3643.6, 2.3647e-07
3645.6, 2.1726e-07
3647.6, 2.0184e-07
3649.6, 2.1018e-07
3651.6, 1.6958e-07
3653.6, 2.6197e-07
3655.7, 2.4626e-07
3657.7, 2.4353e-07
3659.7, 1.8716e-07
3661.7, 2.0326e-07
3663.7, 2.3735e-07
3665.7, 2.6658e-07
3667.7, 2.3513e-07
3669.7, 1.9392e-07
3671.7, 1.9467e-07
3673.7, 2.2994e-07
3675.7, 1.8448e-07
3677.7, 2.4696e-07
3679.7, 1.9814e-07
3681.7, 1.9022e-07
3683.7, 1.807e-07
3685.7, 2.0038e-07
3687.7, 2.1468e-07
3689.7, 2.3577e-07
3691.7, 1.8141e-07
3693.7, 2.2281e-07
3695.7, 2.6289e-07
3697.7, 2.1839e-07
3699.7, 2.1889e-07
3701.7, 1.9994e-07
3703.7, 2.0695e-07
3705.7, 2.27e-07
3707.7, 2.0334e-07
3709.7, 2.6885e-07
3711.7, 2.2494e-07
3713.7, 2.0075e-07
3715.7, 2.0202e-07
3717.7, 2.025e-07
3719.7, 2.3599e-07
3721.7, 2.1416e-07
3723.7, 2.6203e-07
3725.7, 2.4504e-07
3727.7, 1.873e-07
3729.7, 2.3673e-07
3731.7, 1.9881e-07
3733.7, 2.9545e-07
3735.7, 2.4166e-07
3737.7, 2.2613e-07
3739.7, 2.3139e-07
3741.7, 2.4448e-07
3743.7, 2.3459e-07
3745.7, 2.0701e-07
3747.7, 3.0112e-07
3749.7, 2.7033e-07
3751.7, 2.0736e-07
3753.7, 2.44e-07
3755.8, 2.0967e-07
3757.8, 2.0766e-07
3759.8, 2.2609e-07
3761.8, 2.3971e-07
3763.8, 2.7402e-07
3765.8, 2.2844e-07
3767.8, 2.4638e-07
3769.8, 2.4068e-07
3771.8, 2.2041e-07
3773.8, 2.7492e-07
3775.8, 1.9369e-07
3777.8, 2.1635e-07
3779.8, 1.9422e-07
3781.8, 1.9072e-07
3783.8, 1.9776e-07
3785.8, 2.2879e-07
3787.8, 2.2105e-07
3789.8, 2.4587e-07
3791.8, 1.9379e-07
3793.8, 2.6692e-07
3795.8, 1.9856e-07
3797.8, 2.5871e-07
3799.8, 2.0069e-07
3801.8, 2.3226e-07
3803.8, 2.353e-07
3805.8, 1.973e-07
3807.8, 2.4565e-07
3809.8, 2.1841e-07
3811.8, 1.8918e-07
3813.8, 2.3788e-07
3815.8, 2.5578e-07
3817.8, 2.2716e-07
3819.8, 2.2132e-07
3821.8, 2.5982e-07
3823.8, 2.4155e-07
3825.8, 2.763e-07
3827.8, 2.2459e-07
3829.8, 2.1491e-07
3831.8, 2.0926e-07
3833.8, 2.2687e-07
3835.8, 2.2458e-07
3837.8, 2.3359e-07
3839.8, 1.532e-07
3841.8, 2.2607e-07
3843.8, 2.1494e-07
3845.8, 2.5481e-07
3847.8, 2.2633e-07
3849.8, 1.9017e-07
3851.8, 1.8322e-07
3853.8, 2.1065e-07
3855.9, 1.8322e-07
3857.9, 2.3425e-07
3859.9, 2.4579e-07
3861.9, 2.1036e-07
3863.9, 2.27e-07
3865.9, 2.3614e-07
3867.9, 2.7272e-07
3869.9, 1.6516e-07
3871.9, 2.0014e-07
3873.9, 2.1433e-07
3875.9, 2.2596e-07
3877.9, 2.1077e-07
3879.9, 2.2283e-07
3881.9, 2.2545e-07
3883.9, 2.1402e-07
3885.9, 2.1851e-07
3887.9, 2.2858e-07
3889.9, 2.4014e-07
3891.9, 2.4514e-07
3893.9, 2.2236e-07
3895.9, 2.3124e-07
3897.9, 2.5383e-07
3899.9, 2.5079e-07
3901.9, 2.3011e-07
3903.9, 2.2208e-07
3905.9, 2.6441e-07
3907.9, 2.1273e-07
3909.9, 2.4379e-07
3911.9, 2.3788e-07
3913.9, 2.2172e-07
3915.9, 2.5091e-07
3917.9, 2.0099e-07
3919.9, 2.4806e-07
3921.9, 2.0604e-07
3923.9, 2.4444e-07
3925.9, 2.1932e-07
3927.9, 2.3349e-07
3929.9, 2.2433e-07
3931.9, 2.9242e-07
3933.9, 2.5645e-07
3935.9, 1.9332e-07
3937.9, 2.4992e-07
3939.9, 2.1552e-07
3941.9, 2.2595e-07
3943.9, 2.1666e-07
3945.9, 2.9044e-07
3947.9, 2.1346e-07
3949.9, 2.3871e-07
3951.9, 2.6951e-07
3953.9, 2.3003e-07
3956.0, 2.3762e-07
3958.0, 2.3954e-07
3960.0, 2.0324e-07
3962.0, 2.7201e-07
3964.0, 1.7793e-07
3966.0, 2.8557e-07
3968.0, 2.4474e-07
3970.0, 2.1381e-07
3972.0, 1.9758e-07
3974.0, 2.0057e-07
3976.0, 2.7312e-07
3978.0, 2.3661e-07
3980.0, 2.584e-07
3982.0, 2.3639e-07
3984.0, 2.3417e-07
3986.0, 2.4538e-07
3988.0, 2.2758e-07
3990.0, 2.7062e-07
3992.0, 1.9101e-07
3994.0, 2.517e-07
3996.0, 2.183e-07
3998.0, 2.4862e-07
4000.0, 2.4987e-07
4002.0, 2.1496e-07
4004.0, 2.0492e-07
4006.0, 2.2419e-07
4008.0, 1.6922e-07
4010.0, 2.765e-07
4012.0, 3.134e-07
4014.0, 2.488e-07
4016.0, 2.2014e-07
4018.0, 2.7105e-07
4020.0, 2.5572e-07
4022.0, 2.2564e-07
4024.0, 2.2122e-07
4026.0, 2.4728e-07
4028.0, 2.6839e-07
4030.0, 2.2193e-07
4032.0, 2.3507e-07
4034.0, 2.5083e-07
4036.0, 2.0898e-07
4038.0, 2.2133e-07
4040.0, 2.0097e-07
4042.0, 2.477e-07
4044.0, 2.4801e-07
4046.0, 1.8798e-07
4048.0, 2.0922e-07
4050.0, 2.2566e-07
4052.0, 2.2503e-07
4054.0, 2.1314e-07
4056.1, 2.1934e-07
4058.1, 2.1639e-07
4060.1, 2.3389e-07
4062.1, 1.9117e-07
4064.1, 2.808e-07
4066.1, 2.6719e-07
4068.1, 2.2566e-07
4070.1, 2.3696e-07
4072.1, 2.5026e-07
4074.1, 2.4494e-07
4076.1, 2.2801e-07
4078.1, 2.2448e-07
4080.1, 2.239e-07
4082.1, 2.1212e-07
4084.1, 2.6632e-07
4086.1, 2.5409e-07
4088.1, 2.7185e-07
4090.1, 1.8584e-07
4092.1, 2.1258e-07
4094.1, 2.4741e-07
4096.1, 2.0444e-07
4098.1, 2.3586e-07
4100.1, 2.6546e-07
4102.1, 2.2117e-07
4104.1, 2.103e-07
4106.1, 2.9701e-07
4108.1, 2.7941e-07
4110.1, 2.3994e-07
4112.1, 2.4973e-07
4114.1, 2.1874e-07
4116.1, 1.8828e-07
4118.1, 2.1049e-07
4120.1, 2.4354e-07
4122.1, 2.4242e-07
4124.1, 2.0164e-07
4126.1, 2.3236e-07
4128.1, 2.1748e-07
4130.1, 2.8821e-07
4132.1, 2.6836e-07
4134.1, 2.0498e-07
4136.1, 2.8308e-07
4138.1, 2.501e-07
4140.1, 3.0721e-07
4142.1, 2.4363e-07
4144.1, 2.0996e-07
4146.1, 2.6695e-07
4148.1, 2.4649e-07
4150.1, 2.1942e-07
4152.1, 2.5064e-07
4154.1, 2.1608e-07
4156.2, 3.0227e-07
4158.2, 2.1901e-07
4160.2, 2.5863e-07
4162.2, 2.289e-07
4164.2, 2.9707e-07
4166.2, 2.4472e-07
4168.2, 2.7805e-07
4170.2, 2.5107e-07
4172.2, 2.1825e-07
4174.2, 2.3375e-07
4176.2, 2.4708e-07
4178.2, 2.4721e-07
4180.2, 2.0293e-07
4182.2, 2.4911e-07
4184.2, 2.7259e-07
4186.2, 2.5156e-07
4188.2, 2.5816e-07
4190.2, 2.444e-07
4192.2, 2.6107e-07
4194.2, 2.3949e-07
4196.2, 2.811e-07
4198.2, 2.1746e-07
4200.2, 2.3068e-07
4202.2, 2.5228e-07
4204.2, 2.3693e-07
4206.2, 1.9869e-07
4208.2, 2.3868e-07
4210.2, 2.2418e-07
4212.2, 2.4149e-07
4214.2, 2.6585e-07
4216.2, 2.1596e-07
4218.2, 2.3837e-07
4220.2, 2.6767e-07
4222.2, 2.0931e-07
4224.2, 2.5611e-07
4226.2, 2.6915e-07
4228.2, 2.4881e-07
4230.2, 2.522e-07
4232.2, 1.9258e-07
4234.2, 2.9867e-07
4236.2, 2.9544e-07
4238.2, 2.8021e-07
4240.2, 2.2859e-07
4242.2, 2.4193e-07
4244.2, 2.9779e-07
4246.2, 2.2886e-07
4248.2, 2.2883e-07
4250.2, 1.7323e-07
4252.2, 2.69e-07
4254.2, 2.6877e-07
4256.3, 2.1732e-07
4258.3, 2.5241e-07
4260.3, 2.6076e-07
4262.3, 2.8698e-07
4264.3, 2.6403e-07
4266.3, 2.5423e-07
4268.3, 2.5596e-07
4270.3, 2.8683e-07
4272.3, 2.829e-07
4274.3, 2.4405e-07
4276.3, 2.2425e-07
4278.3, 2.1742e-07
4280.3, 2.7434e-07
4282.3, 2.5567e-07
4284.3, 2.0417e-07
4286.3, 2.3636e-07
4288.3, 2.0069e-07
4290.3, 2.3946e-07
4292.3, 2.424e-07
4294.3, 2.2206e-07
4296.3, 2.3549e-07
4298.3, 2.1058e-07
4300.3, 2.4741e-07
4302.3, 2.3473e-07
4304.3, 3.1421e-07
4306.3, 2.1459e-07
4308.3, 2.1992e-07
4310.3, 2.1577e-07
4312.3, 2.609e-07
4314.3, 2.2912e-07
4316.3, 2.1848e-07
4318.3, 2.7469e-07
4320.3, 2.0107e-07
4322.3, 2.7462e-07
4324.3, 2.2676e-07
4326.3, 2.2914e-07
4328.3, 2.4688e-07
4330.3, 2.9319e-07
4332.3, 1.7798e-07
4334.3, 2.8601e-07
4336.3, 2.8024e-07
4338.3, 2.9413e-07
4340.3, 2.7241e-07
4342.3, 2.8303e-07
4344.3, 2.6319e-07
4346.3, 2.0444e-07
4348.3, 1.9609e-07
4350.3, 2.5517e-07
4352.3, 2.5475e-07
4354.3, 2.3594e-07
4356.4, 2.5599e-07
4358.4, 2.1978e-07
4360.4, 2.416e-07
4362.4, 2.3497e-07
4364.4, 2.3054e-07
4366.4, 2.562e-07
4368.4, 2.7626e-07
4370.4, 2.5838e-07
4372.4, 2.3747e-07
4374.4, 2.4217e-07
4376.4, 2.1888e-07
4378.4, 2.5768e-07
4380.4, 2.9587e-07
4382.4, 2.0652e-07
4384.4, 2.1867e-07
4386.4, 2.3008e-07
4388.4, 2.3664e-07
4390.4, 2.3017e-07
4392.4, 2.4477e-07
4394.4, 2.5494e-07
4396.4, 2.7056e-07
4398.4, 2.0555e-07
4400.4, 2.8406e-07
4402.4, 2.1937e-07
4404.4, 2.2508e-07
4406.4, 2.1502e-07
4408.4, 2.3511e-07
4410.4, 2.4097e-07
4412.4, 3.021e-07
4414.4, 2.0678e-07
4416.4, 2.2461e-07
4418.4, 2.2541e-07
4420.4, 2.6757e-07
4422.4, 2.0604e-07
4424.4, 1.8958e-07
4426.4, 2.2947e-07
4428.4, 2.3133e-07
4430.4, 2.3451e-07
4432.4, 1.9376e-07
4434.4, 2.5385e-07
4436.4, 2.3953e-07
4438.4, 2.507e-07
4440.4, 2.9571e-07
4442.4, 2.5283e-07
4444.4, 2.7488e-07
4446.4, 2.8099e-07
4448.4, 2.4137e-07
4450.4, 2.526e-07
4452.4, 2.3488e-07
4454.4, 2.0504e-07
4456.5, 2.8712e-07
4458.5, 2.3786e-07
4460.5, 2.2217e-07
4462.5, 2.617e-07
4464.5, 2.5479e-07
4466.5, 2.3966e-07
4468.5, 2.4061e-07
4470.5, 2.3133e-07
4472.5, 2.498e-07
4474.5, 1.9163e-07
4476.5, 2.5849e-07
4478.5, 2.5127e-07
4480.5, 2.8761e-07
4482.5, 2.2654e-07
4484.5, 2.9204e-07
4486.5, 2.3071e-07
4488.5, 2.5812e-07
4490.5, 2.7236e-07
4492.5, 2.3926e-07
4494.5, 2.5984e-07
4496.5, 2.2903e-07
4498.5, 2.3714e-07
4500.5, 2.5491e-07
4502.5, 2.7387e-07
4504.5, 2.5966e-07
4506.5, 2.7405e-07
4508.5, 2.4761e-07
4510.5, 2.1441e-07
4512.5, 2.2438e-07
4514.5, 2.6978e-07
4516.5, 2.1966e-07
4518.5, -2.096e-08
4520.5, -1.921e-08
4522.5, -2.147e-08
4524.5, -2.359e-08
4526.5, -2.144e-08
4528.5, -2.008e-08
4530.5, -2.367e-08
4532.5, -2.089e-08
4534.5, -2e-08
4536.5, -2.224e-08
4538.5, -1.893e-08
4540.5, -1.827e-08
4542.5, -1.773e-08
4544.5, -1.974e-08
4546.5, -2.089e-08
4548.5, -1.948e-08
4550.5, -2.137e-08
4552.5, -2.167e-08
4554.5, -2.194e-08
4556.6, -2.639e-08
4558.6, -2.432e-08
4560.6, -2.427e-08
4562.6, -2.446e-08
4564.6, -2.475e-08
4566.6, -2.334e-08
4568.6, -2.464e-08
4570.6, -2.476e-08
4572.6, -2.123e-08
4574.6, -2.006e-08
4576.6, -2.043e-08
4578.6, -2.069e-08
4580.6, -2.239e-08
4582.6, -2.479e-08
4584.6, -2.404e-08
4586.6, -2.164e-08
4588.6, -2.072e-08
4590.6, -2.226e-08
4592.6, -1.902e-08
4594.6, -2.218e-08
4596.6, -1.875e-08
4598.6, -1.963e-08
4600.6, -1.859e-08
4602.6, -1.95e-08
4604.6, -2.216e-08
4606.6, -2.228e-08
4608.6, -1.958e-08
4610.6, -1.932e-08
4612.6, -2.064e-08
4614.6, -2.443e-08
4616.6, -2.512e-08
4618.6, -2.081e-08
4620.6, -1.835e-08
4622.6, -1.789e-08
4624.6, -2.017e-08
4626.6, -1.982e-08
4628.6, -2.092e-08
4630.6, -2.14e-08
4632.6, -1.867e-08
4634.6, -1.787e-08
4636.6, -2.305e-08
4638.6, -1.556e-08
4640.6, -1.789e-08
4642.6, -1.669e-08
4644.6, -1.809e-08
4646.6, -1.589e-08
4648.6, -2.073e-08
4650.6, -1.846e-08
4652.6, -1.954e-08
4654.6, -1.863e-08
4656.7, -1.806e-08
4658.7, -1.372e-08
4660.7, -1.461e-08
4662.7, -1.644e-08
4664.7, -1.548e-08
4666.7, -1.802e-08
4668.7, -1.711e-08
4670.7, -1.936e-08
4672.7, -2.225e-08
4674.7, -1.69e-08
4676.7, -1.539e-08
4678.7, -1.817e-08
4680.7, -1.878e-08
4682.7, -1.635e-08
4684.7, -1.717e-08
4686.7, -1.476e-08
4688.7, -1.918e-08
4690.7, -1.836e-08
4692.7, -2.05e-08
4694.7, -1.539e-08
4696.7, -1.823e-08
4698.7, -1.714e-08
4700.7, -1.794e-08
4702.7, -1.744e-08
4704.7, -1.954e-08
4706.7, -1.987e-08
4708.7, -1.7e-08
4710.7, -1.516e-08
4712.7, -1.492e-08
4714.7, -2.195e-08
4716.7, -1.724e-08
4718.7, -1.452e-08
4720.7, -1.394e-08
4722.7, -1.254e-08
4724.7, -1.785e-08
4726.7, -1.158e-08
4728.7, -1.851e-08
4730.7, -1.501e-08
4732.7, -1.573e-08
4734.7, -1.713e-08
4736.7, -1.745e-08
4738.7, -1.868e-08
4740.7, -1.79e-08
4742.7, -1.579e-08
4744.7, -1.496e-08
4746.7, -1.934e-08
4748.7, -1.539e-08
4750.7, -1.805e-08
4752.7, -1.79e-08
4754.7, -1.186e-08
4756.8, -1.484e-08
4758.8, -1.576e-08
4760.8, -1.25e-08
4762.8, -1.208e-08
4764.8, -1.234e-08
4766.8, -1.63e-08
4768.8, -1.739e-08
4770.8, -1.426e-08
4772.8, -1.843e-08
4774.8, -1.456e-08
4776.8, -1.601e-08
4778.8, -1.812e-08
4780.8, -1.163e-08
4782.8, -1.364e-08
4784.8, -1.53e-08
4786.8, -1.564e-08
4788.8, -1.82e-08
4790.8, -1.69e-08
4792.8, -1.973e-08
4794.8, -1.302e-08
4796.8, -1.275e-08
4798.8, -1.363e-08
4800.8, -1.348e-08
4802.8, -1.626e-08
4804.8, -1.471e-08
4806.8, -1.542e-08
4808.8, -1.697e-08
4810.8, -1.631e-08
4812.8, -1.701e-08
4814.8, -1.413e-08
4816.8, -1.445e-08
4818.8, -1.388e-08
4820.8, -1.586e-08
4822.8, -1.415e-08
4824.8, -1.603e-08
4826.8, -1.512e-08
4828.8, -1.523e-08
4830.8, -1.818e-08
4832.8, -1.133e-08
4834.8, -1.474e-08
4836.8, -1.505e-08
4838.8, -1.453e-08
4840.8, -1.544e-08
4842.8, -1.917e-08
4844.8, -1.59e-08
4846.8, -2.064e-08
4848.8, -1.747e-08
4850.8, -1.706e-08
4852.8, -1.736e-08
4854.8, -2.114e-08
4856.9, -1.724e-08
4858.9, -1.327e-08
4860.9, -1.664e-08
4862.9, -1.556e-08
4864.9, -1.557e-08
4866.9, -1.404e-08
4868.9, -1.447e-08
4870.9, -1.997e-08
4872.9, -1.679e-08
4874.9, -1.859e-08
4876.9, -1.533e-08
4878.9, -1.802e-08
4880.9, -1.615e-08
4882.9, -1.529e-08
4884.9, -1.574e-08
4886.9, -1.548e-08
4888.9, -1.425e-08
4890.9, -1.393e-08
4892.9, -1.687e-08
4894.9, -1.477e-08
4896.9, -1.358e-08
4898.9, -1.616e-08
4900.9, -1.483e-08
4902.9, -1.654e-08
4904.9, -1.91e-08
4906.9, -1.819e-08
4908.9, -1.654e-08
4910.9, -1.609e-08
4912.9, -1.762e-08
4914.9, -2.312e-08
4916.9, -1.88e-08
4918.9, -1.458e-08
4920.9, -1.681e-08
4922.9, -1.966e-08
4924.9, -1.606e-08
4926.9, -1.908e-08
4928.9, -1.218e-08
4930.9, -1.533e-08
4932.9, -1.294e-08
4934.9, -1.226e-08
4936.9, -1.06e-08
4938.9, -1.481e-08
4940.9, -1.541e-08
4942.9, -1.623e-08
4944.9, -2.012e-08
4946.9, -1.79e-08
4948.9, -1.402e-08
4950.9, -1.505e-08
4952.9, -1.631e-08
4954.9, -1.517e-08
4957.0, -1.738e-08
4959.0, -1.345e-08
4961.0, -1.36e-08
4963.0, -9.9e-09
4965.0, -2.055e-08
4967.0, -1.677e-08
4969.0, -1.477e-08
4971.0, -1.483e-08
4973.0, -1.611e-08
4975.0, -1.899e-08
4977.0, -1.584e-08
4979.0, -1.234e-08
4981.0, -1.348e-08
4983.0, -1.922e-08
4985.0, -1.769e-08
4987.0, -1.943e-08
4989.0, -1.769e-08
4991.0, -1.67e-08
4993.0, -1.773e-08
4995.0, -1.849e-08
4997.0, -1.693e-08
4999.0, -2.058e-08
5001.0, -1.368e-08
5003.0, -1.603e-08
5005.0, -1.677e-08
5007.0, -1.925e-08
5009.0, -2.111e-08
5011.0, -2.074e-08
5013.0, -1.944e-08
5015.0, -2.062e-08
5017.0, -2.136e-08
5019.0, -2.249e-08
5021.0, -2.036e-08
5023.0, -2.149e-08
5025.0, -2.145e-08
5027.0, -2.36e-08
5029.0, -1.907e-08
5031.0, -1.818e-08
5033.0, -1.934e-08
5035.0, -1.971e-08
5037.0, -2.025e-08
5039.0, -1.862e-08
5041.0, -2.001e-08
5043.0, -2.186e-08
5045.0, -2.168e-08
5047.0, -2.235e-08
5049.0, -1.851e-08
5051.0, -1.673e-08
5053.0, -1.634e-08
5055.0, -1.509e-08
5057.1, -1.15e-08
5059.1, -1.74e-08
5061.1, -1.731e-08
5063.1, -1.705e-08
5065.1, -1.641e-08
5067.1, -1.663e-08
5069.1, -1.434e-08
5071.1, -1.491e-08
5073.1, -1.224e-08
5075.1, -1.619e-08
5077.1, -1.555e-08
5079.1, -1.349e-08
5081.1, -1.76e-08
5083.1, -1.749e-08
5085.1, -1.197e-08
5087.1, -1.302e-08
5089.1, -1.214e-08
5091.1, -1.285e-08
5093.1, -1.076e-08
5095.1, -1.132e-08
5097.1, -1.246e-08
5099.1, -1.192e-08
5101.1, -1.487e-08
5103.1, -1.351e-08
5105.1, -1.565e-08
5107.1, -1.789e-08
5109.1, -1.033e-08
5111.1, -1.339e-08
5113.1, -1.328e-08
5115.1, -1.593e-08
5117.1, -1.369e-08
5119.1, -1.335e-08
5121.1, -1.54e-08
5123.1, -1.216e-08
5125.1, -1.482e-08
5127.1, -1.386e-08
5129.1, -1.529e-08
5131.1, -1.282e-08
5133.1, -1.309e-08
5135.1, -1.268e-08
5137.1, -1.188e-08
5139.1, -1.379e-08
5141.1, -1.248e-08
5143.1, -1.347e-08
5145.1, -1.656e-08
5147.1, -1.451e-08
5149.1, -1.384e-08
5151.1, -1.503e-08
5153.1, -1.482e-08
5155.1, -1.456e-08
5157.2, -1.35e-08
5159.2, -1.505e-08
5161.2, -1.373e-08
5163.2, -1.623e-08
5165.2, -1.393e-08
5167.2, -1.43e-08
5169.2, -1.624e-08
5171.2, -1.444e-08
5173.2, -1.295e-08
5175.2, -1.422e-08
5177.2, -1.469e-08
5179.2, -1.673e-08
5181.2, -1.283e-08
5183.2, -1.576e-08
5185.2, -1.522e-08
5187.2, -1.375e-08
5189.2, -1.267e-08
5191.2, -1.44e-08
5193.2, -1.382e-08
5195.2, -1.555e-08
5197.2, -1.464e-08
5199.2, -1.147e-08
5201.2, -1.035e-08
5203.2, -1.63e-08
5205.2, -1.507e-08
5207.2, -1.37e-08
5209.2, -1.884e-08
5211.2, -1.174e-08
5213.2, -1.602e-08
5215.2, -1.557e-08
5217.2, -1.431e-08
5219.2, -1.685e-08
5221.2, -1.585e-08
5223.2, -1.921e-08
5225.2, -1.584e-08
5227.2, -1.5e-08
5229.2, -1.728e-08
5231.2, -1.628e-08
5233.2, -1.611e-08
5235.2, -1.955e-08
5237.2, -1.589e-08
5239.2, -1.699e-08
5241.2, -1.567e-08
5243.2, -1.564e-08
5245.2, -1.741e-08
5247.2, -1.715e-08
5249.2, -1.594e-08
5251.2, -1.4e-08
5253.2, -1.329e-08
5255.2, -1.84e-08
5257.3, -1.734e-08
5259.3, -1.176e-08
5261.3, -9.73e-09
5263.3, -1.412e-08
5265.3, -1.637e-08
5267.3, -9.5e-09
5269.3, -1.085e-08
5271.3, -6.84e-09
5273.3, -1.153e-08
5275.3, -1.816e-08
5277.3, -1.426e-08
5279.3, -1.514e-08
5281.3, -1.509e-08
5283.3, -1.514e-08
5285.3, -1.42e-08
5287.3, -1.376e-08
5289.3, -1.599e-08
5291.3, -1.938e-08
5293.3, -1.174e-08
5295.3, -1.466e-08
5297.3, -1.635e-08
5299.3, -1.748e-08
5301.3, -1.531e-08
5303.3, -1.608e-08
5305.3, -1.923e-08
5307.3, -1.666e-08
5309.3, -1.938e-08
5311.3, -1.366e-08
5313.3, -1.633e-08
5315.3, -1.595e-08
5317.3, -1.587e-08
5319.3, -1.901e-08
5321.3, -1.274e-08
5323.3, -1.955e-08
5325.3, -1.554e-08
5327.3, -1.382e-08
5329.3, -1.487e-08
5331.3, -1.632e-08
5333.3, -1.54e-08
5335.3, -1.289e-08
5337.3, -1.849e-08
5339.3, -1.5e-08
5341.3, -1.765e-08
5343.3, -1.639e-08
5345.3, -1.652e-08
5347.3, -1.756e-08
5349.3, -1.58e-08
5351.3, -1.548e-08
5353.3, -1.475e-08
5355.3, -1.827e-08
5357.4, -1.704e-08
5359.4, -1.685e-08
5361.4, -1.746e-08
5363.4, -1.803e-08
5365.4, -1.67e-08
5367.4, -1.679e-08
5369.4, -1.815e-08
5371.4, -1.489e-08
5373.4, -1.776e-08
5375.4, -1.667e-08
5377.4, -1.739e-08
5379.4, -1.947e-08
5381.4, -1.691e-08
5383.4, -1.565e-08
5385.4, -1.6e-08
5387.4, -1.454e-08
5389.4, -1.813e-08
5391.4, -1.969e-08
5393.4, -2.099e-08
5395.4, -1.92e-08
5397.4, -1.515e-08
5399.4, -1.591e-08
5401.4, -1.572e-08
5403.4, -1.559e-08
5405.4, -1.799e-08
5407.4, -1.834e-08
5409.4, -1.601e-08
5411.4, -1.78e-08
5413.4, -1.56e-08
5415.4, -1.795e-08
5417.4, -1.781e-08
5419.4, -1.622e-08
5421.4, -1.562e-08
5423.4, -1.625e-08
5425.4, -1.672e-08
5427.4, -1.653e-08
5429.4, -1.682e-08
5431.4, -1.545e-08
5433.4, -1.769e-08
5435.4, -1.771e-08
5437.4, -1.658e-08
5439.4, -2.165e-08
5441.4, -1.42e-08
5443.4, -2.16e-08
5445.4, -1.865e-08
5447.4, -1.961e-08
5449.4, -1.902e-08
5451.4, -1.586e-08
5453.4, -1.782e-08
5455.4, -1.598e-08
5457.5, -1.324e-08
5459.5, -1.623e-08
5461.5, -1.084e-08
5463.5, -1.369e-08
5465.5, -1.431e-08
5467.5, -1.802e-08
5469.5, -1.358e-08
5471.5, -1.802e-08
5473.5, -1.507e-08
5475.5, -1.562e-08
5477.5, -1.669e-08
5479.5, -1.658e-08
5481.5, -1.795e-08
5483.5, -1.664e-08
5485.5, -1.847e-08
5487.5, -2.089e-08
5489.5, -2.127e-08
5491.5, -2.042e-08
5493.5, -2.256e-08
5495.5, -1.5e-08
5497.5, -2.229e-08
5499.5, -2.039e-08
5501.5, -1.668e-08
5503.5, -1.662e-08
5505.5, -2.02e-08
5507.5, -2.072e-08
5509.5, -1.67e-08
5511.5, -1.621e-08
5513.5, -1.542e-08
5515.5, -1.921e-08
5517.5, -1.787e-08
5519.5, -1.411e-08
5521.5, -1.475e-08
5523.5, -1.493e-08
5525.5, -1.373e-08
5527.5, -1.118e-08
5529.5, -1.578e-08
5531.5, -1.438e-08
5533.5, -1.224e-08
5535.5, -1.392e-08
5537.5, -1.405e-08
5539.5, -1.408e-08
5541.5, -1.351e-08
5543.5, -1.552e-08
5545.5, -1.838e-08
5547.5, -2.146e-08
5549.5, -1.867e-08
5551.5, -1.594e-08
5553.5, -1.26e-08
5555.5, -1.326e-08
5557.6, -1.495e-08
5559.6, -1.564e-08
5561.6, -1.802e-08
5563.6, -1.514e-08
5565.6, -1.043e-08
5567.6, -1.374e-08
5569.6, -1.741e-08
5571.6, -1.597e-08
5573.6, -1.706e-08
5575.6, -1.652e-08
5577.6, -1.674e-08
5579.6, -1.558e-08
5581.6, -1.632e-08
5583.6, -1.802e-08
5585.6, -1.522e-08
5587.6, -1.599e-08
5589.6, -1.979e-08
5591.6, -1.777e-08
5593.6, -1.677e-08
5595.6, -1.952e-08
5597.6, -1.804e-08
5599.6, -1.695e-08
5601.6, -1.622e-08
5603.6, -1.987e-08
5605.6, -2.144e-08
5607.6, -2.296e-08
5609.6, -1.961e-08
5611.6, -1.486e-08
5613.6, -1.716e-08
5615.6, -1.411e-08
5617.6, -1.751e-08
5619.6, -1.328e-08
5621.6, -1.702e-08
5623.6, -1.462e-08
5625.6, -1.708e-08
5627.6, -1.816e-08
5629.6, -1.559e-08
5631.6, -1.733e-08
5633.6, -1.746e-08
5635.6, -1.874e-08
5637.6, -2.084e-08
5639.6, -2.206e-08
5641.6, -1.844e-08
5643.6, -2.34e-08
5645.6, -1.919e-08
5647.6, -2.054e-08
5649.6, -1.766e-08
5651.6, -2.097e-08
5653.6, -1.735e-08
5655.6, -1.534e-08
5657.7, -1.858e-08
5659.7, -1.566e-08
5661.7, -1.267e-08
5663.7, -1.043e-08
5665.7, -1.371e-08
5667.7, -1.371e-08
5669.7, -1.612e-08
5671.7, -1.44e-08
5673.7, -1.997e-08
5675.7, -1.637e-08
5677.7, -1.398e-08
5679.7, -1.651e-08
5681.7, -1.717e-08
5683.7, -1.786e-08
5685.7, -1.703e-08
5687.7, -1.674e-08
5689.7, -1.726e-08
5691.7, -1.467e-08
5693.7, -1.543e-08
5695.7, -1.727e-08
5697.7, -1.588e-08
5699.7, -1.469e-08
5701.7, 2.2775e-07
5703.7, 1.9357e-07
5705.7, 2.1245e-07
5707.7, 2.4817e-07
5709.7, 1.7812e-07
5711.7, 1.6703e-07
5713.7, 2.3354e-07
5715.7, 2.0058e-07
5717.7, 1.8189e-07
5719.7, 1.6919e-07
5721.7, 1.7551e-07
5723.7, 2.0144e-07
5725.7, 1.7792e-07
5727.7, 2.5544e-07
5729.7, 2.0973e-07
5731.7, 2.2323e-07
5733.7, 1.9404e-07
5735.7, 2.262e-07
5737.7, 1.8724e-07
5739.7, 2.086e-07
5741.7, 2.4464e-07
5743.7, 2.3556e-07
5745.7, 2.1111e-07
5747.7, 2.5201e-07
5749.7, 2.245e-07
5751.7, 2.5208e-07
5753.7, 1.9186e-07
5755.7, 2.1332e-07
5757.8, 2.3867e-07
5759.8, 2.0679e-07
5761.8, 1.9701e-07
5763.8, 1.7479e-07
5765.8, 1.8463e-07
5767.8, 2.284e-07
5769.8, 2.1523e-07
5771.8, 2.2771e-07
5773.8, 2.3701e-07
5775.8, 2.0896e-07
5777.8, 2.2805e-07
5779.8, 1.9706e-07
5781.8, 1.9613e-07
5783.8, 1.9629e-07
5785.8, 2.1465e-07
5787.8, 1.907e-07
5789.8, 2.1642e-07
5791.8, 1.9726e-07
5793.8, 2.391e-07
5795.8, 2.1427e-07
5797.8, 1.9567e-07
5799.8, 2.1194e-07
5801.8, 2.1132e-07
5803.8, 2.4031e-07
5805.8, 2.5563e-07
5807.8, 1.9345e-07
5809.8, 2.062e-07
5811.8, 1.9102e-07
5813.8, 2.4928e-07
5815.8, 1.9802e-07
5817.8, 2.238e-07
5819.8, 2.407e-07
5821.8, 1.8358e-07
5823.8, 1.8671e-07
5825.8, 2.347e-07
5827.8, 2.2761e-07
5829.8, 2.3156e-07
5831.8, 2.6114e-07
5833.8, 2.4269e-07
5835.8, 1.9817e-07
5837.8, 2.2923e-07
5839.8, 2.5559e-07
5841.8, 2.0422e-07
5843.8, 2.0875e-07
5845.8, 2.3316e-07
5847.8, 2.1203e-07
5849.8, 2.4937e-07
5851.8, 2.7462e-07
5853.8, 2.353e-07
5855.8, 1.9073e-07
5857.9, 1.8389e-07
5859.9, 1.9113e-07
5861.9, 2.3961e-07
5863.9, 2.1191e-07
5865.9, 2.262e-07
5867.9, 2.4429e-07
5869.9, 1.9809e-07
5871.9, 2.246e-07
5873.9, 2.2355e-07
5875.9, 2.3898e-07
5877.9, 2.3386e-07
5879.9, 2.1096e-07
5881.9, 2.2132e-07
5883.9, 2.4203e-07
5885.9, 3.1513e-07
5887.9, 1.9346e-07
5889.9, 2.6611e-07
5891.9, 2.2189e-07
5893.9, 2.1163e-07
5895.9, 2.5733e-07
5897.9, 2.2703e-07
5899.9, 2.7656e-07
5901.9, 2.4233e-07
5903.9, 1.8223e-07
5905.9, 2.1146e-07
5907.9, 2.7e-07
5909.9, 2.4232e-07
5911.9, 2.7463e-07
5913.9, 2.5744e-07
5915.9, 2.6133e-07
5917.9, 2.2195e-07
5919.9, 1.9185e-07
5921.9, 2.345e-07
5923.9, 2.1175e-07
5925.9, 2.5497e-07
5927.9, 2.4946e-07
5929.9, 2.6542e-07
5931.9, 2.0173e-07
5933.9, 2.2666e-07
5935.9, 1.9105e-07
5937.9, 2.2998e-07
5939.9, 2.7545e-07
5941.9, 2.7234e-07
5943.9, 2.365e-07
5945.9, 2.4474e-07
5947.9, 2.2442e-07
5949.9, 2.3727e-07
5951.9, 2.8887e-07
5953.9, 2.8314e-07
5955.9, 2.2887e-07
5958.0, 2.3724e-07
5960.0, 2.2321e-07
5962.0, 2.3267e-07
5964.0, 2.5967e-07
5966.0, 2.6851e-07
5968.0, 2.087e-07
5970.0, 2.2303e-07
5972.0, 2.6625e-07
5974.0, 2.1862e-07
5976.0, 2.6439e-07
5978.0, 2.3099e-07
5980.0, 2.6516e-07
5982.0, 1.8006e-07
5984.0, 2.653e-07
5986.0, 2.2678e-07
5988.0, 2.0061e-07
5990.0, 2.5402e-07
5992.0, 2.4106e-07
5994.0, 2.1171e-07
5996.0, 2.7722e-07
5998.0, 2.6429e-07
6000.0, 2.2182e-07
6002.0, 2.3205e-07
6004.0, 2.0912e-07
6006.0, 2.8395e-07
6008.0, 2.2251e-07
6010.0, 2.8197e-07
6012.0, 2.5479e-07
6014.0, 2.3324e-07
6016.0, 2.2459e-07
6018.0, 2.5466e-07
6020.0, 2.3585e-07
6022.0, 2.7501e-07
6024.0, 2.0599e-07
6026.0, 2.4339e-07
6028.0, 2.8171e-07
6030.0, 2.2268e-07
6032.0, 2.2358e-07
6034.0, 3.3429e-07
6036.0, 2.3971e-07
6038.0, 2.3091e-07
6040.0, 2.295e-07
6042.0, 2.321e-07
6044.0, 1.9703e-07
6046.0, 2.1834e-07
6048.0, 1.9686e-07
6050.0, 2.3436e-07
6052.0, 2.7565e-07
6054.0, 2.5032e-07
6056.0, 2.2219e-07
6058.1, 2.3275e-07
6060.1, 2.6832e-07
6062.1, 2.3395e-07
6064.1, 2.1762e-07
6066.1, 2.3513e-07
6068.1, 3.0484e-07
6070.1, 2.35e-07
6072.1, 2.2606e-07
6074.1, 2.2883e-07
6076.1, 2.4367e-07
6078.1, 2.687e-07
6080.1, 2.3283e-07
6082.1, 2.3147e-07
6084.1, 2.2725e-07
6086.1, 2.6175e-07
6088.1, 2.4435e-07
6090.1, 2.7344e-07
6092.1, 2.3649e-07
6094.1, 2.2025e-07
6096.1, 2.3906e-07
6098.1, 2.0899e-07
6100.1, 2.5451e-07
6102.1, 2.7886e-07
6104.1, 2.825e-07
6106.1, 2.0359e-07
6108.1, 2.292e-07
6110.1, 2.2804e-07
6112.1, 2.229e-07
6114.1, 2.3457e-07
6116.1, 2.7715e-07
6118.1, 2.2948e-07
6120.1, 2.7198e-07
6122.1, 2.155e-07
6124.1, 2.2532e-07
6126.1, 2.4156e-07
6128.1, 2.107e-07
6130.1, 2.3331e-07
6132.1, 2.5334e-07
6134.1, 2.2387e-07
6136.1, 2.3629e-07
6138.1, 2.5307e-07
6140.1, 2.2806e-07
6142.1, 2.474e-07
6144.1, 2.7358e-07
6146.1, 2.4117e-07
6148.1, 2.425e-07
6150.1, 3.0556e-07
6152.1, 2.4324e-07
6154.1, 2.1783e-07
6156.1, 2.6502e-07
6158.2, 2.4633e-07
6160.2, 2.0683e-07
6162.2, 2.9287e-07
6164.2, 2.7276e-07
6166.2, 2.6666e-07
6168.2, 2.7512e-07
6170.2, 2.3964e-07
6172.2, 2.6054e-07
6174.2, 2.1972e-07
6176.2, 2.5451e-07
6178.2, 2.1223e-07
6180.2, 2.1615e-07
6182.2, 2.3185e-07
6184.2, 2.3525e-07
6186.2, 2.334e-07
6188.2, 2.2942e-07
6190.2, 2.7615e-07
6192.2, 2.3435e-07
6194.2, 2.2945e-07
6196.2, 2.0125e-07
6198.2, 2.2576e-07
6200.2, 2.5944e-07
6202.2, 3.1908e-07
6204.2, 2.7316e-07
6206.2, 2.7006e-07
6208.2, 2.8074e-07
6210.2, 3.0039e-07
6212.2, 2.4695e-07
6214.2, 2.3439e-07
6216.2, 2.3704e-07
6218.2, 2.3123e-07
6220.2, 2.7272e-07
6222.2, 2.3409e-07
6224.2, 2.4902e-07
6226.2, 2.4681e-07
6228.2, 2.4324e-07
6230.2, 2.3932e-07
6232.2, 2.3459e-07
6234.2, 3.024e-07
6236.2, 2.8738e-07
6238.2, 2.0311e-07
6240.2, 2.8373e-07
6242.2, 2.4737e-07
6244.2, 2.6544e-07
6246.2, 2.7241e-07
6248.2, 2.5974e-07
6250.2, 2.9945e-07
6252.2, 2.8412e-07
6254.2, 2.8994e-07
6256.2, 2.3036e-07
6258.3, 2.5265e-07
6260.3, 2.5188e-07
6262.3, 2.2994e-07
6264.3, 2.851e-07
6266.3, 2.3257e-07
6268.3, 2.4054e-07
6270.3, 2.6707e-07
6272.3, 1.9105e-07
6274.3, 2.5542e-07
6276.3, 2.477e-07
6278.3, 2.528e-07
6280.3, 2.6113e-07
6282.3, 2.0915e-07
6284.3, 2.2453e-07
6286.3, 2.3427e-07
6288.3, 2.7802e-07
6290.3, 2.4105e-07
6292.3, 2.4733e-07
6294.3, 2.1372e-07
6296.3, 2.3308e-07
6298.3, 2.1953e-07
6300.3, 2.1915e-07
6302.3, 2.614e-07
6304.3, 2.8659e-07
6306.3, 2.1423e-07
6308.3, 2.4125e-07
6310.3, 2.4273e-07
6312.3, 2.7766e-07
6314.3, 2.6818e-07
6316.3, 2.9119e-07
6318.3, 2.4148e-07
6320.3, 2.4067e-07
6322.3, 2.6615e-07
6324.3, 3.1763e-07
6326.3, 2.4938e-07
6328.3, 2.4476e-07
6330.3, 2.6994e-07
6332.3, 2.4973e-07
6334.3, 2.9205e-07
6336.3, 2.442e-07
6338.3, 2.6628e-07
6340.3, 2.9431e-07
6342.3, 2.9433e-07
6344.3, 2.4509e-07
6346.3, 2.1929e-07
6348.3, 2.2971e-07
6350.3, 2.4629e-07
6352.3, 2.4333e-07
6354.3, 2.0193e-07
6356.3, 2.6089e-07
6358.4, 2.1737e-07
6360.4, 2.1625e-07
6362.4, 2.6809e-07
6364.4, 2.1136e-07
6366.4, 2.7074e-07
6368.4, 2.2164e-07
6370.4, 2.2238e-07
6372.4, 2.5807e-07
6374.4, 2.5975e-07
6376.4, 2.5964e-07
6378.4, 2.9313e-07
6380.4, 2.325e-07
6382.4, 2.3666e-07
6384.4, 2.4872e-07
6386.4, 2.8036e-07
6388.4, 2.2863e-07
6390.4, 2.677e-07
6392.4, 2.7597e-07
6394.4, 2.8555e-07
6396.4, 2.7483e-07
6398.4, 2.5367e-07
6400.4, 1.8642e-07
6402.4, 1.9958e-07
6404.4, 2.2552e-07
6406.4, 2.0987e-07
6408.4, 2.8582e-07
6410.4, 2.1617e-07
6412.4, 2.4985e-07
6414.4, 2.1306e-07
6416.4, 2.9304e-07
6418.4, 2.4595e-07
6420.4, 2.2238e-07
6422.4, 2.35e-07
6424.4, 2.263e-07
6426.4, 2.7803e-07
6428.4, 2.3261e-07
6430.4, 2.7958e-07
6432.4, 2.4443e-07
6434.4, 2.1905e-07
6436.4, 2.9067e-07
6438.4, 2.4777e-07
6440.4, 2.7158e-07
6442.4, 2.6328e-07
6444.4, 2.4385e-07
6446.4, 2.5088e-07
6448.4, 2.8841e-07
6450.4, 2.1496e-07
6452.4, 2.6468e-07
6454.4, 2.0348e-07
6456.4, 2.7095e-07
6458.5, 3.0702e-07
6460.5, 2.3865e-07
6462.5, 2.1582e-07
6464.5, 2.4401e-07
6466.5, 2.5e-07
6468.5, 1.9751e-07
6470.5, 2.2166e-07
6472.5, 2.6549e-07
6474.5, 2.4489e-07
6476.5, 2.0774e-07
6478.5, 2.4887e-07
6480.5, 2.4525e-07
6482.5, 2.2863e-07
6484.5, 2.499e-07
6486.5, 2.5024e-07
6488.5, 2.6425e-07
6490.5, 2.4596e-07
6492.5, 2.1841e-07
6494.5, 2.8417e-07
6496.5, 2.5127e-07
6498.5, 2.6653e-07
6500.5, 2.673e-07
6502.5, 2.2582e-07
6504.5, 2.4503e-07
6506.5, 2.957e-07
6508.5, 2.7352e-07
6510.5, 2.5479e-07
6512.5, 2.323e-07
6514.5, 2.503e-07
6516.5, 2.7429e-07
6518.5, 2.4304e-07
6520.5, 2.4195e-07
6522.5, 2.2603e-07
6524.5, 2.511e-07
6526.5, 2.5641e-07
6528.5, 2.4201e-07
6530.5, 2.7025e-07
6532.5, 3.0368e-07
6534.5, 2.5816e-07
6536.5, 2.1734e-07
6538.5, 2.7582e-07
6540.5, 2.4452e-07
6542.5, 2.5238e-07
6544.5, 2.4127e-07
6546.5, 2.5493e-07
6548.5, 2.5023e-07
6550.5, 2.49e-07
6552.5, 3.0775e-07
6554.5, 2.2674e-07
6556.5, 2.3007e-07
6558.6, 2.4954e-07
6560.6, 2.3469e-07
6562.6, 2.4382e-07
6564.6, 2.7351e-07
6566.6, 2.2739e-07
6568.6, 2.3253e-07
6570.6, 2.5379e-07
6572.6, 2.5475e-07
6574.6, 2.1263e-07
6576.6, 2.1462e-07
6578.6, 2.3381e-07
6580.6, 2.237e-07
6582.6, 2.5486e-07
6584.6, 2.5154e-07
6586.6, 2.6382e-07
6588.6, 2.3083e-07
6590.6, 2.2837e-07
6592.6, 1.9019e-07
6594.6, 2.5284e-07
6596.6, 2.1876e-07
6598.6, 2.4735e-07
6600.6, 2.4127e-07
6602.6, 2.6475e-07
6604.6, 2.2586e-07
6606.6, 2.8922e-07
6608.6, 2.7269e-07
6610.6, 1.9214e-07
6612.6, 3.0232e-07
6614.6, 2.2017e-07
6616.6, 2.4053e-07
6618.6, 2.343e-07
6620.6, 2.6266e-07
6622.6, 2.8665e-07
6624.6, 3.0299e-07
6626.6, 2.4652e-07
6628.6, 2.656e-07
6630.6, 2.7318e-07
6632.6, 2.3575e-07
6634.6, 2.6821e-07
6636.6, 1.9543e-07
6638.6, 2.5931e-07
6640.6, 2.7962e-07
6642.6, 2.8916e-07
6644.6, 2.1781e-07
6646.6, 2.3282e-07
6648.6, 2.3492e-07
6650.6, 2.4471e-07
6652.6, 2.2683e-07
6654.6, 2.3323e-07
6656.6, 2.6225e-07
6658.7, 2.1595e-07
6660.7, 2.8405e-07
6662.7, 2.113e-07
6664.7, 2.8597e-07
6666.7, 2.2072e-07
6668.7, 2.2317e-07
6670.7, 2.6399e-07
6672.7, 2.7932e-07
6674.7, 2.1508e-07
6676.7, 3.0925e-07
6678.7, 2.0702e-07
6680.7, 2.2377e-07
6682.7, 2.6239e-07
6684.7, 3.0633e-07
6686.7, 2.3486e-07
6688.7, 2.4103e-07
6690.7, 2.5236e-07
6692.7, 2.6618e-07
6694.7, 2.3602e-07
6696.7, 2.4402e-07
6698.7, 3.0081e-07
6700.7, 2.6992e-07
6702.7, -1.576e-08
6704.7, -1.798e-08
6706.7, -2.418e-08
6708.7, -2.004e-08
6710.7, -1.892e-08
6712.7, -1.556e-08
6714.7, -1.666e-08
6716.7, -1.688e-08
6718.7, -1.641e-08
6720.7, -1.978e-08
6722.7, -1.829e-08
6724.7, -1.755e-08
6726.7, -1.728e-08
6728.7, -1.228e-08
6730.7, -1.623e-08
6732.7, -1.589e-08
6734.7, -1.788e-08
6736.7, -1.761e-08
6738.7, -1.968e-08
6740.7, -1.984e-08
6742.7, -2.081e-08
6744.7, -2.368e-08
6746.7, -2.201e-08
6748.7, -1.726e-08
6750.7, -1.685e-08
6752.7, -1.92e-08
6754.7, -2.036e-08
6756.7, -2.514e-08
6758.8, -2.099e-08
6760.8, -2.152e-08
6762.8, -2.258e-08
6764.8, -2.316e-08
6766.8, -2.541e-08
6768.8, -2.16e-08
6770.8, -2.218e-08
6772.8, -2.623e-08
6774.8, -2.125e-08
6776.8, -2.32e-08
6778.8, -2.324e-08
6780.8, -2.198e-08
6782.8, -1.997e-08
6784.8, -2.301e-08
6786.8, -2.136e-08
6788.8, -2.45e-08
6790.8, -2.098e-08
6792.8, -1.664e-08
6794.8, -2.129e-08
6796.8, -1.548e-08
6798.8, -1.937e-08
6800.8, -1.598e-08
6802.8, -2.038e-08
6804.8, -1.703e-08
6806.8, -1.87e-08
6808.8, -1.693e-08
6810.8, -1.891e-08
6812.8, -1.625e-08
6814.8, -1.958e-08
6816.8, -1.907e-08
6818.8, -2.28e-08
6820.8, -2.056e-08
6822.8, -2.131e-08
6824.8, -2.16e-08
6826.8, -1.771e-08
6828.8, -1.943e-08
6830.8, -2.255e-08
6832.8, -1.824e-08
6834.8, -2.063e-08
6836.8, -1.73e-08
6838.8, -1.769e-08
6840.8, -1.932e-08
6842.8, -2.08e-08
6844.8, -2.023e-08
6846.8, -2.115e-08
6848.8, -1.936e-08
6850.8, -1.82e-08
6852.8, -1.819e-08
6854.8, -1.998e-08
6856.8, -2.014e-08
6858.9, -1.699e-08
6860.9, -2.045e-08
6862.9, -2.166e-08
6864.9, -1.57e-08
6866.9, -1.819e-08
6868.9, -1.842e-08
6870.9, -1.671e-08
6872.9, -2.304e-08
6874.9, -1.843e-08
6876.9, -1.89e-08
6878.9, -1.85e-08
6880.9, -1.783e-08
6882.9, -1.725e-08
6884.9, -1.69e-08
6886.9, -1.628e-08
6888.9, -1.874e-08
6890.9, -1.746e-08
6892.9, -1.953e-08
6894.9, -2.099e-08
6896.9, -1.794e-08
6898.9, -1.802e-08
6900.9, -1.723e-08
6902.9, -2.01e-08
6904.9, -1.932e-08
6906.9, -1.929e-08
6908.9, -1.54e-08
6910.9, -2.375e-08
6912.9, -2.132e-08
6914.9, -1.989e-08
6916.9, -2.14e-08
6918.9, -2.031e-08
6920.9, -2.261e-08
6922.9, -2.151e-08
6924.9, -2.077e-08
6926.9, -1.959e-08
6928.9, -2.071e-08
6930.9, -1.725e-08
6932.9, -2.048e-08
6934.9, -2.209e-08
6936.9, -1.897e-08
6938.9, -1.874e-08
6940.9, -1.783e-08
6942.9, -1.886e-08
6944.9, -2.245e-08
6946.9, -2.037e-08
6948.9, -2.033e-08
6950.9, -1.662e-08
6952.9, -2.271e-08
6954.9, -2.055e-08
6956.9, -2.259e-08
6959.0, -2.263e-08
6961.0, -1.941e-08
6963.0, -1.512e-08
6965.0, -2.056e-08
6967.0, -2.366e-08
6969.0, -1.802e-08
6971.0, -1.754e-08
6973.0, -1.966e-08
6975.0, -2.093e-08
6977.0, -1.994e-08
6979.0, -1.924e-08
6981.0, -2.275e-08
6983.0, -1.738e-08
6985.0, -2.365e-08
6987.0, -1.926e-08
6989.0, -2.003e-08
6991.0, -2.233e-08
6993.0, -1.844e-08
6995.0, -2.021e-08
6997.0, -1.858e-08
6999.0, -1.582e-08
7001.0, -1.821e-08
7003.0, -1.679e-08
7005.0, -1.523e-08
7007.0, -2.026e-08
7009.0, -1.782e-08
7011.0, -1.798e-08
7013.0, -1.373e-08
7015.0, -1.637e-08
7017.0, -1.664e-08
7019.0, -1.562e-08
7021.0, -1.517e-08
7023.0, -1.566e-08
7025.0, -2.149e-08
7027.0, -1.723e-08
7029.0, -1.91e-08
7031.0, -1.737e-08
7033.0, -1.863e-08
7035.0, -1.692e-08
7037.0, -2.178e-08
7039.0, -1.714e-08
7041.0, -2.023e-08
7043.0, -1.969e-08
7045.0, -2.085e-08
7047.0, -1.677e-08
7049.0, -1.841e-08
7051.0, -1.987e-08
7053.0, -2.087e-08
7055.0, -1.708e-08
7057.0, -1.694e-08
7059.1, -1.753e-08
7061.1, -1.365e-08
7063.1, -1.687e-08
7065.1, -1.586e-08
7067.1, -1.304e-08
7069.1, -1.268e-08
7071.1, -1.41e-08
7073.1, -1.368e-08
7075.1, -1.572e-08
7077.1, -1.63e-08
7079.1, -2.159e-08
7081.1, -1.836e-08
7083.1, -1.735e-08
7085.1, -1.819e-08
7087.1, -1.964e-08
7089.1, -1.826e-08
7091.1, -1.992e-08
7093.1, -1.926e-08
7095.1, -2.018e-08
7097.1, -2.154e-08
7099.1, -2.238e-08
7101.1, -1.937e-08
7103.1, -2.398e-08
7105.1, -2.047e-08
7107.1, -1.702e-08
7109.1, -1.741e-08
7111.1, -1.388e-08
7113.1, -1.844e-08
7115.1, -1.488e-08
7117.1, -1.748e-08
7119.1, -2.039e-08
7121.1, -1.799e-08
7123.1, -2.005e-08
7125.1, -1.793e-08
7127.1, -1.738e-08
7129.1, -1.63e-08
7131.1, -1.777e-08
7133.1, -1.774e-08
7135.1, -2.089e-08
7137.1, -1.827e-08
7139.1, -2.11e-08
7141.1, -1.997e-08
7143.1, -1.69e-08
7145.1, -1.82e-08
7147.1, -1.769e-08
7149.1, -2.213e-08
7151.1, -2.3e-08
7153.1, -1.929e-08
7155.1, -1.905e-08
7157.1, -1.985e-08
7159.2, -1.862e-08
7161.2, -1.976e-08
7163.2, -1.768e-08
7165.2, -1.967e-08
7167.2, -1.526e-08
7169.2, -1.788e-08
7171.2, -1.583e-08
7173.2, -1.744e-08
7175.2, -1.399e-08
7177.2, -1.298e-08
7179.2, -1.432e-08
7181.2, -2.189e-08
7183.2, -1.474e-08
7185.2, -1.512e-08
7187.2, -1.725e-08
7189.2, -2.06e-08
7191.2, -1.599e-08
7193.2, -1.433e-08
7195.2, -1.379e-08
7197.2, -1.552e-08
7199.2, -1.576e-08
7201.2, -1.776e-08
7203.2, -1.891e-08
7205.2, -1.746e-08
7207.2, -1.482e-08
7209.2, -1.971e-08
7211.2, -1.818e-08
7213.2, -1.999e-08
7215.2, -1.968e-08
7217.2, -1.884e-08
7219.2, -2.311e-08
7221.2, -1.972e-08
7223.2, -2.258e-08
7225.2, -1.77e-08
7227.2, -1.847e-08
7229.2, -2.12e-08
7231.2, -1.628e-08
7233.2, -2.019e-08
7235.2, -1.984e-08
7237.2, -2.189e-08
7239.2, -1.914e-08
7241.2, -2.137e-08
7243.2, -2.029e-08
7245.2, -2.14e-08
7247.2, -1.804e-08
7249.2, -1.828e-08
7251.2, -1.891e-08
7253.2, -2.344e-08
7255.2, -2.304e-08
7257.2, -2.576e-08
7259.3, -2.462e-08
7261.3, -2.063e-08
7263.3, -2.058e-08
7265.3, -2.63e-08
7267.3, -2.52e-08
7269.3, -2.264e-08
7271.3, -2.288e-08
7273.3, -2.239e-08
7275.3, -2.348e-08
7277.3, -2.153e-08
7279.3, -2.147e-08
7281.3, -2.219e-08
7283.3, -2.099e-08
7285.3, -2.46e-08
7287.3, -1.985e-08
7289.3, -2.054e-08
7291.3, -2.123e-08
7293.3, -1.864e-08
7295.3, -2.265e-08
7297.3, -2.355e-08
7299.3, -2.359e-08
7301.3, -2.04e-08
7303.3, -1.861e-08
7305.3, -2.358e-08
7307.3, -2.208e-08
7309.3, -1.984e-08
7311.3, -2.023e-08
7313.3, -2.188e-08
7315.3, -2.129e-08
7317.3, -2.103e-08
7319.3, -2.264e-08
7321.3, -1.848e-08
7323.3, -2.057e-08
7325.3, -2.483e-08
7327.3, -2.23e-08
7329.3, -2.097e-08
7331.3, -1.887e-08
7333.3, -1.822e-08
7335.3, -2.171e-08
7337.3, -1.934e-08
7339.3, -1.944e-08
7341.3, -1.848e-08
7343.3, -1.712e-08
7345.3, -1.917e-08
7347.3, -1.781e-08
7349.3, -1.521e-08
7351.3, -1.616e-08
7353.3, -1.899e-08
7355.3, -1.814e-08
7357.3, -2.096e-08
7359.4, -1.889e-08
7361.4, -1.655e-08
7363.4, -1.875e-08
7365.4, -1.734e-08
7367.4, -1.807e-08
7369.4, -1.892e-08
7371.4, -1.805e-08
7373.4, -1.939e-08
7375.4, -1.911e-08
7377.4, -1.527e-08
7379.4, -2.003e-08
7381.4, -1.547e-08
7383.4, -1.496e-08
7385.4, -2.016e-08
7387.4, -1.663e-08
7389.4, -1.591e-08
7391.4, -1.461e-08
7393.4, -1.203e-08
7395.4, -1.615e-08
7397.4, -1.764e-08
7399.4, -1.391e-08
7401.4, -1.506e-08
7403.4, -1.336e-08
7405.4, -1.494e-08
7407.4, -1.639e-08
7409.4, -1.06e-08
7411.4, -1.809e-08
7413.4, -1.585e-08
7415.4, -1.85e-08
7417.4, -1.752e-08
7419.4, -1.757e-08
7421.4, -1.895e-08
7423.4, -2.162e-08
7425.4, -1.702e-08
7427.4, -1.677e-08
7429.4, -1.753e-08
7431.4, -1.859e-08
7433.4, -1.892e-08
7435.4, -1.973e-08
7437.4, -1.86e-08
7439.4, -2.287e-08
7441.4, -2.007e-08
7443.4, -2.078e-08
7445.4, -1.829e-08
7447.4, -2.02e-08
7449.4, -1.903e-08
7451.4, -1.95e-08
7453.4, -1.913e-08
7455.4, -1.956e-08
7457.4, -2.239e-08
7459.5, -2.164e-08
7461.5, -1.648e-08
7463.5, -1.837e-08
7465.5, -2.139e-08
7467.5, -1.786e-08
7469.5, -2.038e-08
7471.5, -1.893e-08
7473.5, -2.133e-08
7475.5, -2.01e-08
7477.5, -1.935e-08
7479.5, -2.245e-08
7481.5, -2.423e-08
7483.5, -2.005e-08
7485.5, -1.902e-08
7487.5, -1.945e-08
7489.5, -1.74e-08
7491.5, -1.832e-08
7493.5, -1.867e-08
7495.5, -1.876e-08
7497.5, -1.855e-08
7499.5, -2.01e-08
7501.5, -1.764e-08
7503.5, -1.941e-08
7505.5, -1.384e-08
7507.5, -2.01e-08
7509.5, -1.536e-08
7511.5, -2.046e-08
7513.5, -1.703e-08
7515.5, -1.548e-08
7517.5, -1.377e-08
7519.5, -1.732e-08
7521.5, -1.928e-08
7523.5, -2.152e-08
7525.5, -2.075e-08
7527.5, -1.748e-08
7529.5, -2.182e-08
7531.5, -2.044e-08
7533.5, -2.074e-08
7535.5, -2.092e-08
7537.5, -2.181e-08
7539.5, -2.154e-08
7541.5, -2.282e-08
7543.5, -2.22e-08
7545.5, -2.298e-08
7547.5, -2.104e-08
7549.5, -2.135e-08
7551.5, -2.199e-08
7553.5, -2.28e-08
7555.5, -2.377e-08
7557.5, -2.566e-08
7559.6, -2.4e-08
7561.6, -2.456e-08
7563.6, -2.514e-08
7565.6, -2.289e-08
7567.6, -2.484e-08
7569.6, -2.159e-08
7571.6, -2.308e-08
7573.6, -1.991e-08
7575.6, -2.054e-08
7577.6, -2.102e-08
7579.6, -2.12e-08
7581.6, -2.121e-08
7583.6, -1.739e-08
7585.6, -1.66e-08
7587.6, -2.445e-08
7589.6, -2.024e-08
7591.6, -2.106e-08
7593.6, -2.231e-08
7595.6, -1.802e-08
7597.6, -1.93e-08
7599.6, -2.232e-08
7601.6, -1.814e-08
7603.6, -2.003e-08
7605.6, -1.888e-08
7607.6, -1.795e-08
7609.6, -1.289e-08
7611.6, -1.523e-08
7613.6, -1.676e-08
7615.6, -1.513e-08
7617.6, -1.824e-08
7619.6, -1.496e-08
7621.6, -1.535e-08
7623.6, -1.646e-08
7625.6, -1.619e-08
7627.6, -1.395e-08
7629.6, -1.531e-08
7631.6, -1.5e-08
7633.6, -1.418e-08
7635.6, -1.628e-08
7637.6, -1.615e-08
7639.6, -1.394e-08
7641.6, -1.662e-08
7643.6, -1.688e-08
7645.6, -1.312e-08
7647.6, -1.959e-08
7649.6, -1.789e-08
7651.6, -1.656e-08
7653.6, -1.666e-08
7655.6, -1.522e-08
7657.6, -2.012e-08
7659.7, -1.957e-08
7661.7, -1.606e-08
7663.7, -1.647e-08
7665.7, -1.872e-08
7667.7, -1.912e-08
7669.7, -1.434e-08
7671.7, -1.414e-08
7673.7, -1.296e-08
7675.7, -1.402e-08
7677.7, -1.439e-08
7679.7, -1.734e-08
7681.7, -1.622e-08
7683.7, -1.422e-08
7685.7, -1.492e-08
7687.7, -1.858e-08
7689.7, -1.838e-08
7691.7, -1.419e-08
7693.7, -1.602e-08
7695.7, -1.736e-08
7697.7, -1.505e-08
7699.7, -1.624e-08
7701.7, -1.831e-08
7703.7, -1.674e-08
7705.7, -1.389e-08
7707.7, -1.592e-08
7709.7, -1.298e-08
7711.7, -1.805e-08
7713.7, -1.489e-08
7715.7, -1.781e-08
7717.7, -1.527e-08
7719.7, -1.73e-08
7721.7, -1.729e-08
7723.7, -1.595e-08
7725.7, -1.233e-08
7727.7, -1.538e-08
7729.7, -1.407e-08
7731.7, -1.482e-08
7733.7, -1.666e-08
7735.7, -1.367e-08
7737.7, -1.623e-08
7739.7, -1.848e-08
7741.7, -1.805e-08
7743.7, -1.995e-08
7745.7, -1.04e-09
7747.7, 2.2006e-07
7749.7, 1.5802e-07
7751.7, 1.6802e-07
7753.7, 2.0632e-07
7755.7, 2.2647e-07
7757.7, 2.1481e-07
7759.8, 2.0851e-07
7761.8, 1.6981e-07
7763.8, 2.0818e-07
7765.8, 1.7309e-07
7767.8, 1.5838e-07
7769.8, 1.8134e-07
7771.8, 1.8286e-07
7773.8, 2.0925e-07
7775.8, 1.7948e-07
7777.8, 2.1312e-07
7779.8, 1.8405e-07
7781.8, 1.9367e-07
7783.8, 1.781e-07
7785.8, 1.8174e-07
7787.8, 1.9473e-07
7789.8, 2.0439e-07
7791.8, 2.1079e-07
7793.8, 1.919e-07
7795.8, 2.2594e-07
7797.8, 1.7214e-07
7799.8, 2.2595e-07
7801.8, 2.2809e-07
7803.8, 1.7927e-07
7805.8, 1.6211e-07
7807.8, 2.0784e-07
7809.8, 1.7088e-07
7811.8, 1.5114e-07
7813.8, 2.0036e-07
7815.8, 2.0497e-07
7817.8, 2.0056e-07
7819.8, 2.2781e-07
7821.8, 2.6628e-07
7823.8, 2.4243e-07
7825.8, 1.9838e-07
7827.8, 1.929e-07
7829.8, 1.6636e-07
7831.8, 2.2723e-07
7833.8, 1.8632e-07
7835.8, 2.0462e-07
7837.8, 2.3516e-07
7839.8, 1.9028e-07
7841.8, 2.0383e-07
7843.8, 2.0839e-07
7845.8, 2.6696e-07
7847.8, 1.7873e-07
7849.8, 1.8213e-07
7851.8, 2.07e-07
7853.8, 2.1069e-07
7855.8, 1.876e-07
7857.8, 2.0214e-07
7859.9, 1.9545e-07
7861.9, 1.8224e-07
7863.9, 2.1795e-07
7865.9, 2.1985e-07
7867.9, 2.4501e-07
7869.9, 1.9139e-07
7871.9, 1.9342e-07
7873.9, 1.9536e-07
7875.9, 2.2251e-07
7877.9, 2.2648e-07
7879.9, 1.8295e-07
7881.9, 2.2477e-07
7883.9, 2.2173e-07
7885.9, 1.8923e-07
7887.9, 1.9037e-07
7889.9, 1.9365e-07
7891.9, 1.9464e-07
7893.9, 2.1463e-07
7895.9, 2.2506e-07
7897.9, 2.3105e-07
7899.9, 2.0751e-07
7901.9, 1.7372e-07
7903.9, 1.9549e-07
7905.9, 2.1061e-07
7907.9, 2.0534e-07
7909.9, 2.0894e-07
7911.9, 1.8262e-07
7913.9, 2.0427e-07
7915.9, 2.1595e-07
7917.9, 2.2125e-07
7919.9, 2.2772e-07
7921.9, 2.3359e-07
7923.9, 2.5642e-07
7925.9, 1.8832e-07
7927.9, 2.367e-07
7929.9, 2.1138e-07
7931.9, 2.2716e-07
7933.9, 2.1496e-07
7935.9, 1.988e-07
7937.9, 1.762e-07
7939.9, 2.0565e-07
7941.9, 1.8969e-07
7943.9, 2.3906e-07
7945.9, 2.4638e-07
7947.9, 1.972e-07
7949.9, 2.279e-07
7951.9, 2.0997e-07
7953.9, 2.2299e-07
7955.9, 2.3596e-07
7957.9, 2.0139e-07
7960.0, 1.9593e-07
7962.0, 2.08e-07
7964.0, 1.8126e-07
7966.0, 2.4751e-07
7968.0, 1.9004e-07
7970.0, 1.6738e-07
7972.0, 2.0363e-07
7974.0, 2.8914e-07
7976.0, 2.4544e-07
7978.0, 2.3155e-07
7980.0, 1.9881e-07
7982.0, 1.9497e-07
7984.0, 2.1894e-07
7986.0, 2.0258e-07
7988.0, 2.3526e-07
7990.0, 2.3659e-07
7992.0, 2.601e-07
7994.0, 2.1761e-07
7996.0, 2.2918e-07
7998.0, 2.3937e-07
8000.0, 2.2666e-07
8002.0, 2.3412e-07
8004.0, 2.2769e-07
8006.0, 2.7422e-07
8008.0, 1.912e-07
8010.0, 2.2695e-07
8012.0, 2.3156e-07
8014.0, 2.4027e-07
8016.0, 2.2291e-07
8018.0, 2.2204e-07
8020.0, 2.1428e-07
8022.0, 2.0232e-07
8024.0, 1.6898e-07
8026.0, 2.2066e-07
8028.0, 2.225e-07
8030.0, 1.9647e-07
8032.0, 2.5154e-07
8034.0, 2.2739e-07
8036.0, 2.5226e-07
8038.0, 2.2914e-07
8040.0, 2.0337e-07
8042.0, 2.0456e-07
8044.0, 2.3462e-07
8046.0, 2.4546e-07
8048.0, 2.0786e-07
8050.0, 2.1465e-07
8052.0, 2.5385e-07
8054.0, 2.2223e-07
8056.0, 2.2396e-07
8058.0, 1.9808e-07
8060.1, 2.5017e-07
8062.1, 1.6808e-07
8064.1, 2.0923e-07
8066.1, 2.0608e-07
8068.1, 2.2019e-07
8070.1, 1.97e-07
8072.1, 1.8007e-07
8074.1, 2.1522e-07
8076.1, 2.0888e-07
8078.1, 2.1643e-07
8080.1, 2.0003e-07
8082.1, 2.4329e-07
8084.1, 2.9339e-07
8086.1, 2.3007e-07
8088.1, 2.6482e-07
8090.1, 2.348e-07
8092.1, 2.274e-07
8094.1, 2.655e-07
8096.1, 2.3394e-07
8098.1, 2.2961e-07
8100.1, 2.3945e-07
8102.1, 2.2975e-07
8104.1, 2.39e-07
8106.1, 2.6535e-07
8108.1, 2.1895e-07
8110.1, 2.4785e-07
8112.1, 2.7694e-07
8114.1, 2.1775e-07
8116.1, 2.1803e-07
8118.1, 2.4664e-07
8120.1, 2.3593e-07
8122.1, 2.2645e-07
8124.1, 2.3591e-07
8126.1, 2.1945e-07
8128.1, 2.606e-07
8130.1, 2.4666e-07
8132.1, 2.3438e-07
8134.1, 2.3802e-07
8136.1, 2.4592e-07
8138.1, 2.2805e-07
8140.1, 2.4314e-07
8142.1, 2.5852e-07
8144.1, 2.5538e-07
8146.1, 2.2013e-07
8148.1, 2.437e-07
8150.1, 2.7733e-07
8152.1, 2.8485e-07
8154.1, 2.3403e-07
8156.1, 2.2616e-07
8158.1, 2.1834e-07
8160.2, 2.3783e-07
8162.2, 2.6633e-07
8164.2, 2.2833e-07
8166.2, 2.3474e-07
8168.2, 2.491e-07
8170.2, 2.2989e-07
8172.2, 2.2171e-07
8174.2, 2.3922e-07
8176.2, 2.4504e-07
8178.2, 2.633e-07
8180.2, 2.5277e-07
8182.2, 2.3893e-07
8184.2, 2.1978e-07
8186.2, 2.4108e-07
8188.2, 2.4319e-07
8190.2, 2.4123e-07
8192.2, 2.1315e-07
8194.2, 2.3835e-07
8196.2, 2.1693e-07
8198.2, 2.7434e-07
8200.2, 2.0448e-07
8202.2, 2.4042e-07
8204.2, 2.428e-07
8206.2, 2.4332e-07
8208.2, 2.2957e-07
8210.2, 2.6556e-07
8212.2, 2.509e-07
8214.2, 2.4795e-07
8216.2, 2.3557e-07
8218.2, 1.8388e-07
8220.2, 2.6032e-07
8222.2, 2.3218e-07
8224.2, 2.3385e-07
8226.2, 2.4937e-07
8228.2, 2.5957e-07
8230.2, 2.7235e-07
8232.2, 2.2363e-07
8234.2, 2.3199e-07
8236.2, 1.8061e-07
8238.2, 2.3177e-07
8240.2, 2.184e-07
8242.2, 2.4771e-07
8244.2, 2.6094e-07
8246.2, 2.2035e-07
8248.2, 2.8492e-07
8250.2, 2.9009e-07
8252.2, 2.6105e-07
8254.2, 2.2299e-07
8256.2, 2.2996e-07
8258.2, 2.4613e-07
8260.3, 2.3866e-07
8262.3, 2.4608e-07
8264.3, 2.5624e-07
8266.3, 2.1693e-07
8268.3, 2.1743e-07
8270.3, 2.1257e-07
8272.3, 2.6581e-07
8274.3, 2.6897e-07
8276.3, 2.7263e-07
8278.3, 2.0853e-07
8280.3, 2.3949e-07
8282.3, 2.0615e-07
8284.3, 2.7159e-07
8286.3, 2.0958e-07
8288.3, 2.5157e-07
8290.3, 2.6248e-07
8292.3, 2.3994e-07
8294.3, 2.4889e-07
8296.3, 2.5155e-07
8298.3, 2.4766e-07
8300.3, 2.16e-07
8302.3, 2.5483e-07
8304.3, 2.234e-07
8306.3, 2.2179e-07
8308.3, 2.4056e-07
8310.3, 2.0831e-07
8312.3, 2.6106e-07
8314.3, 2.5418e-07
8316.3, 2.4264e-07
8318.3, 2.5258e-07
8320.3, 2.1641e-07
8322.3, 2.142e-07
8324.3, 2.3964e-07
8326.3, 2.5886e-07
8328.3, 2.8933e-07
8330.3, 2.4108e-07
8332.3, 2.386e-07
8334.3, 2.2522e-07
8336.3, 2.4266e-07
8338.3, 2.4783e-07
8340.3, 2.0177e-07
8342.3, 2.1252e-07
8344.3, 2.5151e-07
8346.3, 2.2704e-07
8348.3, 2.2859e-07
8350.3, 2.0762e-07
8352.3, 1.9661e-07
8354.3, 2.4365e-07
8356.3, 2.3852e-07
8358.3, 2.4408e-07
8360.4, 2.5529e-07
8362.4, 2.627e-07
8364.4, 2.5925e-07
8366.4, 2.0296e-07
8368.4, 2.2315e-07
8370.4, 2.3561e-07
8372.4, 2.6627e-07
8374.4, 2.0419e-07
8376.4, 1.8479e-07
8378.4, 2.2118e-07
8380.4, 2.2075e-07
8382.4, 2.6585e-07
8384.4, 2.8219e-07
8386.4, 2.3525e-07
8388.4, 2.3801e-07
8390.4, 2.608e-07
8392.4, 2.4015e-07
8394.4, 2.4578e-07
8396.4, 2.3859e-07
8398.4, 2.7782e-07
8400.4, 2.6493e-07
8402.4, 2.3565e-07
8404.4, 2.6267e-07
8406.4, 2.1948e-07
8408.4, 2.1072e-07
8410.4, 2.114e-07
8412.4, 2.4761e-07
8414.4, 2.4613e-07
8416.4, 2.2626e-07
8418.4, 2.3277e-07
8420.4, 2.0939e-07
8422.4, 2.2588e-07
8424.4, 2.3882e-07
8426.4, 2.4064e-07
8428.4, 2.708e-07
8430.4, 2.5512e-07
8432.4, 2.1082e-07
8434.4, 2.2562e-07
8436.4, 2.2802e-07
8438.4, 2.2851e-07
8440.4, 2.1155e-07
8442.4, 2.0051e-07
8444.4, 2.107e-07
8446.4, 1.9958e-07
8448.4, 1.8713e-07
8450.4, 2.0021e-07
8452.4, 2.364e-07
8454.4, 2.2324e-07
8456.4, 2.5432e-07
8458.4, 2.5375e-07
8460.5, 2.5471e-07
8462.5, 2.4219e-07
8464.5, 2.4256e-07
8466.5, 1.8987e-07
8468.5, 2.4291e-07
8470.5, 2.3713e-07
8472.5, 2.1291e-07
8474.5, 2.3323e-07
8476.5, 2.2203e-07
8478.5, 2.5245e-07
8480.5, 2.6286e-07
8482.5, 2.7195e-07
8484.5, 2.2606e-07
8486.5, 2.647e-07
8488.5, 2.1863e-07
8490.5, 1.9291e-07
8492.5, 2.349e-07
8494.5, 2.0713e-07
8496.5, 2.3684e-07
8498.5, 2.53e-07
8500.5, 2.2582e-07
8502.5, 2.3845e-07
8504.5, 2.1898e-07
8506.5, 2.3651e-07
8508.5, 2.4007e-07
8510.5, 1.9459e-07
8512.5, 2.4239e-07
8514.5, 2.2721e-07
8516.5, 2.3814e-07
8518.5, 2.6387e-07
8520.5, 2.71e-07
8522.5, 2.4539e-07
8524.5, 2.1592e-07
8526.5, 2.6543e-07
8528.5, 2.4789e-07
8530.5, 2.3402e-07
8532.5, 1.9927e-07
8534.5, 2.4286e-07
8536.5, 2.6251e-07
8538.5, 2.5498e-07
8540.5, 2.0618e-07
8542.5, 2.3892e-07
8544.5, 2.4627e-07
8546.5, 2.2606e-07
8548.5, 2.7579e-07
8550.5, 2.4723e-07
8552.5, 2.4064e-07
8554.5, 2.5613e-07
8556.5, 2.6996e-07
8558.5, 2.6526e-07
8560.6, 2.3616e-07
8562.6, 2.5541e-07
8564.6, 2.7983e-07
8566.6, 2.5908e-07
8568.6, 2.4943e-07
8570.6, 2.5632e-07
8572.6, 2.395e-07
8574.6, 2.2627e-07
8576.6, 2.3729e-07
8578.6, 2.1952e-07
8580.6, 2.3954e-07
8582.6, 2.5796e-07
8584.6, 2.5314e-07
8586.6, 2.0511e-07
8588.6, 2.7168e-07
8590.6, 2.5549e-07
8592.6, 2.6141e-07
8594.6, 2.5669e-07
8596.6, 2.3294e-07
8598.6, 2.4225e-07
8600.6, 2.4477e-07
8602.6, 2.1391e-07
8604.6, 2.3384e-07
8606.6, 2.679e-07
8608.6, 2.1343e-07
8610.6, 2.3867e-07
8612.6, 2.3036e-07
8614.6, 2.3657e-07
8616.6, 2.5239e-07
8618.6, 2.0567e-07
8620.6, 2.1997e-07
8622.6, 2.181e-07
8624.6, 3.0086e-07
8626.6, 2.5385e-07
8628.6, 2.7811e-07
8630.6, 2.385e-07
8632.6, 2.6036e-07
8634.6, 2.6465e-07
8636.6, 2.7216e-07
8638.6, 2.7421e-07
8640.6, 2.3345e-07
8642.6, 2.4589e-07
8644.6, 1.9424e-07
8646.6, 2.1097e-07
8648.6, 2.5934e-07
8650.6, 2.4645e-07
8652.6, 2.3933e-07
8654.6, 2.1227e-07
8656.6, 2.3344e-07
8658.6, 2.3459e-07
8660.7, 2.4572e-07
8662.7, 2.2387e-07
8664.7, 2.3848e-07
8666.7, 2.2629e-07
8668.7, 2.677e-07
8670.7, 2.6873e-07
8672.7, 2.037e-07
8674.7, 2.6451e-07
8676.7, 2.4743e-07
8678.7, 2.6442e-07
8680.7, 2.9852e-07
8682.7, 2.9485e-07
8684.7, 2.2654e-07
8686.7, 2.6805e-07
8688.7, 2.3511e-07
8690.7, 2.3609e-07
8692.7, 2.1527e-07
8694.7, 2.4921e-07
8696.7, 2.5633e-07
8698.7, 2.6977e-07
8700.7, 2.6515e-07
8702.7, 2.2266e-07
8704.7, 2.2374e-07
8706.7, 2.0463e-07
8708.7, 2.2758e-07
8710.7, 2.6743e-07
8712.7, 2.2619e-07
8714.7, 2.3079e-07
8716.7, 2.4445e-07
8718.7, 2.3509e-07
8720.7, 2.8425e-07
8722.7, 2.428e-07
8724.7, 2.5803e-07
8726.7, 2.4907e-07
8728.7, 2.5191e-07
8730.7, 2.3383e-07
8732.7, 2.2401e-07
8734.7, 2.4604e-07
8736.7, 2.4085e-07
8738.7, 2.5614e-07
8740.7, 2.273e-07
8742.7, 2.4594e-07
8744.7, 2.1528e-07
8746.7, 1.6863e-07
8748.7, -1.18e-08
8750.7, -1.067e-08
8752.7, -1.419e-08
8754.7, -1.387e-08
8756.7, -1.422e-08
8758.7, -1.149e-08
8760.8, -1.278e-08
8762.8, -1.194e-08
8764.8, -1.395e-08
8766.8, -1.605e-08
8768.8, -1.391e-08
8770.8, -1.561e-08
8772.8, -1.376e-08
8774.8, -1.317e-08
8776.8, -1.424e-08
8778.8, -1.312e-08
8780.8, -1.347e-08
8782.8, -1.096e-08
8784.8, -1.274e-08
8786.8, -1.616e-08
8788.8, -1.222e-08
8790.8, -1.445e-08
8792.8, -1.518e-08
8794.8, -1.551e-08
8796.8, -1.681e-08
8798.8, -1.279e-08
8800.8, -1.599e-08
8802.8, -1.303e-08
8804.8, -1.239e-08
8806.8, -1.136e-08
8808.8, -1.731e-08
8810.8, -9.23e-09
8812.8, -1.544e-08
8814.8, -1.19e-08
8816.8, -1.229e-08
8818.8, -1.477e-08
8820.8, -1.85e-08
8822.8, -1.699e-08
8824.8, -1.39e-08
8826.8, -1.805e-08
8828.8, -1.807e-08
8830.8, -1.902e-08
8832.8, -1.783e-08
8834.8, -1.687e-08
8836.8, -1.932e-08
8838.8, -2.165e-08
8840.8, -1.979e-08
8842.8, -2.037e-08
8844.8, -1.92e-08
8846.8, -1.923e-08
8848.8, -1.511e-08
8850.8, -1.786e-08
8852.8, -1.171e-08
8854.8, -1.6e-08
8856.8, -1.747e-08
8858.8, -1.371e-08
8860.9, -1.02e-08
8862.9, -1.683e-08
8864.9, -1.668e-08
8866.9, -1.546e-08
8868.9, -1.472e-08
8870.9, -1.954e-08
8872.9, -1.511e-08
8874.9, -1.498e-08
8876.9, -1.264e-08
8878.9, -1.693e-08
8880.9, -1.31e-08
8882.9, -1.58e-08
8884.9, -1.333e-08
8886.9, -1.572e-08
8888.9, -1.251e-08
8890.9, -1.461e-08
8892.9, -1.235e-08
8894.9, -1.268e-08
8896.9, -1.382e-08
8898.9, -1.176e-08
8900.9, -1.526e-08
8902.9, -1.338e-08
8904.9, -1.4e-08
8906.9, -1.456e-08
8908.9, -1.149e-08
8910.9, -1.157e-08
8912.9, -1.129e-08
8914.9, -1.623e-08
8916.9, -1.434e-08
8918.9, -1.636e-08
8920.9, -1.665e-08
8922.9, -1.794e-08
8924.9, -1.591e-08
8926.9, -1.673e-08
8928.9, -1.532e-08
8930.9, -1.43e-08
8932.9, -1.596e-08
8934.9, -1.231e-08
8936.9, -1.612e-08
8938.9, -1.48e-08
8940.9, -1.758e-08
8942.9, -1.539e-08
8944.9, -1.477e-08
8946.9, -1.329e-08
8948.9, -1.465e-08
8950.9, -1.659e-08
8952.9, -1.71e-08
8954.9, -1.261e-08
8956.9, -9.29e-09
8958.9, -1.204e-08
8961.0, -1.358e-08
8963.0, -1.217e-08
8965.0, -1.309e-08
8967.0, -1.632e-08
8969.0, -1.146e-08
8971.0, -1.448e-08
8973.0, -1.611e-08
8975.0, -1.281e-08
8977.0, -1.625e-08
8979.0, -1.342e-08
8981.0, -1.481e-08
8983.0, -1.561e-08
8985.0, -1.359e-08
8987.0, -1.616e-08
8989.0, -1.749e-08
8991.0, -1.81e-08
8993.0, -1.575e-08
8995.0, -1.588e-08
8997.0, -1.824e-08
8999.0, -1.689e-08
9001.0, -2.035e-08
9003.0, -1.779e-08
9005.0, -1.49e-08
9007.0, -1.498e-08
9009.0, -1.691e-08
9011.0, -1.761e-08
9013.0, -1.459e-08
9015.0, -1.437e-08
9017.0, -1.791e-08
9019.0, -1.412e-08
9021.0, -1.596e-08
9023.0, -1.65e-08
9025.0, -1.735e-08
9027.0, -1.696e-08
9029.0, -1.558e-08
9031.0, -1.565e-08
9033.0, -1.809e-08
9035.0, -1.413e-08
9037.0, -1.545e-08
9039.0, -1.515e-08
9041.0, -1.792e-08
9043.0, -1.71e-08
9045.0, -1.742e-08
9047.0, -1.996e-08
9049.0, -1.928e-08
9051.0, -1.884e-08
9053.0, -1.831e-08
9055.0, -1.633e-08
9057.0, -1.825e-08
9059.0, -1.712e-08
9061.1, -1.764e-08
9063.1, -1.928e-08
9065.1, -1.958e-08
9067.1, -1.964e-08
9069.1, -1.909e-08
9071.1, -1.952e-08
9073.1, -1.73e-08
9075.1, -1.878e-08
9077.1, -2.165e-08
9079.1, -1.945e-08
9081.1, -2.2e-08
9083.1, -2.038e-08
9085.1, -1.836e-08
9087.1, -2.061e-08
9089.1, -1.973e-08
9091.1, -1.902e-08
9093.1, -2.392e-08
9095.1, -2.159e-08
9097.1, -1.898e-08
9099.1, -1.894e-08
9101.1, -2.067e-08
9103.1, -1.907e-08
9105.1, -1.685e-08
9107.1, -1.662e-08
9109.1, -1.517e-08
9111.1, -1.428e-08
9113.1, -1.565e-08
9115.1, -1.713e-08
9117.1, -1.513e-08
9119.1, -1.479e-08
9121.1, -1.861e-08
9123.1, -1.774e-08
9125.1, -1.815e-08
9127.1, -1.925e-08
9129.1, -1.777e-08
9131.1, -1.575e-08
9133.1, -1.649e-08
9135.1, -1.774e-08
9137.1, -1.531e-08
9139.1, -1.305e-08
9141.1, -1.736e-08
9143.1, -1.584e-08
9145.1, -1.863e-08
9147.1, -1.587e-08
9149.1, -1.529e-08
9151.1, -1.801e-08
9153.1, -1.855e-08
9155.1, -1.685e-08
9157.1, -1.668e-08
9159.1, -1.502e-08
9161.2, -1.649e-08
9163.2, -1.632e-08
9165.2, -1.386e-08
9167.2, -1.692e-08
9169.2, -1.378e-08
9171.2, -1.606e-08
9173.2, -2.062e-08
9175.2, -1.551e-08
9177.2, -1.583e-08
9179.2, -1.722e-08
9181.2, -1.896e-08
9183.2, -2.08e-08
9185.2, -1.916e-08
9187.2, -1.702e-08
9189.2, -1.718e-08
9191.2, -1.964e-08
9193.2, -1.737e-08
9195.2, -1.706e-08
9197.2, -1.647e-08
9199.2, -2.087e-08
9201.2, -1.961e-08
9203.2, -1.6e-08
9205.2, -1.663e-08
9207.2, -1.685e-08
9209.2, -1.993e-08
9211.2, -2.232e-08
9213.2, -1.796e-08
9215.2, -2.021e-08
9217.2, -1.595e-08
9219.2, -1.811e-08
9221.2, -2.173e-08
9223.2, -1.628e-08
9225.2, -1.598e-08
9227.2, -1.736e-08
9229.2, -1.75e-08
9231.2, -1.691e-08
9233.2, -1.816e-08
9235.2, -1.862e-08
9237.2, -1.485e-08
9239.2, -1.774e-08
9241.2, -1.48e-08
9243.2, -1.309e-08
9245.2, -1.55e-08
9247.2, -1.657e-08
9249.2, -1.482e-08
9251.2, -1.737e-08
9253.2, -1.56e-08
9255.2, -1.297e-08
9257.2, -1.58e-08
9259.2, -1.692e-08
9261.3, -1.884e-08
9263.3, -1.817e-08
9265.3, -1.882e-08
9267.3, -1.678e-08
9269.3, -2.011e-08
9271.3, -1.547e-08
9273.3, -1.745e-08
9275.3, -1.71e-08
9277.3, -1.869e-08
9279.3, -2.012e-08
9281.3, -1.466e-08
9283.3, -1.875e-08
9285.3, -1.714e-08
9287.3, -2.052e-08
9289.3, -1.45e-08
9291.3, -1.682e-08
9293.3, -1.82e-08
9295.3, -1.647e-08
9297.3, -1.74e-08
9299.3, -1.745e-08
9301.3, -1.607e-08
9303.3, -1.471e-08
9305.3, -1.192e-08
9307.3, -1.637e-08
9309.3, -2.024e-08
9311.3, -1.733e-08
9313.3, -1.71e-08
9315.3, -1.361e-08
9317.3, -1.727e-08
9319.3, -1.703e-08
9321.3, -2.216e-08
9323.3, -1.801e-08
9325.3, -1.45e-08
9327.3, -1.329e-08
9329.3, -1.818e-08
9331.3, -1.86e-08
9333.3, -1.679e-08
9335.3, -1.379e-08
9337.3, -1.774e-08
9339.3, -1.988e-08
9341.3, -1.938e-08
9343.3, -1.899e-08
9345.3, -2.076e-08
9347.3, -1.769e-08
9349.3, -1.972e-08
9351.3, -2.174e-08
9353.3, -1.783e-08
9355.3, -2.231e-08
9357.3, -2.205e-08
9359.3, -2.275e-08
9361.4, -2.366e-08
9363.4, -2.049e-08
9365.4, -2.172e-08
9367.4, -2.154e-08
9369.4, -2.333e-08
9371.4, -2.282e-08
9373.4, -1.844e-08
9375.4, -2.155e-08
9377.4, -1.99e-08
9379.4, -2.024e-08
9381.4, -2.097e-08
9383.4, -2.035e-08
9385.4, -1.967e-08
9387.4, -2.054e-08
9389.4, -2.128e-08
9391.4, -2.018e-08
9393.4, -1.897e-08
9395.4, -1.868e-08
9397.4, -1.9e-08
9399.4, -1.948e-08
9401.4, -1.787e-08
9403.4, -1.751e-08
9405.4, -2.013e-08
9407.4, -1.549e-08
9409.4, -1.609e-08
9411.4, -1.232e-08
9413.4, -1.55e-08
9415.4, -1.49e-08
9417.4, -1.702e-08
9419.4, -1.886e-08
9421.4, -1.25e-08
9423.4, -1.68e-08
9425.4, -1.705e-08
9427.4, -1.765e-08
9429.4, -2.114e-08
9431.4, -1.459e-08
9433.4, -1.465e-08
9435.4, -1.91e-08
9437.4, -1.853e-08
9439.4, -2.06e-08
9441.4, -1.933e-08
9443.4, -2.177e-08
9445.4, -1.486e-08
9447.4, -1.447e-08
9449.4, -1.703e-08
9451.4, -1.592e-08
9453.4, -1.544e-08
9455.4, -1.654e-08
9457.4, -1.634e-08
9459.4, -1.702e-08
9461.5, -1.314e-08
9463.5, -1.673e-08
9465.5, -1.56e-08
9467.5, -1.515e-08
9469.5, -1.863e-08
9471.5, -1.845e-08
9473.5, -1.835e-08
9475.5, -1.815e-08
9477.5, -1.503e-08
9479.5, -2.074e-08
9481.5, -1.874e-08
9483.5, -1.928e-08
9485.5, -2.34e-08
9487.5, -2.077e-08
9489.5, -1.901e-08
9491.5, -1.801e-08
9493.5, -1.723e-08
9495.5, -1.849e-08
9497.5, -1.844e-08
9499.5, -1.974e-08
9501.5, -1.541e-08
9503.5, -1.582e-08
9505.5, -1.405e-08
9507.5, -1.463e-08
9509.5, -1.98e-08
9511.5, -1.566e-08
9513.5, -1.49e-08
9515.5, -1.516e-08
9517.5, -1.214e-08
9519.5, -1.784e-08
9521.5, -1.511e-08
9523.5, -1.782e-08
9525.5, -1.593e-08
9527.5, -1.543e-08
9529.5, -1.986e-08
9531.5, -1.248e-08
9533.5, -1.618e-08
9535.5, -1.418e-08
9537.5, -1.304e-08
9539.5, -1.992e-08
9541.5, -1.812e-08
9543.5, -1.643e-08
9545.5, -1.497e-08
9547.5, -1.456e-08
9549.5, -1.477e-08
9551.5, -1.72e-08
9553.5, -1.524e-08
9555.5, -1.387e-08
9557.5, -1.658e-08
9559.5, -1.417e-08
9561.6, -1.391e-08
9563.6, -1.734e-08
9565.6, -1.275e-08
9567.6, -1.69e-08
9569.6, -1.176e-08
9571.6, -1.728e-08
9573.6, -1.137e-08
9575.6, -1.535e-08
9577.6, -1.582e-08
9579.6, -1.736e-08
9581.6, -1.549e-08
9583.6, -2.025e-08
9585.6, -1.785e-08
9587.6, -1.655e-08
9589.6, -1.614e-08
9591.6, -1.449e-08
9593.6, -1.548e-08
9595.6, -1.305e-08
9597.6, -1.676e-08
9599.6, -1.464e-08
9601.6, -1.785e-08
9603.6, -1.192e-08
9605.6, -1.262e-08
9607.6, -1.317e-08
9609.6, -1.441e-08
9611.6, -1.345e-08
9613.6, -1.246e-08
9615.6, -1.372e-08
9617.6, -1.478e-08
9619.6, -1.817e-08
9621.6, -1.501e-08
9623.6, -1.858e-08
9625.6, -1.872e-08
9627.6, -1.528e-08
9629.6, -1.831e-08
9631.6, -1.774e-08
9633.6, -1.794e-08
9635.6, -1.848e-08
9637.6, -2.095e-08
9639.6, -1.894e-08
9641.6, -1.797e-08
9643.6, -2.044e-08
9645.6, -1.865e-08
9647.6, -1.31e-08
9649.6, -1.771e-08
9651.6, -1.618e-08
9653.6, -1.501e-08
9655.6, -2.112e-08
9657.6, -2.285e-08
9659.6, -1.992e-08
9661.7, -2.086e-08
9663.7, -2.269e-08
9665.7, -2.22e-08
9667.7, -2.216e-08
9669.7, -2.059e-08
9671.7, -2.102e-08
9673.7, -2.204e-08
9675.7, -1.629e-08
9677.7, -1.654e-08
9679.7, -1.792e-08
9681.7, -1.996e-08
9683.7, -1.872e-08
9685.7, -1.713e-08
9687.7, -1.726e-08
9689.7, -1.897e-08
9691.7, -2.187e-08
9693.7, -1.845e-08
9695.7, -1.996e-08
9697.7, -1.91e-08
9699.7, -2.207e-08
9701.7, -2.063e-08
9703.7, -2.002e-08
9705.7, -2.029e-08
9707.7, -2.247e-08
9709.7, -2.235e-08
9711.7, -2.172e-08
9713.7, -2.134e-08
9715.7, -2.084e-08
9717.7, -1.825e-08
9719.7, -2.149e-08
9721.7, -2.457e-08
9723.7, -2.245e-08
9725.7, -2.108e-08
9727.7, -1.881e-08
9729.7, -1.874e-08
9731.7, -2e-08
9733.7, -2.205e-08
9735.7, -2.15e-08
9737.7, -2.42e-08
9739.7, -2.099e-08
9741.7, -2.095e-08
9743.7, -1.932e-08
9745.7, -1.727e-08
9747.7, -2.216e-08
9749.7, -2.162e-08
9751.7, -2.144e-08
9753.7, -2.281e-08
9755.7, -1.987e-08
9757.7, -2.144e-08
9759.7, -2.113e-08
9761.8, -1.795e-08
9763.8, -2.008e-08
9765.8, -1.894e-08
9767.8, -2.066e-08
9769.8, -2.461e-08
9771.8, -2.623e-08
9773.8, -2.453e-08
9775.8, -2.326e-08
9777.8, -2.534e-08
9779.8, -2.536e-08
9781.8, -2.371e-08
9783.8, -2.449e-08
9785.8, -2.133e-08
9787.8, -1.777e-08
9789.8, -2.271e-08
9791.8, -1.741e-08
9793.8, -2.28e-08
9795.8, -2.125e-08
9797.8, -2.205e-08
9799.8, -2.227e-08
9801.8, -2.298e-08
9803.8, -2.45e-08
9805.8, -2.325e-08
9807.8, -1.681e-08
9809.8, -1.915e-08
9811.8, -1.632e-08
9813.8, -1.951e-08
9815.8, -1.719e-08
9817.8, -1.802e-08
9819.8, -2.091e-08
9821.8, -2.218e-08
9823.8, -2.427e-08
9825.8, -2.049e-08
9827.8, -2.136e-08
9829.8, -2.207e-08
9831.8, -1.849e-08
9833.8, -1.812e-08
9835.8, -1.342e-08
9837.8, -1.812e-08
9839.8, -1.813e-08
9841.8, -1.722e-08
9843.8, -1.986e-08
9845.8, -2.114e-08
9847.8, -1.702e-08
9849.8, -1.645e-08
9851.8, -1.953e-08
9853.8, -1.776e-08
9855.8, -1.726e-08
9857.8, -1.659e-08
9859.8, -1.44e-08
9861.9, -1.715e-08
9863.9, -1.729e-08
9865.9, -1.792e-08
9867.9, -1.362e-08
9869.9, -2.113e-08
9871.9, -1.835e-08
9873.9, -1.67e-08
9875.9, -1.535e-08
9877.9, -1.316e-08
9879.9, -1.263e-08
9881.9, -1.504e-08
9883.9, -1.109e-08
9885.9, -1.348e-08
9887.9, -1.243e-08
9889.9, -1.523e-08
9891.9, -1.994e-08
9893.9, -1.732e-08
9895.9, -1.478e-08
9897.9, -1.349e-08
9899.9, -1.77e-08
9901.9, -1.678e-08
9903.9, -1.696e-08
9905.9, -1.692e-08
9907.9, -1.366e-08
9909.9, -1.596e-08
9911.9, -1.276e-08
9913.9, -1.45e-08
9915.9, -1.521e-08
9917.9, -1.157e-08
9919.9, -1.281e-08
9921.9, -1.447e-08
9923.9, -1.29e-08
9925.9, -1.394e-08
9927.9, -1.244e-08
9929.9, -9.72e-09
9931.9, -1.428e-08
9933.9, -1.394e-08
9935.9, -1.571e-08
9937.9, -1.386e-08
9939.9, -1.519e-08
9941.9, -1.698e-08
9943.9, -1.531e-08
9945.9, -1.781e-08
9947.9, -1.995e-08
9949.9, -1.993e-08
9951.9, -1.916e-08
9953.9, -1.727e-08
9955.9, -1.481e-08
9957.9, -1.384e-08
9959.9, -1.539e-08
9962.0, -1.7e-08
9964.0, -1.701e-08
9966.0, -1.733e-08
9968.0, -1.578e-08
9970.0, -1.489e-08
9972.0, -1.669e-08
9974.0, -1.427e-08
9976.0, -1.697e-08
9978.0, -1.79e-08
9980.0, -1.797e-08
9982.0, -1.727e-08
9984.0, -1.706e-08
9986.0, -1.919e-08
9988.0, -1.337e-08
9990.0, -1.193e-08
9992.0, -1.555e-08
9994.0, -1.675e-08
9996.0, -1.664e-08
9998.0, -1.477e-08
10000.0, -1.439e-08
10002.0, -1.806e-08
10004.0, -1.804e-08
10006.0, -1.364e-08
10008.0, -1.489e-08
