Time sep (ms?), Current (A)
0.0, -2.39e-08
2.002, -2.619e-08
4.004, -2.412e-08
6.006, -1.933e-08
8.008, -2.531e-08
10.01, -2.283e-08
12.012, -2.261e-08
14.014, -2.499e-08
16.016, -2.252e-08
18.018, -2.46e-08
20.02, -2.033e-08
22.022, -2.038e-08
24.024, -2.066e-08
26.026, -2.351e-08
28.028, -2.239e-08
30.03, -1.802e-08
32.032, -2.001e-08
34.034, -2.268e-08
36.036, -2.058e-08
38.038, -2.363e-08
40.04, -2.061e-08
42.042, -2.351e-08
44.044, -2.548e-08
46.046, -2.39e-08
48.048, -2.376e-08
50.05, -2.747e-08
52.052, -2.39e-08
54.054, -2.732e-08
56.056, -2.584e-08
58.058, -2.742e-08
60.06, -2.558e-08
62.062, -2.564e-08
64.064, -2.43e-08
66.066, -2.456e-08
68.068, -2.351e-08
70.07, -2.3e-08
72.072, -2.374e-08
74.074, -2.656e-08
76.076, -2.492e-08
78.078, -2.326e-08
80.08, -2.199e-08
82.082, -2.57e-08
84.084, -2.09e-08
86.086, -2.059e-08
88.088, -2.187e-08
90.09, -2.406e-08
92.092, -2.032e-08
94.094, -2.097e-08
96.096, -2.025e-08
98.098, -2.151e-08
100.1, -2.178e-08
102.1, -2.173e-08
104.1, -2.344e-08
106.11, -2.19e-08
108.11, -2.506e-08
110.11, -2.257e-08
112.11, -2.108e-08
114.11, -2.067e-08
116.12, -2.299e-08
118.12, -2.149e-08
120.12, -2.485e-08
122.12, -2.095e-08
124.12, -2.26e-08
126.13, -2.019e-08
128.13, -2.086e-08
130.13, -2.385e-08
132.13, -2.127e-08
134.13, -2.219e-08
136.14, -2.625e-08
138.14, -2.497e-08
140.14, -2.71e-08
142.14, -2.52e-08
144.14, -2.316e-08
146.15, -2.144e-08
148.15, -2.517e-08
150.15, -1.979e-08
152.15, -2.171e-08
154.15, -2.016e-08
156.16, -2.471e-08
158.16, -2.672e-08
160.16, -2.302e-08
162.16, -1.73e-08
164.16, -2.369e-08
166.17, -2.306e-08
168.17, -2.551e-08
170.17, -2.293e-08
172.17, -2.288e-08
174.17, -2.284e-08
176.18, -2.523e-08
178.18, -2.342e-08
180.18, -1.994e-08
182.18, -2.503e-08
184.18, -2.342e-08
186.19, -2.343e-08
188.19, -2.738e-08
190.19, -2.594e-08
192.19, -2.416e-08
194.19, -2.578e-08
196.2, -2.57e-08
198.2, -2.645e-08
200.2, -2.458e-08
202.2, -2.399e-08
204.2, -2.635e-08
206.21, -2.54e-08
208.21, -2.557e-08
210.21, -2.224e-08
212.21, -2.423e-08
214.21, -2.291e-08
216.22, -2.541e-08
218.22, -2.482e-08
220.22, -2.684e-08
222.22, -2.617e-08
224.22, -2.423e-08
226.23, -2.395e-08
228.23, -2.471e-08
230.23, -2.056e-08
232.23, -2.354e-08
234.23, -2.043e-08
236.24, -2.697e-08
238.24, -2.732e-08
240.24, -2.55e-08
242.24, -2.423e-08
244.24, -2.572e-08
246.25, -2.567e-08
248.25, -2.553e-08
250.25, -2.375e-08
252.25, -2.661e-08
254.25, -2.596e-08
256.26, -2.646e-08
258.26, -2.45e-08
260.26, -2.475e-08
262.26, -2.821e-08
264.26, -2.525e-08
266.27, -2.949e-08
268.27, -2.617e-08
270.27, -2.272e-08
272.27, -2.567e-08
274.27, -2.44e-08
276.28, -2.458e-08
278.28, -2.697e-08
280.28, -2.568e-08
282.28, -2.464e-08
284.28, -2.566e-08
286.29, -2.76e-08
288.29, -2.821e-08
290.29, -2.517e-08
292.29, -2.456e-08
294.29, -2.445e-08
296.3, -2.806e-08
298.3, -2.267e-08
300.3, -2.616e-08
302.3, -2.68e-08
304.3, -2.548e-08
306.31, -2.701e-08
308.31, -2.833e-08
310.31, -2.629e-08
312.31, -2.552e-08
314.31, -2.864e-08
316.32, -2.61e-08
318.32, -2.957e-08
320.32, -2.797e-08
322.32, -2.576e-08
324.32, -2.527e-08
326.33, -2.618e-08
328.33, -2.543e-08
330.33, -2.548e-08
332.33, -2.264e-08
334.33, -2.48e-08
336.34, -2.585e-08
338.34, -2.42e-08
340.34, -2.374e-08
342.34, -2.302e-08
344.34, -2.182e-08
346.35, -2.402e-08
348.35, -2.266e-08
350.35, -2.512e-08
352.35, -2.556e-08
354.35, -2.432e-08
356.36, -2.449e-08
358.36, -2.137e-08
360.36, -2.415e-08
362.36, -2.231e-08
364.36, -1.941e-08
366.37, -2.641e-08
368.37, -2.339e-08
370.37, -2.951e-08
372.37, -2.284e-08
374.37, -2.146e-08
376.38, -2.046e-08
378.38, -1.919e-08
380.38, -2.543e-08
382.38, -2.035e-08
384.38, -1.972e-08
386.39, -2.049e-08
388.39, -1.947e-08
390.39, -2.175e-08
392.39, -2.226e-08
394.39, -2.39e-08
396.4, -2.439e-08
398.4, -2.682e-08
400.4, -2.178e-08
402.4, -2.442e-08
404.4, -2.776e-08
406.41, -2.816e-08
408.41, -2.472e-08
410.41, -2.377e-08
412.41, -2.229e-08
414.41, -2.028e-08
416.42, -2.291e-08
418.42, -2.082e-08
420.42, -2.456e-08
422.42, -2.269e-08
424.42, -2.297e-08
426.43, -2.919e-08
428.43, -2.454e-08
430.43, -2.371e-08
432.43, -2.676e-08
434.43, -2.29e-08
436.44, -2.572e-08
438.44, -2.417e-08
440.44, -2.26e-08
442.44, -2.473e-08
444.44, -2.2e-08
446.45, -2.363e-08
448.45, -2.203e-08
450.45, -1.582e-08
452.45, -2.028e-08
454.45, -2.389e-08
456.46, -2.095e-08
458.46, -2.31e-08
460.46, -1.856e-08
462.46, -1.822e-08
464.46, -1.489e-08
466.47, -2.254e-08
468.47, -1.988e-08
470.47, -2.312e-08
472.47, -2.395e-08
474.47, -2.48e-08
476.48, -2.571e-08
478.48, -1.999e-08
480.48, -2.069e-08
482.48, -1.787e-08
484.48, -2.333e-08
486.49, -2.265e-08
488.49, -2.423e-08
490.49, -2.062e-08
492.49, -2.273e-08
494.49, -2.326e-08
496.5, -2.246e-08
498.5, -2.713e-08
500.5, -2.245e-08
502.5, -2.3e-08
504.5, -2.223e-08
506.51, -2.185e-08
508.51, -1.98e-08
510.51, -2.328e-08
512.51, -2.398e-08
514.51, -2.539e-08
516.52, -2.59e-08
518.52, -2.541e-08
520.52, -2.442e-08
522.52, -2.387e-08
524.52, -2.125e-08
526.53, -2.005e-08
528.53, -2.09e-08
530.53, -2.229e-08
532.53, -2.147e-08
534.53, -2.385e-08
536.54, -2.64e-08
538.54, -2.349e-08
540.54, -2.308e-08
542.54, -2.558e-08
544.54, -2.058e-08
546.55, -2.24e-08
548.55, -2.395e-08
550.55, -1.968e-08
552.55, -2.63e-08
554.55, -2.415e-08
556.56, -2.41e-08
558.56, -2.129e-08
560.56, -2.276e-08
562.56, -2.149e-08
564.56, -2.055e-08
566.57, -2.195e-08
568.57, -2.004e-08
570.57, -1.622e-08
572.57, -1.856e-08
574.57, -1.703e-08
576.58, -2.08e-08
578.58, -1.884e-08
580.58, -1.568e-08
582.58, -1.883e-08
584.58, -1.965e-08
586.59, -1.715e-08
588.59, -1.936e-08
590.59, -2.071e-08
592.59, -2.203e-08
594.59, -2.043e-08
596.6, -2.168e-08
598.6, -2.255e-08
600.6, -1.991e-08
602.6, -2.093e-08
604.6, -2.599e-08
606.61, -2.148e-08
608.61, -2.175e-08
610.61, -1.99e-08
612.61, -2.011e-08
614.61, -2.146e-08
616.62, -2.119e-08
618.62, -2.167e-08
620.62, -2.294e-08
622.62, -2.033e-08
624.62, -1.998e-08
626.63, -1.929e-08
628.63, -2.113e-08
630.63, -2.536e-08
632.63, -2.289e-08
634.63, -2.261e-08
636.64, -2.338e-08
638.64, -2.46e-08
640.64, -2.992e-08
642.64, -2.114e-08
644.64, -2.267e-08
646.65, -2.43e-08
648.65, -2.317e-08
650.65, -2.428e-08
652.65, -2.268e-08
654.65, -2.146e-08
656.66, -2.463e-08
658.66, -2.218e-08
660.66, -2.096e-08
662.66, -1.979e-08
664.66, -2.406e-08
666.67, -2.22e-08
668.67, -2.02e-08
670.67, -2.272e-08
672.67, -2.337e-08
674.67, -2.083e-08
676.68, -2.205e-08
678.68, -2.083e-08
680.68, -2.325e-08
682.68, -2.115e-08
684.68, -2.193e-08
686.69, -2.57e-08
688.69, -2.109e-08
690.69, -2.083e-08
692.69, -1.533e-08
694.69, -2.227e-08
696.7, -2.208e-08
698.7, -2.082e-08
700.7, -2.408e-08
702.7, -2.288e-08
704.7, -2.058e-08
706.71, -1.882e-08
708.71, -2.393e-08
710.71, -2.331e-08
712.71, -2.207e-08
714.71, -2.624e-08
716.72, -2.222e-08
718.72, -2.323e-08
720.72, -2.412e-08
722.72, -2.36e-08
724.72, -2.64e-08
726.73, -2.779e-08
728.73, -2.269e-08
730.73, -2.277e-08
732.73, -2.161e-08
734.73, -1.995e-08
736.74, -1.997e-08
738.74, -2.156e-08
740.74, -2.051e-08
742.74, -2.081e-08
744.74, -2.136e-08
746.75, -2.055e-08
748.75, -2.159e-08
750.75, -2.455e-08
752.75, -2.107e-08
754.75, -2.143e-08
756.76, -2.172e-08
758.76, -2.261e-08
760.76, -2.086e-08
762.76, -2.021e-08
764.76, -2.034e-08
766.77, -2.033e-08
768.77, -2.265e-08
770.77, -1.997e-08
772.77, -2.113e-08
774.77, -2.504e-08
776.78, -1.733e-08
778.78, -2.599e-08
780.78, -2.264e-08
782.78, -2.201e-08
784.78, -2.412e-08
786.79, -2.444e-08
788.79, -2.211e-08
790.79, -2.623e-08
792.79, -2.813e-08
794.79, -2.356e-08
796.8, -2.268e-08
798.8, -2.605e-08
800.8, -2.03e-08
802.8, -2.3e-08
804.8, -2.123e-08
806.81, -2.101e-08
808.81, -2.282e-08
810.81, -2.246e-08
812.81, -2.067e-08
814.81, -2.285e-08
816.82, -2.327e-08
818.82, -2.399e-08
820.82, -2.328e-08
822.82, -2.057e-08
824.82, -2.561e-08
826.83, -2.414e-08
828.83, -2.295e-08
830.83, -2.425e-08
832.83, -1.962e-08
834.83, -2.06e-08
836.84, -2.023e-08
838.84, -2.268e-08
840.84, -2.176e-08
842.84, -2.449e-08
844.84, -2.48e-08
846.85, -2.399e-08
848.85, -2.536e-08
850.85, -2.303e-08
852.85, -2.295e-08
854.85, -2.125e-08
856.86, -2.338e-08
858.86, -2.443e-08
860.86, -2.175e-08
862.86, -2.356e-08
864.86, -1.89e-08
866.87, -2.291e-08
868.87, -2.477e-08
870.87, -2.159e-08
872.87, -1.829e-08
874.87, -2.4e-08
876.88, -2.169e-08
878.88, -2.121e-08
880.88, -2.432e-08
882.88, -2.496e-08
884.88, -2.513e-08
886.89, -2.657e-08
888.89, -2.656e-08
890.89, -1.967e-08
892.89, -2.032e-08
894.89, -2.448e-08
896.9, -2.222e-08
898.9, -2.188e-08
900.9, -2.369e-08
902.9, -2.087e-08
904.9, -2.272e-08
906.91, -2.172e-08
908.91, -1.929e-08
910.91, -2.192e-08
912.91, -2.431e-08
914.91, -2.14e-08
916.92, -2.287e-08
918.92, -2.068e-08
920.92, -2.21e-08
922.92, -2.282e-08
924.92, -2.132e-08
926.93, -2.168e-08
928.93, -2.03e-08
930.93, -2.124e-08
932.93, -2.177e-08
934.93, -2.069e-08
936.94, -2.221e-08
938.94, -2.295e-08
940.94, -2.327e-08
942.94, -2.52e-08
944.94, -1.834e-08
946.95, -2.107e-08
948.95, -2.068e-08
950.95, -2.346e-08
952.95, -2.147e-08
954.95, -2.29e-08
956.96, -2.553e-08
958.96, -2.622e-08
960.96, -2.452e-08
962.96, -2.586e-08
964.96, -2.965e-08
966.97, -3.072e-08
968.97, -2.779e-08
970.97, -2.489e-08
972.97, -2.974e-08
974.97, -2.696e-08
976.98, -2.962e-08
978.98, -2.826e-08
980.98, -2.757e-08
982.98, -2.43e-08
984.98, -2.808e-08
986.99, -2.634e-08
988.99, -2.602e-08
990.99, -2.662e-08
992.99, -2.401e-08
994.99, -2.462e-08
997.0, -2.495e-08
999.0, -2.501e-08
1001.0, -2.314e-08
1003.0, -2.437e-08
1005.0, -2.53e-08
1007.0, -2.633e-08
1009.0, -2.67e-08
1011.0, -2.476e-08
1013.0, -2.614e-08
1015.0, 3.75e-07
1017.0, 4.1657e-07
1019.0, 3.6239e-07
1021.0, 4.102e-07
1023.0, 4.3185e-07
1025.0, 3.926e-07
1027.0, 3.9824e-07
1029.0, 3.56e-07
1031.0, 3.8588e-07
1033.0, 3.3168e-07
1035.0, 3.432e-07
1037.0, 3.8473e-07
1039.0, 3.4579e-07
1041.0, 4.2111e-07
1043.0, 4.0895e-07
1045.0, 3.8836e-07
1047.0, 3.4817e-07
1049.0, 3.9518e-07
1051.0, 3.6639e-07
1053.1, 3.8087e-07
1055.1, 3.7407e-07
1057.1, 3.8296e-07
1059.1, 3.9096e-07
1061.1, 3.7031e-07
1063.1, 3.8723e-07
1065.1, 3.7875e-07
1067.1, 3.9087e-07
1069.1, 4.0561e-07
1071.1, 4.6179e-07
1073.1, 4.485e-07
1075.1, 3.9319e-07
1077.1, 3.7336e-07
1079.1, 3.7016e-07
1081.1, 3.8214e-07
1083.1, 3.892e-07
1085.1, 4.1254e-07
1087.1, 3.9571e-07
1089.1, 3.859e-07
1091.1, 4.0533e-07
1093.1, 3.8252e-07
1095.1, 3.8077e-07
1097.1, 4.1299e-07
1099.1, 3.6589e-07
1101.1, 3.8739e-07
1103.1, 3.8203e-07
1105.1, 3.6268e-07
1107.1, 3.8687e-07
1109.1, 3.8587e-07
1111.1, 3.9406e-07
1113.1, 4.1267e-07
1115.1, 3.9202e-07
1117.1, 3.945e-07
1119.1, 3.4778e-07
1121.1, 3.9224e-07
1123.1, 4.2616e-07
1125.1, 4e-07
1127.1, 3.8333e-07
1129.1, 3.837e-07
1131.1, 3.9375e-07
1133.1, 4.0167e-07
1135.1, 4.0919e-07
1137.1, 4.1553e-07
1139.1, 4.0259e-07
1141.1, 4.006e-07
1143.1, 3.8972e-07
1145.1, 4.1499e-07
1147.1, 3.9886e-07
1149.1, 3.9054e-07
1151.1, 3.8164e-07
1153.2, 3.9156e-07
1155.2, 4.0481e-07
1157.2, 3.9178e-07
1159.2, 3.9857e-07
1161.2, 3.9462e-07
1163.2, 4.0327e-07
1165.2, 4.0495e-07
1167.2, 4.338e-07
1169.2, 4.1982e-07
1171.2, 3.6361e-07
1173.2, 3.8922e-07
1175.2, 4.0387e-07
1177.2, 4.2359e-07
1179.2, 4.4133e-07
1181.2, 4.3501e-07
1183.2, 4.0485e-07
1185.2, 4.0834e-07
1187.2, 4.1305e-07
1189.2, 3.9353e-07
1191.2, 4.169e-07
1193.2, 3.9247e-07
1195.2, 3.5512e-07
1197.2, 3.701e-07
1199.2, 3.8284e-07
1201.2, 3.978e-07
1203.2, 3.7868e-07
1205.2, 4.1177e-07
1207.2, 4.4108e-07
1209.2, 3.8247e-07
1211.2, 4.2589e-07
1213.2, 4.1393e-07
1215.2, 4.3713e-07
1217.2, 4.0365e-07
1219.2, 4.063e-07
1221.2, 4.1773e-07
1223.2, 3.8204e-07
1225.2, 3.8042e-07
1227.2, 3.5453e-07
1229.2, 4.1181e-07
1231.2, 4.1145e-07
1233.2, 4.2214e-07
1235.2, 4.2984e-07
1237.2, 4.3069e-07
1239.2, 4.5381e-07
1241.2, 4.0508e-07
1243.2, 4.3123e-07
1245.2, 4.3028e-07
1247.2, 4.1768e-07
1249.2, 4.3723e-07
1251.2, 3.9098e-07
1253.3, 4.4723e-07
1255.3, 4.4161e-07
1257.3, 4.5866e-07
1259.3, 4.3617e-07
1261.3, 4.3199e-07
1263.3, 3.7545e-07
1265.3, 4.0916e-07
1267.3, 4.4361e-07
1269.3, 3.7007e-07
1271.3, 4.089e-07
1273.3, 4.1877e-07
1275.3, 4.4899e-07
1277.3, 4.0505e-07
1279.3, 4.1278e-07
1281.3, 4.1513e-07
1283.3, 4.4367e-07
1285.3, 4.4947e-07
1287.3, 3.9502e-07
1289.3, 4.2669e-07
1291.3, 4.143e-07
1293.3, 3.7209e-07
1295.3, 4.1668e-07
1297.3, 4.5288e-07
1299.3, 4.0545e-07
1301.3, 4.1635e-07
1303.3, 4.2285e-07
1305.3, 4.2537e-07
1307.3, 3.9709e-07
1309.3, 3.7844e-07
1311.3, 4.7045e-07
1313.3, 4.1766e-07
1315.3, 3.9027e-07
1317.3, 3.8257e-07
1319.3, 4.332e-07
1321.3, 4.6037e-07
1323.3, 3.9007e-07
1325.3, 3.3367e-07
1327.3, 4.2851e-07
1329.3, 3.9631e-07
1331.3, 4.1449e-07
1333.3, 4.4311e-07
1335.3, 4.4328e-07
1337.3, 4.2814e-07
1339.3, 3.8615e-07
1341.3, 4.4049e-07
1343.3, 4.1112e-07
1345.3, 4.5444e-07
1347.3, 4.0627e-07
1349.3, 3.4544e-07
1351.3, 4.0461e-07
1353.4, 4.1381e-07
1355.4, 4.1301e-07
1357.4, 3.8139e-07
1359.4, 4.4105e-07
1361.4, 4.1387e-07
1363.4, 4.3784e-07
1365.4, 4.1989e-07
1367.4, 4.6281e-07
1369.4, 3.9579e-07
1371.4, 4.2242e-07
1373.4, 4.254e-07
1375.4, 4.1618e-07
1377.4, 3.9001e-07
1379.4, 3.8311e-07
1381.4, 4.3831e-07
1383.4, 4.2734e-07
1385.4, 3.8628e-07
1387.4, 4.2433e-07
1389.4, 4.1695e-07
1391.4, 4.2121e-07
1393.4, 4.1105e-07
1395.4, 4.3006e-07
1397.4, 4.019e-07
1399.4, 4.2167e-07
1401.4, 4.9263e-07
1403.4, 4.3628e-07
1405.4, 4.688e-07
1407.4, 4.0204e-07
1409.4, 4.7737e-07
1411.4, 4.0029e-07
1413.4, 3.8064e-07
1415.4, 4.0934e-07
1417.4, 4.7168e-07
1419.4, 4.1817e-07
1421.4, 4.3158e-07
1423.4, 4.0742e-07
1425.4, 4.0564e-07
1427.4, 3.9833e-07
1429.4, 4.5301e-07
1431.4, 4.3134e-07
1433.4, 4.1719e-07
1435.4, 4.5731e-07
1437.4, 4.2436e-07
1439.4, 4.3455e-07
1441.4, 4.1228e-07
1443.4, 3.9464e-07
1445.4, 4.3003e-07
1447.4, 4.1486e-07
1449.4, 4.177e-07
1451.4, 4.2979e-07
1453.5, 4.2083e-07
1455.5, 3.9123e-07
1457.5, 4.1033e-07
1459.5, 4.7184e-07
1461.5, 4.6408e-07
1463.5, 4.1982e-07
1465.5, 4.637e-07
1467.5, 4.269e-07
1469.5, 4.1934e-07
1471.5, 4.2379e-07
1473.5, 4.1779e-07
1475.5, 4.2739e-07
1477.5, 4.4688e-07
1479.5, 4.3049e-07
1481.5, 4.373e-07
1483.5, 4.239e-07
1485.5, 4.3881e-07
1487.5, 4.168e-07
1489.5, 3.8617e-07
1491.5, 3.847e-07
1493.5, 4.4644e-07
1495.5, 4.4148e-07
1497.5, 4.2443e-07
1499.5, 4.4078e-07
1501.5, 4.4685e-07
1503.5, 4.4039e-07
1505.5, 4.2952e-07
1507.5, 4.3056e-07
1509.5, 4.2579e-07
1511.5, 4.0821e-07
1513.5, 3.6119e-07
1515.5, 3.9287e-07
1517.5, 4.143e-07
1519.5, 3.9411e-07
1521.5, 4.3396e-07
1523.5, 4.3542e-07
1525.5, 4.1463e-07
1527.5, 3.9488e-07
1529.5, 4.3048e-07
1531.5, 4.355e-07
1533.5, 4.1703e-07
1535.5, 4.3051e-07
1537.5, 4.2376e-07
1539.5, 4.9725e-07
1541.5, 4.5345e-07
1543.5, 4.1122e-07
1545.5, 4.026e-07
1547.5, 4.221e-07
1549.5, 4.5811e-07
1551.5, 4.0048e-07
1553.6, 4.2184e-07
1555.6, 3.7286e-07
1557.6, 3.7364e-07
1559.6, 4.2861e-07
1561.6, 4.0978e-07
1563.6, 4.432e-07
1565.6, 4.1121e-07
1567.6, 4.1781e-07
1569.6, 4.34e-07
1571.6, 4.1787e-07
1573.6, 3.9065e-07
1575.6, 4.064e-07
1577.6, 4.4349e-07
1579.6, 4.2547e-07
1581.6, 4.0908e-07
1583.6, 4.288e-07
1585.6, 4.1031e-07
1587.6, 4.2112e-07
1589.6, 4.3267e-07
1591.6, 4.2409e-07
1593.6, 4.0966e-07
1595.6, 4.5664e-07
1597.6, 4.1233e-07
1599.6, 4.2661e-07
1601.6, 4.4455e-07
1603.6, 4.3051e-07
1605.6, 3.9873e-07
1607.6, 3.8772e-07
1609.6, 4.4758e-07
1611.6, 4.0654e-07
1613.6, 4.4603e-07
1615.6, 4.1236e-07
1617.6, 3.9201e-07
1619.6, 4.0211e-07
1621.6, 4.0262e-07
1623.6, 4.05e-07
1625.6, 4.2319e-07
1627.6, 4.3271e-07
1629.6, 4.1259e-07
1631.6, 4.2547e-07
1633.6, 4.2461e-07
1635.6, 4.2343e-07
1637.6, 4.0525e-07
1639.6, 4.0498e-07
1641.6, 4.4715e-07
1643.6, 4.1461e-07
1645.6, 3.7436e-07
1647.6, 4.0234e-07
1649.6, 3.9603e-07
1651.6, 4.5117e-07
1653.7, 4.8724e-07
1655.7, 4.6631e-07
1657.7, 4.2472e-07
1659.7, 4.0928e-07
1661.7, 4.7403e-07
1663.7, 4.4436e-07
1665.7, 4.3368e-07
1667.7, 4.6535e-07
1669.7, 4.4629e-07
1671.7, 4.3374e-07
1673.7, 4.0449e-07
1675.7, 4.1822e-07
1677.7, 4.1065e-07
1679.7, 4.1025e-07
1681.7, 4.383e-07
1683.7, 4.3043e-07
1685.7, 4.6794e-07
1687.7, 4.5492e-07
1689.7, 3.9046e-07
1691.7, 4.5961e-07
1693.7, 4.6158e-07
1695.7, 4.5722e-07
1697.7, 4.3022e-07
1699.7, 4.3057e-07
1701.7, 3.8385e-07
1703.7, 4.2235e-07
1705.7, 4.0979e-07
1707.7, 4.2223e-07
1709.7, 3.9449e-07
1711.7, 4.5998e-07
1713.7, 4.3418e-07
1715.7, 3.8929e-07
1717.7, 4.521e-07
1719.7, 4.3956e-07
1721.7, 4.4468e-07
1723.7, 4.5081e-07
1725.7, 4.4826e-07
1727.7, 4.3029e-07
1729.7, 4.3146e-07
1731.7, 4.7454e-07
1733.7, 4.7004e-07
1735.7, 3.8518e-07
1737.7, 4.2702e-07
1739.7, 4.6948e-07
1741.7, 4.0997e-07
1743.7, 4.8197e-07
1745.7, 4.3591e-07
1747.7, 4.2735e-07
1749.7, 4.2785e-07
1751.7, 4.6102e-07
1753.8, 4.6878e-07
1755.8, 3.8919e-07
1757.8, 4.2474e-07
1759.8, 4.4463e-07
1761.8, 4.1326e-07
1763.8, 4.1324e-07
1765.8, 4.5062e-07
1767.8, 4.2689e-07
1769.8, 4.4645e-07
1771.8, 4.2895e-07
1773.8, 4.208e-07
1775.8, 4.4531e-07
1777.8, 3.847e-07
1779.8, 4.3937e-07
1781.8, 4.2948e-07
1783.8, 4.531e-07
1785.8, 4.873e-07
1787.8, 4.1346e-07
1789.8, 4.2499e-07
1791.8, 3.8896e-07
1793.8, 4.3957e-07
1795.8, 4.2316e-07
1797.8, 4.3867e-07
1799.8, 4.0436e-07
1801.8, 4.247e-07
1803.8, 4.3578e-07
1805.8, 4.4796e-07
1807.8, 4.2279e-07
1809.8, 3.9087e-07
1811.8, 4.4732e-07
1813.8, 4.2715e-07
1815.8, 4.1945e-07
1817.8, 4.6e-07
1819.8, 4.3612e-07
1821.8, 4.0161e-07
1823.8, 3.9173e-07
1825.8, 4.024e-07
1827.8, 4.171e-07
1829.8, 4.4915e-07
1831.8, 4.1707e-07
1833.8, 4.3606e-07
1835.8, 4.1866e-07
1837.8, 4.212e-07
1839.8, 4.1611e-07
1841.8, 4.2691e-07
1843.8, 4.2634e-07
1845.8, 4.3478e-07
1847.8, 3.9417e-07
1849.8, 5.1001e-07
1851.8, 4.0385e-07
1853.9, 4.3406e-07
1855.9, 4.3367e-07
1857.9, 4.0283e-07
1859.9, 4.5556e-07
1861.9, 4.383e-07
1863.9, 4.5281e-07
1865.9, 3.6653e-07
1867.9, 4.4868e-07
1869.9, 4.3563e-07
1871.9, 4.5707e-07
1873.9, 4.1417e-07
1875.9, 4.1593e-07
1877.9, 4.4877e-07
1879.9, 4.6168e-07
1881.9, 4.2542e-07
1883.9, 4.305e-07
1885.9, 4.095e-07
1887.9, 3.953e-07
1889.9, 4.2365e-07
1891.9, 4.3602e-07
1893.9, 4.3778e-07
1895.9, 4.2074e-07
1897.9, 4.1899e-07
1899.9, 4.2615e-07
1901.9, 4.2635e-07
1903.9, 4.4806e-07
1905.9, 4.4028e-07
1907.9, 4.3272e-07
1909.9, 4.1153e-07
1911.9, 4.2465e-07
1913.9, 4.1606e-07
1915.9, 4.3039e-07
1917.9, 4.333e-07
1919.9, 4.2444e-07
1921.9, 4.2323e-07
1923.9, 4.3354e-07
1925.9, 4.3815e-07
1927.9, 4.5355e-07
1929.9, 4.4752e-07
1931.9, 4.7239e-07
1933.9, 4.6504e-07
1935.9, 4.2035e-07
1937.9, 4.1847e-07
1939.9, 4.3966e-07
1941.9, 3.9232e-07
1943.9, 4.3787e-07
1945.9, 4.8414e-07
1947.9, 4.3722e-07
1949.9, 4.0558e-07
1951.9, 4.1355e-07
1954.0, 4.561e-07
1956.0, 4.456e-07
1958.0, 3.8759e-07
1960.0, 4.3831e-07
1962.0, 4.7018e-07
1964.0, 4.7402e-07
1966.0, 4.0008e-07
1968.0, 3.699e-07
1970.0, 3.9137e-07
1972.0, 3.8941e-07
1974.0, 4.0655e-07
1976.0, 4.4359e-07
1978.0, 4.4436e-07
1980.0, 4.1656e-07
1982.0, 4.8492e-07
1984.0, 4.4623e-07
1986.0, 4.1806e-07
1988.0, 4.2144e-07
1990.0, 4.7567e-07
1992.0, 4.3148e-07
1994.0, 4.3724e-07
1996.0, 3.87e-07
1998.0, 4.6636e-07
2000.0, 4.7223e-07
2002.0, 4.4556e-07
2004.0, 4.2014e-07
2006.0, 4.6478e-07
2008.0, 3.968e-07
2010.0, 4.8768e-07
2012.0, 4.2475e-07
2014.0, 4.5099e-07
2016.0, -2.444e-08
2018.0, -2.149e-08
2020.0, -2.416e-08
2022.0, -2.603e-08
2024.0, -2.233e-08
2026.0, -2.24e-08
2028.0, -2.286e-08
2030.0, -2.55e-08
2032.0, -2.17e-08
2034.0, -2.433e-08
2036.0, -2.617e-08
2038.0, -2.339e-08
2040.0, -2.652e-08
2042.0, -2.476e-08
2044.0, -2.272e-08
2046.0, -2.235e-08
2048.0, -2.583e-08
2050.0, -2.183e-08
2052.0, -2.762e-08
2054.1, -2.457e-08
2056.1, -2.625e-08
2058.1, -2.443e-08
2060.1, -2.45e-08
2062.1, -2.592e-08
2064.1, -2.611e-08
2066.1, -2.704e-08
2068.1, -2.679e-08
2070.1, -2.529e-08
2072.1, -2.608e-08
2074.1, -2.739e-08
2076.1, -2.407e-08
2078.1, -2.6e-08
2080.1, -2.943e-08
2082.1, -2.827e-08
2084.1, -2.669e-08
2086.1, -2.685e-08
2088.1, -2.733e-08
2090.1, -2.671e-08
2092.1, -2.552e-08
2094.1, -2.904e-08
2096.1, -2.302e-08
2098.1, -2.624e-08
2100.1, -2.656e-08
2102.1, -2.652e-08
2104.1, -2.692e-08
2106.1, -2.273e-08
2108.1, -2.05e-08
2110.1, -2.423e-08
2112.1, -2.485e-08
2114.1, -2.356e-08
2116.1, -2.652e-08
2118.1, -2.416e-08
2120.1, -2.535e-08
2122.1, -2.64e-08
2124.1, -2.427e-08
2126.1, -2.796e-08
2128.1, -2.909e-08
2130.1, -2.892e-08
2132.1, -3.026e-08
2134.1, -2.477e-08
2136.1, -2.172e-08
2138.1, -2.429e-08
2140.1, -2.798e-08
2142.1, -2.866e-08
2144.1, -2.637e-08
2146.1, -2.774e-08
2148.1, -2.592e-08
2150.1, -2.548e-08
2152.1, -2.745e-08
2154.2, -2.776e-08
2156.2, -2.177e-08
2158.2, -2.73e-08
2160.2, -2.711e-08
2162.2, -2.389e-08
2164.2, -2.137e-08
2166.2, -2.522e-08
2168.2, -2.731e-08
2170.2, -2.77e-08
2172.2, -2.816e-08
2174.2, -2.836e-08
2176.2, -3.049e-08
2178.2, -2.823e-08
2180.2, -3.116e-08
2182.2, -2.408e-08
2184.2, -3.21e-08
2186.2, -2.548e-08
2188.2, -2.925e-08
2190.2, -2.659e-08
2192.2, -2.934e-08
2194.2, -2.652e-08
2196.2, -2.705e-08
2198.2, -2.898e-08
2200.2, -2.748e-08
2202.2, -2.68e-08
2204.2, -2.555e-08
2206.2, -2.763e-08
2208.2, -2.735e-08
2210.2, -2.544e-08
2212.2, -2.486e-08
2214.2, -2.365e-08
2216.2, -2.838e-08
2218.2, -2.895e-08
2220.2, -2.838e-08
2222.2, -2.605e-08
2224.2, -2.87e-08
2226.2, -2.769e-08
2228.2, -2.89e-08
2230.2, -2.764e-08
2232.2, -2.758e-08
2234.2, -2.73e-08
2236.2, -2.492e-08
2238.2, -2.736e-08
2240.2, -3.179e-08
2242.2, -2.645e-08
2244.2, -2.494e-08
2246.2, -2.375e-08
2248.2, -2.572e-08
2250.2, -2.409e-08
2252.2, -2.171e-08
2254.3, -2.412e-08
2256.3, -1.947e-08
2258.3, -2.09e-08
2260.3, -1.946e-08
2262.3, -2.761e-08
2264.3, -2.683e-08
2266.3, -2.822e-08
2268.3, -2.517e-08
2270.3, -2.442e-08
2272.3, -2.844e-08
2274.3, -2.486e-08
2276.3, -2.379e-08
2278.3, -2.604e-08
2280.3, -2.588e-08
2282.3, -2.306e-08
2284.3, -2.487e-08
2286.3, -2.629e-08
2288.3, -2.901e-08
2290.3, -3.204e-08
2292.3, -2.431e-08
2294.3, -2.439e-08
2296.3, -2.271e-08
2298.3, -2.415e-08
2300.3, -2.546e-08
2302.3, -2.385e-08
2304.3, -2.443e-08
2306.3, -2.912e-08
2308.3, -2.617e-08
2310.3, -2.639e-08
2312.3, -2.456e-08
2314.3, -2.354e-08
2316.3, -2.916e-08
2318.3, -2.83e-08
2320.3, -2.579e-08
2322.3, -2.718e-08
2324.3, -2.764e-08
2326.3, -2.678e-08
2328.3, -2.818e-08
2330.3, -2.815e-08
2332.3, -2.796e-08
2334.3, -2.422e-08
2336.3, -2.52e-08
2338.3, -2.636e-08
2340.3, -2.866e-08
2342.3, -2.834e-08
2344.3, -2.589e-08
2346.3, -2.835e-08
2348.3, -3.149e-08
2350.3, -3.007e-08
2352.3, -3e-08
2354.4, -2.859e-08
2356.4, -2.79e-08
2358.4, -2.603e-08
2360.4, -3.146e-08
2362.4, -2.556e-08
2364.4, -2.971e-08
2366.4, -2.913e-08
2368.4, -2.842e-08
2370.4, -2.784e-08
2372.4, -2.622e-08
2374.4, -2.776e-08
2376.4, -2.827e-08
2378.4, -2.641e-08
2380.4, -2.938e-08
2382.4, -2.752e-08
2384.4, -3.094e-08
2386.4, -2.855e-08
2388.4, -2.872e-08
2390.4, -3.006e-08
2392.4, -2.822e-08
2394.4, -2.784e-08
2396.4, -3.042e-08
2398.4, -2.835e-08
2400.4, -2.874e-08
2402.4, -3.273e-08
2404.4, -2.777e-08
2406.4, -2.694e-08
2408.4, -2.935e-08
2410.4, -2.845e-08
2412.4, -2.564e-08
2414.4, -2.377e-08
2416.4, -2.68e-08
2418.4, -2.48e-08
2420.4, -2.663e-08
2422.4, -2.621e-08
2424.4, -2.221e-08
2426.4, -2.164e-08
2428.4, -2.221e-08
2430.4, -2.659e-08
2432.4, -2.436e-08
2434.4, -2.187e-08
2436.4, -2.193e-08
2438.4, -2.47e-08
2440.4, -2.121e-08
2442.4, -2.311e-08
2444.4, -2.433e-08
2446.4, -2.903e-08
2448.4, -2.625e-08
2450.4, -2.646e-08
2452.4, -2.243e-08
2454.5, -2.035e-08
2456.5, -2.456e-08
2458.5, -2.338e-08
2460.5, -2.531e-08
2462.5, -1.996e-08
2464.5, -2.412e-08
2466.5, -2.447e-08
2468.5, -2.387e-08
2470.5, -2.167e-08
2472.5, -2.303e-08
2474.5, -2.276e-08
2476.5, -2.565e-08
2478.5, -2.505e-08
2480.5, -2.556e-08
2482.5, -2.735e-08
2484.5, -2.789e-08
2486.5, -1.969e-08
2488.5, -2.455e-08
2490.5, -2.432e-08
2492.5, -2.309e-08
2494.5, -2.481e-08
2496.5, -2.64e-08
2498.5, -2.331e-08
2500.5, -2.619e-08
2502.5, -2.613e-08
2504.5, -2.279e-08
2506.5, -2.428e-08
2508.5, -2.715e-08
2510.5, -2.512e-08
2512.5, -2.269e-08
2514.5, -2.505e-08
2516.5, -2.476e-08
2518.5, -2.601e-08
2520.5, -2.551e-08
2522.5, -2.666e-08
2524.5, -2.396e-08
2526.5, -2.59e-08
2528.5, -2.373e-08
2530.5, -2.867e-08
2532.5, -2.861e-08
2534.5, -2.856e-08
2536.5, -2.668e-08
2538.5, -2.945e-08
2540.5, -2.85e-08
2542.5, -2.439e-08
2544.5, -2.452e-08
2546.5, -2.708e-08
2548.5, -2.54e-08
2550.5, -2.566e-08
2552.5, -2.643e-08
2554.6, -2.503e-08
2556.6, -2.534e-08
2558.6, -2.652e-08
2560.6, -2.495e-08
2562.6, -2.777e-08
2564.6, -2.942e-08
2566.6, -2.768e-08
2568.6, -2.657e-08
2570.6, -2.653e-08
2572.6, -2.655e-08
2574.6, -2.326e-08
2576.6, -2.41e-08
2578.6, -2.443e-08
2580.6, -2.472e-08
2582.6, -2.868e-08
2584.6, -2.789e-08
2586.6, -2.882e-08
2588.6, -3.184e-08
2590.6, -2.564e-08
2592.6, -2.68e-08
2594.6, -2.213e-08
2596.6, -2.56e-08
2598.6, -2.631e-08
2600.6, -3.07e-08
2602.6, -2.577e-08
2604.6, -2.534e-08
2606.6, -2.405e-08
2608.6, -2.265e-08
2610.6, -2.522e-08
2612.6, -2.164e-08
2614.6, -2.38e-08
2616.6, -2.326e-08
2618.6, -2.282e-08
2620.6, -2.819e-08
2622.6, -2.644e-08
2624.6, -2.139e-08
2626.6, -2.083e-08
2628.6, -2.174e-08
2630.6, -2.554e-08
2632.6, -2.442e-08
2634.6, -2.349e-08
2636.6, -2.604e-08
2638.6, -2.297e-08
2640.6, -2.592e-08
2642.6, -2.466e-08
2644.6, -2.307e-08
2646.6, -2.491e-08
2648.6, -2.254e-08
2650.6, -2.338e-08
2652.6, -2.062e-08
2654.7, -2.343e-08
2656.7, -2.679e-08
2658.7, -2.476e-08
2660.7, -2.845e-08
2662.7, -2.442e-08
2664.7, -2.48e-08
2666.7, -2.596e-08
2668.7, -2.54e-08
2670.7, -2.513e-08
2672.7, -2.373e-08
2674.7, -2.404e-08
2676.7, -2.254e-08
2678.7, -2.608e-08
2680.7, -2.241e-08
2682.7, -2.237e-08
2684.7, -1.948e-08
2686.7, -2.409e-08
2688.7, -2.55e-08
2690.7, -2.39e-08
2692.7, -2.562e-08
2694.7, -2.184e-08
2696.7, -2.349e-08
2698.7, -2.529e-08
2700.7, -2.732e-08
2702.7, -2.683e-08
2704.7, -2.516e-08
2706.7, -2.845e-08
2708.7, -2.82e-08
2710.7, -2.882e-08
2712.7, -2.776e-08
2714.7, -3.18e-08
2716.7, -2.641e-08
2718.7, -2.869e-08
2720.7, -2.662e-08
2722.7, -2.728e-08
2724.7, -2.729e-08
2726.7, -2.234e-08
2728.7, -2.667e-08
2730.7, -2.51e-08
2732.7, -2.121e-08
2734.7, -2.095e-08
2736.7, -2.254e-08
2738.7, -2.819e-08
2740.7, -2.445e-08
2742.7, -2.492e-08
2744.7, -2.371e-08
2746.7, -2.585e-08
2748.7, -2.819e-08
2750.7, -2.381e-08
2752.7, -2.404e-08
2754.8, -2.753e-08
2756.8, -2.279e-08
2758.8, -2.879e-08
2760.8, -2.431e-08
2762.8, -2.639e-08
2764.8, -2.612e-08
2766.8, -2.03e-08
2768.8, -2.637e-08
2770.8, -2.579e-08
2772.8, -2.824e-08
2774.8, -2.669e-08
2776.8, -2.35e-08
2778.8, -2.697e-08
2780.8, -2.714e-08
2782.8, -2.626e-08
2784.8, -2.822e-08
2786.8, -2.888e-08
2788.8, -2.867e-08
2790.8, -2.867e-08
2792.8, -2.671e-08
2794.8, -2.719e-08
2796.8, -2.62e-08
2798.8, -2.931e-08
2800.8, -2.83e-08
2802.8, -2.775e-08
2804.8, -2.809e-08
2806.8, -2.769e-08
2808.8, -2.816e-08
2810.8, -2.735e-08
2812.8, -2.205e-08
2814.8, -2.459e-08
2816.8, -2.136e-08
2818.8, -2.529e-08
2820.8, -2.389e-08
2822.8, -2.608e-08
2824.8, -2.491e-08
2826.8, -2.304e-08
2828.8, -2.476e-08
2830.8, -2.755e-08
2832.8, -2.707e-08
2834.8, -2.694e-08
2836.8, -2.83e-08
2838.8, -2.766e-08
2840.8, -2.366e-08
2842.8, -2.979e-08
2844.8, -2.933e-08
2846.8, -2.475e-08
2848.8, -2.207e-08
2850.8, -2.417e-08
2852.8, -2.432e-08
2854.9, -2.83e-08
2856.9, -2.589e-08
2858.9, -2.6e-08
2860.9, -2.628e-08
2862.9, -2.694e-08
2864.9, -2.53e-08
2866.9, -2.508e-08
2868.9, -2.27e-08
2870.9, -2.395e-08
2872.9, -2.44e-08
2874.9, -2.42e-08
2876.9, -2.581e-08
2878.9, -2.275e-08
2880.9, -2.227e-08
2882.9, -2.215e-08
2884.9, -2.462e-08
2886.9, -2.46e-08
2888.9, -2.707e-08
2890.9, -2.53e-08
2892.9, -2.401e-08
2894.9, -2.449e-08
2896.9, -2.642e-08
2898.9, -2.557e-08
2900.9, -2.568e-08
2902.9, -2.545e-08
2904.9, -2.678e-08
2906.9, -2.531e-08
2908.9, -2.771e-08
2910.9, -2.651e-08
2912.9, -2.653e-08
2914.9, -2.076e-08
2916.9, -2.187e-08
2918.9, -2.833e-08
2920.9, -2.865e-08
2922.9, -2.916e-08
2924.9, -2.479e-08
2926.9, -2.421e-08
2928.9, -2.393e-08
2930.9, -2.38e-08
2932.9, -2.572e-08
2934.9, -2.402e-08
2936.9, -2.405e-08
2938.9, -2.542e-08
2940.9, -2.769e-08
2942.9, -2.754e-08
2944.9, -2.467e-08
2946.9, -2.298e-08
2948.9, -2.597e-08
2950.9, -2.42e-08
2952.9, -2.226e-08
2955.0, -2.445e-08
2957.0, -2.579e-08
2959.0, -2.663e-08
2961.0, -2.359e-08
2963.0, -2.397e-08
2965.0, -2.378e-08
2967.0, -2.708e-08
2969.0, -2.407e-08
2971.0, -2.59e-08
2973.0, -2.689e-08
2975.0, -2.342e-08
2977.0, -2.757e-08
2979.0, -2.797e-08
2981.0, -2.726e-08
2983.0, -2.707e-08
2985.0, -2.505e-08
2987.0, -2.825e-08
2989.0, -2.372e-08
2991.0, -3.039e-08
2993.0, -2.546e-08
2995.0, -2.823e-08
2997.0, -2.887e-08
2999.0, -2.647e-08
3001.0, -2.925e-08
3003.0, -2.72e-08
3005.0, -2.554e-08
3007.0, -2.639e-08
3009.0, -2.505e-08
3011.0, -2.529e-08
3013.0, -2.262e-08
3015.0, -2.491e-08
3017.0, -2.175e-08
3019.0, -2.227e-08
3021.0, -2.487e-08
3023.0, -2.634e-08
3025.0, -2.449e-08
3027.0, -2.427e-08
3029.0, -2.895e-08
3031.0, -2.504e-08
3033.0, -2.268e-08
3035.0, -2.367e-08
3037.0, -2.127e-08
3039.0, -1.993e-08
3041.0, -2.38e-08
3043.0, -2.189e-08
3045.0, -2.166e-08
3047.0, -2.174e-08
3049.0, -2.178e-08
3051.0, -2.29e-08
3053.0, -2.377e-08
3055.1, -2.097e-08
3057.1, -2.712e-08
3059.1, -2.369e-08
3061.1, -2.753e-08
3063.1, -2.353e-08
3065.1, -2.36e-08
3067.1, 1.876e-07
3069.1, 3.7137e-07
3071.1, 3.5944e-07
3073.1, 3.9057e-07
3075.1, 3.0961e-07
3077.1, 3.755e-07
3079.1, 3.9059e-07
3081.1, 3.6153e-07
3083.1, 3.912e-07
3085.1, 3.7057e-07
3087.1, 3.5607e-07
3089.1, 3.5526e-07
3091.1, 3.7964e-07
3093.1, 3.5284e-07
3095.1, 3.9017e-07
3097.1, 3.9982e-07
3099.1, 3.9753e-07
3101.1, 3.6578e-07
3103.1, 4.2912e-07
3105.1, 3.8894e-07
3107.1, 3.9507e-07
3109.1, 3.2723e-07
3111.1, 3.8775e-07
3113.1, 3.7906e-07
3115.1, 3.3802e-07
3117.1, 3.9252e-07
3119.1, 3.8982e-07
3121.1, 3.8094e-07
3123.1, 3.9429e-07
3125.1, 3.8022e-07
3127.1, 3.858e-07
3129.1, 3.8381e-07
3131.1, 3.7244e-07
3133.1, 3.9461e-07
3135.1, 3.9237e-07
3137.1, 4.0981e-07
3139.1, 3.6806e-07
3141.1, 3.6782e-07
3143.1, 4.5235e-07
3145.1, 4.085e-07
3147.1, 3.8225e-07
3149.1, 4.1632e-07
3151.1, 3.8538e-07
3153.1, 3.7732e-07
3155.2, 4.2147e-07
3157.2, 4.0633e-07
3159.2, 3.8677e-07
3161.2, 3.9916e-07
3163.2, 4.3738e-07
3165.2, 3.9655e-07
3167.2, 3.8485e-07
3169.2, 4.0459e-07
3171.2, 4.2469e-07
3173.2, 3.7847e-07
3175.2, 4.3343e-07
3177.2, 4.1371e-07
3179.2, 3.7644e-07
3181.2, 4.0909e-07
3183.2, 4.2012e-07
3185.2, 4.0313e-07
3187.2, 4.0257e-07
3189.2, 4.2627e-07
3191.2, 4.25e-07
3193.2, 4.0944e-07
3195.2, 3.9518e-07
3197.2, 4.1854e-07
3199.2, 3.9816e-07
3201.2, 3.7288e-07
3203.2, 3.9691e-07
3205.2, 3.6941e-07
3207.2, 3.4986e-07
3209.2, 3.7441e-07
3211.2, 3.9445e-07
3213.2, 3.7717e-07
3215.2, 4.024e-07
3217.2, 4.0173e-07
3219.2, 4.0547e-07
3221.2, 4.4163e-07
3223.2, 4.2107e-07
3225.2, 4.3321e-07
3227.2, 3.69e-07
3229.2, 4.1964e-07
3231.2, 3.9522e-07
3233.2, 4.0413e-07
3235.2, 4.0782e-07
3237.2, 4.248e-07
3239.2, 4.3303e-07
3241.2, 3.7169e-07
3243.2, 3.7946e-07
3245.2, 3.9204e-07
3247.2, 3.9826e-07
3249.2, 4.656e-07
3251.2, 3.8983e-07
3253.2, 4.0206e-07
3255.3, 4.1643e-07
3257.3, 4.2772e-07
3259.3, 4.1012e-07
3261.3, 4.1558e-07
3263.3, 4.3122e-07
3265.3, 4.1284e-07
3267.3, 4.1793e-07
3269.3, 3.8331e-07
3271.3, 3.8676e-07
3273.3, 4.1787e-07
3275.3, 4.3621e-07
3277.3, 3.8792e-07
3279.3, 4.0564e-07
3281.3, 4.038e-07
3283.3, 4.1824e-07
3285.3, 4.4155e-07
3287.3, 4.3905e-07
3289.3, 4.3614e-07
3291.3, 4.0562e-07
3293.3, 4.3016e-07
3295.3, 4.022e-07
3297.3, 3.9702e-07
3299.3, 4.424e-07
3301.3, 4.2185e-07
3303.3, 3.9499e-07
3305.3, 3.8288e-07
3307.3, 3.9805e-07
3309.3, 4.158e-07
3311.3, 3.5947e-07
3313.3, 4.3758e-07
3315.3, 4.1152e-07
3317.3, 4.5759e-07
3319.3, 4.0497e-07
3321.3, 3.9081e-07
3323.3, 4.3248e-07
3325.3, 3.8198e-07
3327.3, 3.9358e-07
3329.3, 3.7708e-07
3331.3, 3.7945e-07
3333.3, 3.828e-07
3335.3, 4.1637e-07
3337.3, 4.359e-07
3339.3, 3.7994e-07
3341.3, 3.8762e-07
3343.3, 4.1652e-07
3345.3, 4.3448e-07
3347.3, 3.8972e-07
3349.3, 4.121e-07
3351.3, 4.1228e-07
3353.3, 3.7434e-07
3355.4, 3.6372e-07
3357.4, 4.2763e-07
3359.4, 4.0623e-07
3361.4, 4.0671e-07
3363.4, 4.3015e-07
3365.4, 4.2897e-07
3367.4, 4.197e-07
3369.4, 4.3564e-07
3371.4, 3.8102e-07
3373.4, 4.0691e-07
3375.4, 4.6901e-07
3377.4, 3.7386e-07
3379.4, 4.0591e-07
3381.4, 4.519e-07
3383.4, 4.3827e-07
3385.4, 4.153e-07
3387.4, 3.8249e-07
3389.4, 4.2525e-07
3391.4, 4.1228e-07
3393.4, 3.9841e-07
3395.4, 3.7431e-07
3397.4, 4.449e-07
3399.4, 4.0836e-07
3401.4, 4.5896e-07
3403.4, 4.2407e-07
3405.4, 4.0957e-07
3407.4, 4.3345e-07
3409.4, 4.4095e-07
3411.4, 3.8802e-07
3413.4, 4.5558e-07
3415.4, 3.8203e-07
3417.4, 3.9559e-07
3419.4, 4.6384e-07
3421.4, 3.7349e-07
3423.4, 4.2354e-07
3425.4, 4.1157e-07
3427.4, 4.0246e-07
3429.4, 4.0165e-07
3431.4, 3.9163e-07
3433.4, 4.0497e-07
3435.4, 4.3623e-07
3437.4, 4.2011e-07
3439.4, 3.8758e-07
3441.4, 3.656e-07
3443.4, 4.0419e-07
3445.4, 3.5448e-07
3447.4, 3.9979e-07
3449.4, 3.9759e-07
3451.4, 3.9581e-07
3453.4, 3.8516e-07
3455.5, 3.8033e-07
3457.5, 4.8787e-07
3459.5, 4.5507e-07
3461.5, 4.0005e-07
3463.5, 4.2205e-07
3465.5, 4.2769e-07
3467.5, 4.0247e-07
3469.5, 4.2703e-07
3471.5, 3.8147e-07
3473.5, 4.1536e-07
3475.5, 4.3608e-07
3477.5, 4.1429e-07
3479.5, 4.0412e-07
3481.5, 4.3829e-07
3483.5, 3.9016e-07
3485.5, 4.284e-07
3487.5, 3.954e-07
3489.5, 3.9001e-07
3491.5, 4.3121e-07
3493.5, 4.3204e-07
3495.5, 4.2913e-07
3497.5, 4.2653e-07
3499.5, 4.3727e-07
3501.5, 4.483e-07
3503.5, 3.9711e-07
3505.5, 3.8094e-07
3507.5, 3.8423e-07
3509.5, 3.9866e-07
3511.5, 4.364e-07
3513.5, 4.1953e-07
3515.5, 4.2972e-07
3517.5, 4.2958e-07
3519.5, 4.4584e-07
3521.5, 4.3739e-07
3523.5, 4.5417e-07
3525.5, 4.2458e-07
3527.5, 4.5924e-07
3529.5, 4.0909e-07
3531.5, 4.4888e-07
3533.5, 4.0974e-07
3535.5, 3.7929e-07
3537.5, 4.2597e-07
3539.5, 4.1948e-07
3541.5, 4.5324e-07
3543.5, 4.2774e-07
3545.5, 4.2277e-07
3547.5, 4.5962e-07
3549.5, 4.2435e-07
3551.5, 4.0889e-07
3553.5, 4.4045e-07
3555.6, 3.8411e-07
3557.6, 4.3925e-07
3559.6, 4.1191e-07
3561.6, 4.0722e-07
3563.6, 4.1749e-07
3565.6, 4.2762e-07
3567.6, 4.5153e-07
3569.6, 4.2584e-07
3571.6, 4.5369e-07
3573.6, 4.3562e-07
3575.6, 3.5236e-07
3577.6, 4.4087e-07
3579.6, 4.7064e-07
3581.6, 3.9195e-07
3583.6, 3.7128e-07
3585.6, 4.1766e-07
3587.6, 4.075e-07
3589.6, 4.2736e-07
3591.6, 4.3167e-07
3593.6, 3.7602e-07
3595.6, 3.9315e-07
3597.6, 4.3169e-07
3599.6, 3.8351e-07
3601.6, 4.3218e-07
3603.6, 4.456e-07
3605.6, 4.3139e-07
3607.6, 4.3782e-07
3609.6, 4.2523e-07
3611.6, 4.3514e-07
3613.6, 4.0713e-07
3615.6, 4.7498e-07
3617.6, 4.3272e-07
3619.6, 4.0457e-07
3621.6, 4.4792e-07
3623.6, 4.3273e-07
3625.6, 4.5605e-07
3627.6, 4.2303e-07
3629.6, 4.1469e-07
3631.6, 4.4167e-07
3633.6, 4.5546e-07
3635.6, 4.4668e-07
3637.6, 4.2089e-07
3639.6, 4.5379e-07
3641.6, 4.0303e-07
3643.6, 4.1649e-07
3645.6, 4.6839e-07
3647.6, 3.9819e-07
3649.6, 3.5684e-07
3651.6, 4.2728e-07
3653.6, 3.8815e-07
3655.7, 3.9278e-07
3657.7, 4.3054e-07
3659.7, 4.4507e-07
3661.7, 4.177e-07
3663.7, 4.1684e-07
3665.7, 4.4736e-07
3667.7, 3.7929e-07
3669.7, 3.825e-07
3671.7, 4.3279e-07
3673.7, 4.0551e-07
3675.7, 4.1972e-07
3677.7, 3.7834e-07
3679.7, 4.103e-07
3681.7, 4.4243e-07
3683.7, 4.11e-07
3685.7, 3.8851e-07
3687.7, 3.8425e-07
3689.7, 4.2632e-07
3691.7, 3.6861e-07
3693.7, 3.9603e-07
3695.7, 4.6232e-07
3697.7, 3.8476e-07
3699.7, 3.7209e-07
3701.7, 4.1671e-07
3703.7, 4.2787e-07
3705.7, 4.4944e-07
3707.7, 4.0127e-07
3709.7, 3.7491e-07
3711.7, 4.136e-07
3713.7, 4.0671e-07
3715.7, 4.1229e-07
3717.7, 4.4285e-07
3719.7, 4.1215e-07
3721.7, 4.3823e-07
3723.7, 4.5641e-07
3725.7, 4.6586e-07
3727.7, 4.2821e-07
3729.7, 4.2795e-07
3731.7, 4.3483e-07
3733.7, 4.0671e-07
3735.7, 4.3834e-07
3737.7, 4.3066e-07
3739.7, 4.3773e-07
3741.7, 4.2674e-07
3743.7, 3.9608e-07
3745.7, 4.3144e-07
3747.7, 4.3261e-07
3749.7, 4.6457e-07
3751.7, 4.1866e-07
3753.7, 4.4236e-07
3755.8, 4.4248e-07
3757.8, 4.3469e-07
3759.8, 3.9358e-07
3761.8, 4.1445e-07
3763.8, 3.7598e-07
3765.8, 4.0776e-07
3767.8, 4.0265e-07
3769.8, 4.7277e-07
3771.8, 4.2402e-07
3773.8, 4.4107e-07
3775.8, 4.3643e-07
3777.8, 4.0032e-07
3779.8, 4.468e-07
3781.8, 3.9145e-07
3783.8, 4.1102e-07
3785.8, 4.4272e-07
3787.8, 4.3851e-07
3789.8, 4.2358e-07
3791.8, 4.2743e-07
3793.8, 4.4529e-07
3795.8, 4.4496e-07
3797.8, 4.3837e-07
3799.8, 4.1051e-07
3801.8, 4.0111e-07
3803.8, 3.8707e-07
3805.8, 4.3624e-07
3807.8, 4.0769e-07
3809.8, 3.7731e-07
3811.8, 4.1045e-07
3813.8, 4.3242e-07
3815.8, 4.361e-07
3817.8, 4.2622e-07
3819.8, 4.0565e-07
3821.8, 3.9926e-07
3823.8, 4.6586e-07
3825.8, 4.0706e-07
3827.8, 4.7523e-07
3829.8, 4.0325e-07
3831.8, 4.4993e-07
3833.8, 4.2423e-07
3835.8, 4.5589e-07
3837.8, 3.9841e-07
3839.8, 4.2172e-07
3841.8, 4.3693e-07
3843.8, 3.9062e-07
3845.8, 4.0657e-07
3847.8, 4.0035e-07
3849.8, 4.5243e-07
3851.8, 4.2023e-07
3853.8, 4.4809e-07
3855.9, 4.3853e-07
3857.9, 4.3479e-07
3859.9, 4.181e-07
3861.9, 4.2366e-07
3863.9, 4.5196e-07
3865.9, 4.2908e-07
3867.9, 4.1833e-07
3869.9, 4.5962e-07
3871.9, 4.5342e-07
3873.9, 4.1237e-07
3875.9, 4.2652e-07
3877.9, 4.5692e-07
3879.9, 4.3747e-07
3881.9, 4.1028e-07
3883.9, 3.7628e-07
3885.9, 4.4286e-07
3887.9, 4.6553e-07
3889.9, 4.2532e-07
3891.9, 4.3398e-07
3893.9, 4.1955e-07
3895.9, 4.5197e-07
3897.9, 4.3632e-07
3899.9, 4.1286e-07
3901.9, 4.4282e-07
3903.9, 4.3491e-07
3905.9, 4.5186e-07
3907.9, 4.3544e-07
3909.9, 4.0801e-07
3911.9, 3.9518e-07
3913.9, 4.2715e-07
3915.9, 4.4408e-07
3917.9, 4.4067e-07
3919.9, 4.6134e-07
3921.9, 4.116e-07
3923.9, 4.0984e-07
3925.9, 4.2021e-07
3927.9, 4.0574e-07
3929.9, 4.2133e-07
3931.9, 4.3807e-07
3933.9, 4.0841e-07
3935.9, 4.4253e-07
3937.9, 3.9689e-07
3939.9, 4.5675e-07
3941.9, 4.2155e-07
3943.9, 4.345e-07
3945.9, 3.8005e-07
3947.9, 4.3818e-07
3949.9, 3.7213e-07
3951.9, 4.5799e-07
3953.9, 4.5535e-07
3956.0, 4.2552e-07
3958.0, 4.0093e-07
3960.0, 4.5925e-07
3962.0, 3.9961e-07
3964.0, 4.7293e-07
3966.0, 4.0925e-07
3968.0, 4.6555e-07
3970.0, 3.8748e-07
3972.0, 4.0993e-07
3974.0, 3.9486e-07
3976.0, 4.6192e-07
3978.0, 4.2743e-07
3980.0, 4.514e-07
3982.0, 4.1197e-07
3984.0, 4.1117e-07
3986.0, 4.4134e-07
3988.0, 4.5744e-07
3990.0, 4.3953e-07
3992.0, 3.8127e-07
3994.0, 3.8903e-07
3996.0, 4.6351e-07
3998.0, 4.7761e-07
4000.0, 3.7753e-07
4002.0, 3.9479e-07
4004.0, 4.096e-07
4006.0, 3.793e-07
4008.0, 4.2192e-07
4010.0, 4.106e-07
4012.0, 4.1078e-07
4014.0, 4.1196e-07
4016.0, 3.9808e-07
4018.0, 4.2451e-07
4020.0, 4.164e-07
4022.0, 4.1984e-07
4024.0, 4.4568e-07
4026.0, 3.8782e-07
4028.0, 4.8356e-07
4030.0, 4.1371e-07
4032.0, 4.0779e-07
4034.0, 4.0577e-07
4036.0, 4.0295e-07
4038.0, 4.2418e-07
4040.0, 4.3851e-07
4042.0, 4.1093e-07
4044.0, 3.8383e-07
4046.0, 4.3689e-07
4048.0, 4.483e-07
4050.0, 4.597e-07
4052.0, 4.0772e-07
4054.0, 4.6795e-07
4056.1, 4.0669e-07
4058.1, 4.2375e-07
4060.1, 3.9693e-07
4062.1, 4.4271e-07
4064.1, 4.3495e-07
4066.1, 4.3759e-07
4068.1, 2.006e-07
4070.1, -2.292e-08
4072.1, -2.442e-08
4074.1, -2.58e-08
4076.1, -2.463e-08
4078.1, -2.524e-08
4080.1, -3.055e-08
4082.1, -2.618e-08
4084.1, -2.572e-08
4086.1, -2.405e-08
4088.1, -2.602e-08
4090.1, -2.987e-08
4092.1, -2.542e-08
4094.1, -2.841e-08
4096.1, -2.697e-08
4098.1, -2.74e-08
4100.1, -2.47e-08
4102.1, -2.49e-08
4104.1, -2.614e-08
4106.1, -2.689e-08
4108.1, -2.594e-08
4110.1, -2.566e-08
4112.1, -2.92e-08
4114.1, -2.279e-08
4116.1, -2.166e-08
4118.1, -2.496e-08
4120.1, -2.557e-08
4122.1, -2.651e-08
4124.1, -2.822e-08
4126.1, -3.141e-08
4128.1, -2.929e-08
4130.1, -2.854e-08
4132.1, -2.654e-08
4134.1, -2.578e-08
4136.1, -2.48e-08
4138.1, -2.588e-08
4140.1, -2.153e-08
4142.1, -2.395e-08
4144.1, -2.893e-08
4146.1, -2.489e-08
4148.1, -2.743e-08
4150.1, -2.584e-08
4152.1, -2.604e-08
4154.1, -2.217e-08
4156.2, -2.471e-08
4158.2, -2.233e-08
4160.2, -2.746e-08
4162.2, -2.491e-08
4164.2, -2.444e-08
4166.2, -2.542e-08
4168.2, -2.231e-08
4170.2, -2.312e-08
4172.2, -2.246e-08
4174.2, -2.477e-08
4176.2, -2.517e-08
4178.2, -2.339e-08
4180.2, -3.003e-08
4182.2, -2.499e-08
4184.2, -2.822e-08
4186.2, -2.578e-08
4188.2, -2.81e-08
4190.2, -2.546e-08
4192.2, -2.58e-08
4194.2, -2.592e-08
4196.2, -2.704e-08
4198.2, -2.591e-08
4200.2, -2.491e-08
4202.2, -2.49e-08
4204.2, -2.551e-08
4206.2, -2.564e-08
4208.2, -2.802e-08
4210.2, -2.846e-08
4212.2, -2.586e-08
4214.2, -2.661e-08
4216.2, -2.519e-08
4218.2, -2.693e-08
4220.2, -2.848e-08
4222.2, -2.854e-08
4224.2, -2.933e-08
4226.2, -2.919e-08
4228.2, -2.82e-08
4230.2, -3.099e-08
4232.2, -2.947e-08
4234.2, -2.85e-08
4236.2, -3.104e-08
4238.2, -2.839e-08
4240.2, -2.844e-08
4242.2, -2.85e-08
4244.2, -2.789e-08
4246.2, -2.515e-08
4248.2, -2.684e-08
4250.2, -2.503e-08
4252.2, -2.604e-08
4254.2, -2.664e-08
4256.3, -2.214e-08
4258.3, -2.631e-08
4260.3, -2.395e-08
4262.3, -2.752e-08
4264.3, -2.645e-08
4266.3, -2.547e-08
4268.3, -2.312e-08
4270.3, -2.566e-08
4272.3, -2.502e-08
4274.3, -2.601e-08
4276.3, -2.829e-08
4278.3, -2.214e-08
4280.3, -2.385e-08
4282.3, -2.56e-08
4284.3, -2.887e-08
4286.3, -2.718e-08
4288.3, -2.386e-08
4290.3, -2.897e-08
4292.3, -2.757e-08
4294.3, -2.646e-08
4296.3, -3.138e-08
4298.3, -2.898e-08
4300.3, -2.831e-08
4302.3, -2.486e-08
4304.3, -2.746e-08
4306.3, -2.382e-08
4308.3, -2.694e-08
4310.3, -2.611e-08
4312.3, -2.796e-08
4314.3, -3.022e-08
4316.3, -2.633e-08
4318.3, -2.809e-08
4320.3, -3.104e-08
4322.3, -2.77e-08
4324.3, -3.101e-08
4326.3, -2.894e-08
4328.3, -2.727e-08
4330.3, -2.73e-08
4332.3, -2.941e-08
4334.3, -2.955e-08
4336.3, -3.053e-08
4338.3, -2.535e-08
4340.3, -2.982e-08
4342.3, -3.038e-08
4344.3, -3.108e-08
4346.3, -2.803e-08
4348.3, -3.109e-08
4350.3, -2.971e-08
4352.3, -3.177e-08
4354.3, -2.793e-08
4356.4, -3.083e-08
4358.4, -2.604e-08
4360.4, -2.851e-08
4362.4, -2.88e-08
4364.4, -2.655e-08
4366.4, -2.37e-08
4368.4, -2.502e-08
4370.4, -2.36e-08
4372.4, -2.654e-08
4374.4, -2.649e-08
4376.4, -2.649e-08
4378.4, -2.761e-08
4380.4, -2.851e-08
4382.4, -2.633e-08
4384.4, -2.419e-08
4386.4, -2.525e-08
4388.4, -2.551e-08
4390.4, -2.679e-08
4392.4, -2.494e-08
4394.4, -2.427e-08
4396.4, -2.601e-08
4398.4, -2.589e-08
4400.4, -2.555e-08
4402.4, -2.689e-08
4404.4, -3.206e-08
4406.4, -3.106e-08
4408.4, -2.756e-08
4410.4, -3.013e-08
4412.4, -2.971e-08
4414.4, -2.572e-08
4416.4, -2.425e-08
4418.4, -2.844e-08
4420.4, -2.294e-08
4422.4, -2.343e-08
4424.4, -2.326e-08
4426.4, -2.264e-08
4428.4, -2.495e-08
4430.4, -2.305e-08
4432.4, -2.554e-08
4434.4, -2.263e-08
4436.4, -2.281e-08
4438.4, -2.335e-08
4440.4, -2.666e-08
4442.4, -2.706e-08
4444.4, -3.084e-08
4446.4, -2.872e-08
4448.4, -2.748e-08
4450.4, -2.595e-08
4452.4, -2.596e-08
4454.4, -2.647e-08
4456.5, -2.385e-08
4458.5, -2.405e-08
4460.5, -2.819e-08
4462.5, -2.446e-08
4464.5, -2.572e-08
4466.5, -2.259e-08
4468.5, -2.388e-08
4470.5, -2.528e-08
4472.5, -2.257e-08
4474.5, -3.029e-08
4476.5, -2.756e-08
4478.5, -2.403e-08
4480.5, -2.29e-08
4482.5, -2.231e-08
4484.5, -2.616e-08
4486.5, -2.308e-08
4488.5, -2.42e-08
4490.5, -2.804e-08
4492.5, -2.739e-08
4494.5, -2.719e-08
4496.5, -2.577e-08
4498.5, -2.182e-08
4500.5, -2.546e-08
4502.5, -2.411e-08
4504.5, -2.191e-08
4506.5, -1.845e-08
4508.5, -2.132e-08
4510.5, -2.449e-08
4512.5, -2.668e-08
4514.5, -2.302e-08
4516.5, -2.623e-08
4518.5, -2.599e-08
4520.5, -2.181e-08
4522.5, -2.351e-08
4524.5, -1.872e-08
4526.5, -2.377e-08
4528.5, -2.172e-08
4530.5, -2.389e-08
4532.5, -2.718e-08
4534.5, -2.237e-08
4536.5, -2.177e-08
4538.5, -2.288e-08
4540.5, -2.224e-08
4542.5, -2.491e-08
4544.5, -2.55e-08
4546.5, -2.579e-08
4548.5, -2.208e-08
4550.5, -2.274e-08
4552.5, -2.175e-08
4554.5, -2.444e-08
4556.6, -1.914e-08
4558.6, -2.052e-08
4560.6, -2.27e-08
4562.6, -2.206e-08
4564.6, -2.073e-08
4566.6, -2.267e-08
4568.6, -2.333e-08
4570.6, -2.109e-08
4572.6, -2.076e-08
4574.6, -2.181e-08
4576.6, -2.545e-08
4578.6, -2.357e-08
4580.6, -2.478e-08
4582.6, -2.886e-08
4584.6, -2.724e-08
4586.6, -2.54e-08
4588.6, -2.047e-08
4590.6, -2.289e-08
4592.6, -2.365e-08
4594.6, -2.606e-08
4596.6, -2.468e-08
4598.6, -2.442e-08
4600.6, -2.323e-08
4602.6, -2.559e-08
4604.6, -2.474e-08
4606.6, -2.682e-08
4608.6, -2.655e-08
4610.6, -2.754e-08
4612.6, -2.876e-08
4614.6, -2.825e-08
4616.6, -2.379e-08
4618.6, -2.535e-08
4620.6, -2.437e-08
4622.6, -2.488e-08
4624.6, -2.457e-08
4626.6, -2.306e-08
4628.6, -2.915e-08
4630.6, -2.734e-08
4632.6, -2.707e-08
4634.6, -3.141e-08
4636.6, -2.916e-08
4638.6, -2.611e-08
4640.6, -2.212e-08
4642.6, -2.196e-08
4644.6, -2.538e-08
4646.6, -2.368e-08
4648.6, -2.613e-08
4650.6, -2.76e-08
4652.6, -2.705e-08
4654.6, -2.505e-08
4656.7, -2.535e-08
4658.7, -2.492e-08
4660.7, -2.77e-08
4662.7, -2.569e-08
4664.7, -2.402e-08
4666.7, -2.417e-08
4668.7, -2.627e-08
4670.7, -2.465e-08
4672.7, -2.702e-08
4674.7, -2.222e-08
4676.7, -2.314e-08
4678.7, -2.496e-08
4680.7, -2.476e-08
4682.7, -2.845e-08
4684.7, -2.792e-08
4686.7, -2.698e-08
4688.7, -2.945e-08
4690.7, -2.6e-08
4692.7, -2.771e-08
4694.7, -2.526e-08
4696.7, -2.43e-08
4698.7, -2.731e-08
4700.7, -3.134e-08
4702.7, -2.921e-08
4704.7, -2.561e-08
4706.7, -3.014e-08
4708.7, -2.683e-08
4710.7, -2.63e-08
4712.7, -2.568e-08
4714.7, -2.474e-08
4716.7, -2.414e-08
4718.7, -2.529e-08
4720.7, -2.475e-08
4722.7, -2.612e-08
4724.7, -2.659e-08
4726.7, -2.172e-08
4728.7, -2.572e-08
4730.7, -2.316e-08
4732.7, -2.28e-08
4734.7, -2.348e-08
4736.7, -2.51e-08
4738.7, -2.782e-08
4740.7, -2.807e-08
4742.7, -2.708e-08
4744.7, -2.543e-08
4746.7, -2.475e-08
4748.7, -2.684e-08
4750.7, -2.515e-08
4752.7, -2.724e-08
4754.7, -2.194e-08
4756.8, -2.692e-08
4758.8, -2.983e-08
4760.8, -2.894e-08
4762.8, -2.665e-08
4764.8, -2.374e-08
4766.8, -2.371e-08
4768.8, -2.587e-08
4770.8, -2.465e-08
4772.8, -2.407e-08
4774.8, -2.238e-08
4776.8, -2.571e-08
4778.8, -3.007e-08
4780.8, -2.772e-08
4782.8, -2.564e-08
4784.8, -2.498e-08
4786.8, -2.763e-08
4788.8, -2.807e-08
4790.8, -2.822e-08
4792.8, -2.577e-08
4794.8, -2.67e-08
4796.8, -2.59e-08
4798.8, -2.634e-08
4800.8, -2.303e-08
4802.8, -2.498e-08
4804.8, -2.471e-08
4806.8, -2.165e-08
4808.8, -2.115e-08
4810.8, -2.233e-08
4812.8, -2.568e-08
4814.8, -2.554e-08
4816.8, -2.725e-08
4818.8, -2.674e-08
4820.8, -2.685e-08
4822.8, -2.508e-08
4824.8, -2.358e-08
4826.8, -2.598e-08
4828.8, -2.738e-08
4830.8, -2.528e-08
4832.8, -2.443e-08
4834.8, -2.259e-08
4836.8, -2.206e-08
4838.8, -2.388e-08
4840.8, -2.69e-08
4842.8, -2.629e-08
4844.8, -2.457e-08
4846.8, -1.975e-08
4848.8, -2.529e-08
4850.8, -2.688e-08
4852.8, -2.533e-08
4854.8, -2.511e-08
4856.9, -2.327e-08
4858.9, -2.818e-08
4860.9, -2.644e-08
4862.9, -3.02e-08
4864.9, -2.671e-08
4866.9, -2.753e-08
4868.9, -2.586e-08
4870.9, -2.513e-08
4872.9, -3.217e-08
4874.9, -2.522e-08
4876.9, -2.599e-08
4878.9, -2.725e-08
4880.9, -2.484e-08
4882.9, -2.336e-08
4884.9, -2.413e-08
4886.9, -2.491e-08
4888.9, -2.343e-08
4890.9, -2.409e-08
4892.9, -2.056e-08
4894.9, -2.53e-08
4896.9, -2.424e-08
4898.9, -2.14e-08
4900.9, -2.481e-08
4902.9, -2.444e-08
4904.9, -2.725e-08
4906.9, -2.637e-08
4908.9, -2.552e-08
4910.9, -2.72e-08
4912.9, -2.433e-08
4914.9, -2.497e-08
4916.9, -2.534e-08
4918.9, -2.447e-08
4920.9, -2.61e-08
4922.9, -2.563e-08
4924.9, -2.209e-08
4926.9, -2.396e-08
4928.9, -2.236e-08
4930.9, -2.449e-08
4932.9, -2.14e-08
4934.9, -1.898e-08
4936.9, -2.233e-08
4938.9, -2.248e-08
4940.9, -2.516e-08
4942.9, -2.72e-08
4944.9, -2.6e-08
4946.9, -2.508e-08
4948.9, -2.365e-08
4950.9, -2.451e-08
4952.9, -2.28e-08
4954.9, -2.132e-08
4957.0, -2.09e-08
4959.0, -2.157e-08
4961.0, -2.622e-08
4963.0, -2.695e-08
4965.0, -2.707e-08
4967.0, -2.235e-08
4969.0, -2.051e-08
4971.0, -2.599e-08
4973.0, -2.526e-08
4975.0, -2.185e-08
4977.0, -2.202e-08
4979.0, -2.414e-08
4981.0, -2.243e-08
4983.0, -2.223e-08
4985.0, -2.525e-08
4987.0, -2.245e-08
4989.0, -2.45e-08
4991.0, -2.872e-08
4993.0, -2.233e-08
4995.0, -2.716e-08
4997.0, -2.587e-08
4999.0, -2.743e-08
5001.0, -2.593e-08
5003.0, -2.4e-08
5005.0, -2.397e-08
5007.0, -2.583e-08
5009.0, -2.015e-08
5011.0, -2.255e-08
5013.0, -2.44e-08
5015.0, -2.239e-08
5017.0, -2.462e-08
5019.0, -2.245e-08
5021.0, -2.751e-08
5023.0, -2.731e-08
5025.0, -2.635e-08
5027.0, -2.435e-08
5029.0, -1.936e-08
5031.0, -2.176e-08
5033.0, -2.3e-08
5035.0, -2.063e-08
5037.0, -2.144e-08
5039.0, -2.353e-08
5041.0, -2.435e-08
5043.0, -2.891e-08
5045.0, -2.613e-08
5047.0, -2.655e-08
5049.0, -2.54e-08
5051.0, -2.677e-08
5053.0, -2.727e-08
5055.0, -2.91e-08
5057.1, -2.31e-08
5059.1, -2.566e-08
5061.1, -2.584e-08
5063.1, -2.928e-08
5065.1, -2.616e-08
5067.1, -2.785e-08
5069.1, -2.303e-08
5071.1, -2.451e-08
5073.1, -2.595e-08
5075.1, -2.37e-08
5077.1, -2.446e-08
5079.1, -2.627e-08
5081.1, -2.862e-08
5083.1, -2.785e-08
5085.1, -2.718e-08
5087.1, -2.338e-08
5089.1, -2.686e-08
5091.1, -2.619e-08
5093.1, -2.597e-08
5095.1, -2.932e-08
5097.1, -2.592e-08
5099.1, -2.616e-08
5101.1, -2.601e-08
5103.1, -2.795e-08
5105.1, -2.844e-08
5107.1, -2.419e-08
5109.1, -2.727e-08
5111.1, -2.733e-08
5113.1, -2.634e-08
5115.1, -2.883e-08
5117.1, -2.61e-08
5119.1, 5.237e-08
5121.1, 3.6693e-07
5123.1, 3.0875e-07
5125.1, 3.548e-07
5127.1, 4.0509e-07
5129.1, 3.7453e-07
5131.1, 3.8488e-07
5133.1, 3.6019e-07
5135.1, 3.4319e-07
5137.1, 3.3869e-07
5139.1, 3.5509e-07
5141.1, 3.8427e-07
5143.1, 3.6751e-07
5145.1, 3.862e-07
5147.1, 3.5228e-07
5149.1, 4.1136e-07
5151.1, 3.5339e-07
5153.1, 3.5125e-07
5155.1, 3.5175e-07
5157.2, 3.8436e-07
5159.2, 4.0773e-07
5161.2, 4.0662e-07
5163.2, 3.692e-07
5165.2, 3.4674e-07
5167.2, 3.9992e-07
5169.2, 3.8069e-07
5171.2, 3.9213e-07
5173.2, 4.0397e-07
5175.2, 3.6666e-07
5177.2, 3.9736e-07
5179.2, 3.6639e-07
5181.2, 3.7735e-07
5183.2, 3.7144e-07
5185.2, 4.0039e-07
5187.2, 3.707e-07
5189.2, 3.7181e-07
5191.2, 3.453e-07
5193.2, 3.8272e-07
5195.2, 3.7754e-07
5197.2, 3.6755e-07
5199.2, 3.7181e-07
5201.2, 3.953e-07
5203.2, 3.8631e-07
5205.2, 3.7656e-07
5207.2, 3.8227e-07
5209.2, 3.9409e-07
5211.2, 4.0075e-07
5213.2, 3.4963e-07
5215.2, 3.6974e-07
5217.2, 3.8033e-07
5219.2, 3.9145e-07
5221.2, 4.0534e-07
5223.2, 3.661e-07
5225.2, 3.5571e-07
5227.2, 3.7747e-07
5229.2, 3.5495e-07
5231.2, 3.5935e-07
5233.2, 3.572e-07
5235.2, 4.0962e-07
5237.2, 3.9294e-07
5239.2, 3.9045e-07
5241.2, 3.5411e-07
5243.2, 3.4257e-07
5245.2, 3.7826e-07
5247.2, 3.5707e-07
5249.2, 3.9633e-07
5251.2, 3.6821e-07
5253.2, 3.7793e-07
5255.2, 3.937e-07
5257.3, 3.9411e-07
5259.3, 3.8361e-07
5261.3, 3.9412e-07
5263.3, 3.7095e-07
5265.3, 3.5047e-07
5267.3, 3.693e-07
5269.3, 3.844e-07
5271.3, 3.675e-07
5273.3, 3.6614e-07
5275.3, 3.9468e-07
5277.3, 3.5885e-07
5279.3, 4.1369e-07
5281.3, 4.0137e-07
5283.3, 4.0659e-07
5285.3, 3.7967e-07
5287.3, 3.8136e-07
5289.3, 3.7476e-07
5291.3, 4.2189e-07
5293.3, 4.133e-07
5295.3, 4.1269e-07
5297.3, 3.8324e-07
5299.3, 3.8192e-07
5301.3, 4.0378e-07
5303.3, 3.9023e-07
5305.3, 3.7617e-07
5307.3, 3.6819e-07
5309.3, 4.01e-07
5311.3, 4.2069e-07
5313.3, 3.783e-07
5315.3, 3.8982e-07
5317.3, 3.97e-07
5319.3, 3.6602e-07
5321.3, 3.9611e-07
5323.3, 4.1968e-07
5325.3, 3.9529e-07
5327.3, 3.8479e-07
5329.3, 3.9348e-07
5331.3, 4.0401e-07
5333.3, 4.0357e-07
5335.3, 4.4845e-07
5337.3, 4.1772e-07
5339.3, 4.384e-07
5341.3, 4.1847e-07
5343.3, 4.0134e-07
5345.3, 4.1882e-07
5347.3, 4.1939e-07
5349.3, 4.1241e-07
5351.3, 3.9249e-07
5353.3, 3.7204e-07
5355.3, 3.6485e-07
5357.4, 3.6329e-07
5359.4, 4.0692e-07
5361.4, 3.6575e-07
5363.4, 3.4634e-07
5365.4, 3.9137e-07
5367.4, 4.0951e-07
5369.4, 3.8583e-07
5371.4, 3.8503e-07
5373.4, 3.9687e-07
5375.4, 4.1403e-07
5377.4, 3.952e-07
5379.4, 3.7498e-07
5381.4, 3.5283e-07
5383.4, 3.8207e-07
5385.4, 4.1581e-07
5387.4, 3.9039e-07
5389.4, 3.9984e-07
5391.4, 4.0527e-07
5393.4, 4.0512e-07
5395.4, 3.7498e-07
5397.4, 4.1553e-07
5399.4, 3.8578e-07
5401.4, 3.7061e-07
5403.4, 3.8434e-07
5405.4, 4.1405e-07
5407.4, 3.8611e-07
5409.4, 4.3132e-07
5411.4, 4.3486e-07
5413.4, 4.2762e-07
5415.4, 4.241e-07
5417.4, 3.8848e-07
5419.4, 3.8238e-07
5421.4, 3.5335e-07
5423.4, 3.8781e-07
5425.4, 4.416e-07
5427.4, 4.0324e-07
5429.4, 4.0776e-07
5431.4, 3.7995e-07
5433.4, 3.9854e-07
5435.4, 4.1509e-07
5437.4, 3.9339e-07
5439.4, 3.9429e-07
5441.4, 4.1155e-07
5443.4, 3.7155e-07
5445.4, 4.0395e-07
5447.4, 3.946e-07
5449.4, 3.9808e-07
5451.4, 4.3637e-07
5453.4, 4.019e-07
5455.4, 3.8912e-07
5457.5, 4.4678e-07
5459.5, 4.0486e-07
5461.5, 4.1497e-07
5463.5, 4.2263e-07
5465.5, 3.8893e-07
5467.5, 3.7887e-07
5469.5, 4.101e-07
5471.5, 3.9388e-07
5473.5, 4.1365e-07
5475.5, 3.9492e-07
5477.5, 4.0848e-07
5479.5, 4.0699e-07
5481.5, 4.3947e-07
5483.5, 4.0517e-07
5485.5, 4.2032e-07
5487.5, 3.8948e-07
5489.5, 3.9653e-07
5491.5, 3.8929e-07
5493.5, 4.3003e-07
5495.5, 4.0569e-07
5497.5, 4.3509e-07
5499.5, 4.0014e-07
5501.5, 3.958e-07
5503.5, 4.3945e-07
5505.5, 4.0507e-07
5507.5, 4.3069e-07
5509.5, 3.8784e-07
5511.5, 3.9122e-07
5513.5, 4.2896e-07
5515.5, 4.1611e-07
5517.5, 4.0515e-07
5519.5, 4.2368e-07
5521.5, 4.1941e-07
5523.5, 3.996e-07
5525.5, 4.3002e-07
5527.5, 4.2299e-07
5529.5, 4.3433e-07
5531.5, 4.2238e-07
5533.5, 3.8069e-07
5535.5, 3.7297e-07
5537.5, 3.9594e-07
5539.5, 3.7643e-07
5541.5, 4.4782e-07
5543.5, 4.0624e-07
5545.5, 3.9523e-07
5547.5, 3.9225e-07
5549.5, 3.8196e-07
5551.5, 4.171e-07
5553.5, 3.9352e-07
5555.5, 4.3042e-07
5557.6, 4.5395e-07
5559.6, 4.2235e-07
5561.6, 4.0602e-07
5563.6, 4.0752e-07
5565.6, 3.9779e-07
5567.6, 4.3297e-07
5569.6, 4.0552e-07
5571.6, 3.8676e-07
5573.6, 4.0207e-07
5575.6, 4.057e-07
5577.6, 4.1541e-07
5579.6, 4.3873e-07
5581.6, 4.1305e-07
5583.6, 3.8418e-07
5585.6, 3.7722e-07
5587.6, 4.1168e-07
5589.6, 4.1974e-07
5591.6, 4.1763e-07
5593.6, 3.9963e-07
5595.6, 3.966e-07
5597.6, 4.292e-07
5599.6, 4.2614e-07
5601.6, 4.1234e-07
5603.6, 4.378e-07
5605.6, 4.2582e-07
5607.6, 4.2842e-07
5609.6, 4.2183e-07
5611.6, 3.9909e-07
5613.6, 4.26e-07
5615.6, 4.0112e-07
5617.6, 3.9863e-07
5619.6, 3.8001e-07
5621.6, 4.0677e-07
5623.6, 4.1725e-07
5625.6, 4.0669e-07
5627.6, 4.3783e-07
5629.6, 4.1871e-07
5631.6, 4.4549e-07
5633.6, 4.0777e-07
5635.6, 4.0393e-07
5637.6, 4.1342e-07
5639.6, 4.1849e-07
5641.6, 3.96e-07
5643.6, 4.3005e-07
5645.6, 3.917e-07
5647.6, 3.9445e-07
5649.6, 3.9534e-07
5651.6, 3.9126e-07
5653.6, 3.9012e-07
5655.6, 3.8586e-07
5657.7, 3.6951e-07
5659.7, 4.0621e-07
5661.7, 4.2864e-07
5663.7, 4.3018e-07
5665.7, 4.1783e-07
5667.7, 4.1685e-07
5669.7, 3.9989e-07
5671.7, 4.4977e-07
5673.7, 4.3025e-07
5675.7, 4.4022e-07
5677.7, 4.3609e-07
5679.7, 4.4643e-07
5681.7, 4.0222e-07
5683.7, 3.8325e-07
5685.7, 4.1983e-07
5687.7, 4.2286e-07
5689.7, 3.9808e-07
5691.7, 4.1961e-07
5693.7, 4.385e-07
5695.7, 4.1957e-07
5697.7, 4.1985e-07
5699.7, 4.2236e-07
5701.7, 4.0442e-07
5703.7, 4.0618e-07
5705.7, 4.419e-07
5707.7, 4.1161e-07
5709.7, 4.2382e-07
5711.7, 4.1636e-07
5713.7, 3.9474e-07
5715.7, 4.4189e-07
5717.7, 4.2463e-07
5719.7, 4.0078e-07
5721.7, 4.0644e-07
5723.7, 4.2689e-07
5725.7, 4.3759e-07
5727.7, 4.2244e-07
5729.7, 4.2692e-07
5731.7, 4.243e-07
5733.7, 4.2326e-07
5735.7, 4.0512e-07
5737.7, 3.9634e-07
5739.7, 4.2023e-07
5741.7, 3.8759e-07
5743.7, 4.2106e-07
5745.7, 3.8125e-07
5747.7, 4.1677e-07
5749.7, 4.1694e-07
5751.7, 4.4065e-07
5753.7, 4.0587e-07
5755.7, 4.1965e-07
5757.8, 4.2255e-07
5759.8, 4.2232e-07
5761.8, 3.8416e-07
5763.8, 4.043e-07
5765.8, 3.8507e-07
5767.8, 4.1017e-07
5769.8, 3.7845e-07
5771.8, 4.2623e-07
5773.8, 4.0605e-07
5775.8, 3.7951e-07
5777.8, 4.0921e-07
5779.8, 4.3781e-07
5781.8, 3.9801e-07
5783.8, 4.4695e-07
5785.8, 4.0752e-07
5787.8, 3.865e-07
5789.8, 4.1206e-07
5791.8, 4.0875e-07
5793.8, 4.464e-07
5795.8, 4.201e-07
5797.8, 4.155e-07
5799.8, 3.8855e-07
5801.8, 4.0942e-07
5803.8, 4.2323e-07
5805.8, 3.9219e-07
5807.8, 4.2158e-07
5809.8, 4.4391e-07
5811.8, 4.3687e-07
5813.8, 3.9676e-07
5815.8, 4.2984e-07
5817.8, 4.2361e-07
5819.8, 3.9925e-07
5821.8, 4.0128e-07
5823.8, 3.9066e-07
5825.8, 4.0934e-07
5827.8, 4.324e-07
5829.8, 4.1258e-07
5831.8, 3.99e-07
5833.8, 3.8925e-07
5835.8, 4.052e-07
5837.8, 4.3402e-07
5839.8, 4.0039e-07
5841.8, 4.3685e-07
5843.8, 4.076e-07
5845.8, 4.3559e-07
5847.8, 4.3222e-07
5849.8, 4.2175e-07
5851.8, 4.1032e-07
5853.8, 3.891e-07
5855.8, 4.1184e-07
5857.9, 4.1603e-07
5859.9, 4.2843e-07
5861.9, 4.2265e-07
5863.9, 4.2703e-07
5865.9, 3.8496e-07
5867.9, 3.9987e-07
5869.9, 4.3128e-07
5871.9, 4.2014e-07
5873.9, 4.3125e-07
5875.9, 4.2118e-07
5877.9, 4.1929e-07
5879.9, 4.1301e-07
5881.9, 3.9801e-07
5883.9, 4.1673e-07
5885.9, 4.1504e-07
5887.9, 4.2856e-07
5889.9, 4.571e-07
5891.9, 4.4054e-07
5893.9, 4.0078e-07
5895.9, 3.9312e-07
5897.9, 3.9534e-07
5899.9, 4.3345e-07
5901.9, 4.3152e-07
5903.9, 4.3299e-07
5905.9, 4.0576e-07
5907.9, 4.3165e-07
5909.9, 4.163e-07
5911.9, 4.0709e-07
5913.9, 4.1089e-07
5915.9, 4.5547e-07
5917.9, 4.269e-07
5919.9, 4.4356e-07
5921.9, 4.2109e-07
5923.9, 4.3591e-07
5925.9, 4.3743e-07
5927.9, 4.3175e-07
5929.9, 4.0425e-07
5931.9, 4.3674e-07
5933.9, 4.0739e-07
5935.9, 4.0994e-07
5937.9, 3.9395e-07
5939.9, 4.1412e-07
5941.9, 4.3028e-07
5943.9, 4.2409e-07
5945.9, 3.9899e-07
5947.9, 4.4778e-07
5949.9, 4.3463e-07
5951.9, 4.3165e-07
5953.9, 3.9652e-07
5955.9, 4.3005e-07
5958.0, 4.4892e-07
5960.0, 4.031e-07
5962.0, 4.104e-07
5964.0, 4.3125e-07
5966.0, 4.3627e-07
5968.0, 4.0242e-07
5970.0, 4.537e-07
5972.0, 4.3268e-07
5974.0, 4.4801e-07
5976.0, 4.5408e-07
5978.0, 4.1536e-07
5980.0, 4.3837e-07
5982.0, 3.8859e-07
5984.0, 4.0897e-07
5986.0, 4.1673e-07
5988.0, 4.4972e-07
5990.0, 4.1761e-07
5992.0, 4.2162e-07
5994.0, 4.0448e-07
5996.0, 4.0775e-07
5998.0, 3.9822e-07
6000.0, 4.3445e-07
6002.0, 4.4247e-07
6004.0, 3.7667e-07
6006.0, 4.1558e-07
6008.0, 3.9456e-07
6010.0, 4.0887e-07
6012.0, 3.6553e-07
6014.0, 4.1879e-07
6016.0, 4.0328e-07
6018.0, 4.3699e-07
6020.0, 3.9108e-07
6022.0, 4.2957e-07
6024.0, 3.889e-07
6026.0, 4.0057e-07
6028.0, 4.1318e-07
6030.0, 4.3709e-07
6032.0, 4.2638e-07
6034.0, 4.1385e-07
6036.0, 4.0617e-07
6038.0, 4.1736e-07
6040.0, 4.0622e-07
6042.0, 3.9723e-07
6044.0, 4.7095e-07
6046.0, 4.467e-07
6048.0, 4.2445e-07
6050.0, 4.1035e-07
6052.0, 4.1728e-07
6054.0, 4.1721e-07
6056.0, 3.9459e-07
6058.1, 4.0793e-07
6060.1, 4.0175e-07
6062.1, 4.2909e-07
6064.1, 3.8434e-07
6066.1, 4.0996e-07
6068.1, 4.5451e-07
6070.1, 3.9917e-07
6072.1, 3.8201e-07
6074.1, 3.9107e-07
6076.1, 4.3528e-07
6078.1, 3.7639e-07
6080.1, 3.9189e-07
6082.1, 3.9376e-07
6084.1, 4.0199e-07
6086.1, 4.1215e-07
6088.1, 3.7491e-07
6090.1, 4.2054e-07
6092.1, 4.1612e-07
6094.1, 4.3036e-07
6096.1, 4.2004e-07
6098.1, 4.11e-07
6100.1, 4.0433e-07
6102.1, 4.3268e-07
6104.1, 4.2703e-07
6106.1, 4.1536e-07
6108.1, 4.0107e-07
6110.1, 3.762e-07
6112.1, 3.8524e-07
6114.1, 4.118e-07
6116.1, 4.0011e-07
6118.1, 3.9793e-07
6120.1, 2.5066e-07
6122.1, -2.648e-08
6124.1, -2.818e-08
6126.1, -2.726e-08
6128.1, -2.135e-08
6130.1, -2.232e-08
6132.1, -2.411e-08
6134.1, -2.381e-08
6136.1, -2.388e-08
6138.1, -2.532e-08
6140.1, -2.216e-08
6142.1, -2.84e-08
6144.1, -2.24e-08
6146.1, -2.726e-08
6148.1, -2.394e-08
6150.1, -2.564e-08
6152.1, -2.389e-08
6154.1, -2.687e-08
6156.1, -2.295e-08
6158.2, -2.248e-08
6160.2, -2.68e-08
6162.2, -2.495e-08
6164.2, -2.201e-08
6166.2, -2.41e-08
6168.2, -2.214e-08
6170.2, -2.508e-08
6172.2, -2.354e-08
6174.2, -2.225e-08
6176.2, -2.416e-08
6178.2, -2.469e-08
6180.2, -2.089e-08
6182.2, -2.2e-08
6184.2, -2.473e-08
6186.2, -2.352e-08
6188.2, -2.098e-08
6190.2, -2.208e-08
6192.2, -1.932e-08
6194.2, -2.17e-08
6196.2, -2.232e-08
6198.2, -2.172e-08
6200.2, -2.034e-08
6202.2, -2.015e-08
6204.2, -2.221e-08
6206.2, -2.096e-08
6208.2, -2.034e-08
6210.2, -2.185e-08
6212.2, -2.115e-08
6214.2, -2.434e-08
6216.2, -2.64e-08
6218.2, -2.495e-08
6220.2, -2.543e-08
6222.2, -2.224e-08
6224.2, -2.796e-08
6226.2, -2.325e-08
6228.2, -2.201e-08
6230.2, -2.389e-08
6232.2, -2.538e-08
6234.2, -2.632e-08
6236.2, -2.268e-08
6238.2, -2.496e-08
6240.2, -2.602e-08
6242.2, -2.577e-08
6244.2, -2.115e-08
6246.2, -2.437e-08
6248.2, -2.446e-08
6250.2, -2.535e-08
6252.2, -2.228e-08
6254.2, -2.483e-08
6256.2, -2.225e-08
6258.3, -2.61e-08
6260.3, -2.788e-08
6262.3, -3.027e-08
6264.3, -2.632e-08
6266.3, -2.689e-08
6268.3, -2.618e-08
6270.3, -2.5e-08
6272.3, -2.21e-08
6274.3, -2.203e-08
6276.3, -2.239e-08
6278.3, -2.18e-08
6280.3, -2.327e-08
6282.3, -2.854e-08
6284.3, -2.312e-08
6286.3, -2.617e-08
6288.3, -2.51e-08
6290.3, -2.339e-08
6292.3, -2.375e-08
6294.3, -2.515e-08
6296.3, -2.276e-08
6298.3, -2.224e-08
6300.3, -2.198e-08
6302.3, -2.517e-08
6304.3, -2.203e-08
6306.3, -2.094e-08
6308.3, -1.796e-08
6310.3, -1.883e-08
6312.3, -2.494e-08
6314.3, -2.42e-08
6316.3, -2.092e-08
6318.3, -2.262e-08
6320.3, -1.834e-08
6322.3, -2.008e-08
6324.3, -1.744e-08
6326.3, -1.907e-08
6328.3, -1.91e-08
6330.3, -2.225e-08
6332.3, -2.1e-08
6334.3, -2.199e-08
6336.3, -2.241e-08
6338.3, -2.223e-08
6340.3, -2.269e-08
6342.3, -2.334e-08
6344.3, -2.531e-08
6346.3, -2.492e-08
6348.3, -2.447e-08
6350.3, -2.252e-08
6352.3, -1.856e-08
6354.3, -1.884e-08
6356.3, -2.37e-08
6358.4, -2.647e-08
6360.4, -2.55e-08
6362.4, -2.725e-08
6364.4, -2.853e-08
6366.4, -2.374e-08
6368.4, -2.606e-08
6370.4, -2.512e-08
6372.4, -2.498e-08
6374.4, -2.454e-08
6376.4, -2.437e-08
6378.4, -2.458e-08
6380.4, -2.436e-08
6382.4, -3.008e-08
6384.4, -2.779e-08
6386.4, -2.523e-08
6388.4, -2.422e-08
6390.4, -2.434e-08
6392.4, -2.273e-08
6394.4, -2.187e-08
6396.4, -2.745e-08
6398.4, -2.658e-08
6400.4, -2.594e-08
6402.4, -2.69e-08
6404.4, -2.528e-08
6406.4, -2.381e-08
6408.4, -2.487e-08
6410.4, -2.482e-08
6412.4, -2.324e-08
6414.4, -2.34e-08
6416.4, -2.616e-08
6418.4, -2.684e-08
6420.4, -2.368e-08
6422.4, -2.634e-08
6424.4, -2.32e-08
6426.4, -3.076e-08
6428.4, -2.8e-08
6430.4, -2.535e-08
6432.4, -2.669e-08
6434.4, -2.628e-08
6436.4, -2.841e-08
6438.4, -2.621e-08
6440.4, -2.382e-08
6442.4, -2.479e-08
6444.4, -2.776e-08
6446.4, -2.555e-08
6448.4, -2.377e-08
6450.4, -2.485e-08
6452.4, -2.647e-08
6454.4, -2.503e-08
6456.4, -2.39e-08
6458.5, -2.786e-08
6460.5, -2.626e-08
6462.5, -2.297e-08
6464.5, -2.891e-08
6466.5, -2.937e-08
6468.5, -2.512e-08
6470.5, -2.303e-08
6472.5, -2.811e-08
6474.5, -2.401e-08
6476.5, -2.386e-08
6478.5, -2.553e-08
6480.5, -2.264e-08
6482.5, -2.777e-08
6484.5, -2.736e-08
6486.5, -2.739e-08
6488.5, -2.365e-08
6490.5, -2.488e-08
6492.5, -2.613e-08
6494.5, -2.807e-08
6496.5, -2.251e-08
6498.5, -2.489e-08
6500.5, -2.489e-08
6502.5, -2.742e-08
6504.5, -2.789e-08
6506.5, -2.799e-08
6508.5, -2.721e-08
6510.5, -2.662e-08
6512.5, -2.514e-08
6514.5, -2.853e-08
6516.5, -2.36e-08
6518.5, -2.333e-08
6520.5, -2.503e-08
6522.5, -2.517e-08
6524.5, -2.347e-08
6526.5, -2.618e-08
6528.5, -2.527e-08
6530.5, -2.762e-08
6532.5, -2.69e-08
6534.5, -2.592e-08
6536.5, -2.744e-08
6538.5, -2.99e-08
6540.5, -2.443e-08
6542.5, -2.69e-08
6544.5, -2.563e-08
6546.5, -2.502e-08
6548.5, -3.097e-08
6550.5, -3.052e-08
6552.5, -2.935e-08
6554.5, -2.774e-08
6556.5, -2.272e-08
6558.6, -2.33e-08
6560.6, -2.642e-08
6562.6, -2.451e-08
6564.6, -2.392e-08
6566.6, -2.104e-08
6568.6, -2.263e-08
6570.6, -2.162e-08
6572.6, -2.49e-08
6574.6, -2.311e-08
6576.6, -2.299e-08
6578.6, -2.568e-08
6580.6, -2.646e-08
6582.6, -2.682e-08
6584.6, -2.406e-08
6586.6, -2.196e-08
6588.6, -2.392e-08
6590.6, -2.864e-08
6592.6, -3.028e-08
6594.6, -2.325e-08
6596.6, -2.625e-08
6598.6, -2.405e-08
6600.6, -2.96e-08
6602.6, -2.382e-08
6604.6, -2.703e-08
6606.6, -2.535e-08
6608.6, -2.387e-08
6610.6, -2.498e-08
6612.6, -2.847e-08
6614.6, -2.975e-08
6616.6, -2.711e-08
6618.6, -2.713e-08
6620.6, -2.453e-08
6622.6, -2.372e-08
6624.6, -2.868e-08
6626.6, -3.054e-08
6628.6, -2.976e-08
6630.6, -3.394e-08
6632.6, -2.867e-08
6634.6, -2.726e-08
6636.6, -2.263e-08
6638.6, -2.377e-08
6640.6, -2.756e-08
6642.6, -2.686e-08
6644.6, -2.816e-08
6646.6, -2.811e-08
6648.6, -2.548e-08
6650.6, -2.509e-08
6652.6, -2.427e-08
6654.6, -2.429e-08
6656.6, -2.659e-08
6658.7, -2.932e-08
6660.7, -2.421e-08
6662.7, -2.508e-08
6664.7, -2.983e-08
6666.7, -2.776e-08
6668.7, -2.431e-08
6670.7, -2.866e-08
6672.7, -2.58e-08
6674.7, -2.802e-08
6676.7, -3.055e-08
6678.7, -2.825e-08
6680.7, -2.813e-08
6682.7, -2.56e-08
6684.7, -2.432e-08
6686.7, -2.73e-08
6688.7, -2.485e-08
6690.7, -2.543e-08
6692.7, -2.496e-08
6694.7, -2.697e-08
6696.7, -2.412e-08
6698.7, -2.959e-08
6700.7, -2.739e-08
6702.7, -2.798e-08
6704.7, -2.607e-08
6706.7, -2.623e-08
6708.7, -2.638e-08
6710.7, -2.49e-08
6712.7, -2.958e-08
6714.7, -2.803e-08
6716.7, -2.597e-08
6718.7, -2.763e-08
6720.7, -3.047e-08
6722.7, -2.766e-08
6724.7, -2.701e-08
6726.7, -1.989e-08
6728.7, -2.309e-08
6730.7, -2.708e-08
6732.7, -2.468e-08
6734.7, -2.718e-08
6736.7, -2.603e-08
6738.7, -2.525e-08
6740.7, -2.779e-08
6742.7, -2.696e-08
6744.7, -2.561e-08
6746.7, -2.598e-08
6748.7, -3.018e-08
6750.7, -2.601e-08
6752.7, -2.953e-08
6754.7, -2.76e-08
6756.7, -2.622e-08
6758.8, -2.617e-08
6760.8, -2.555e-08
6762.8, -2.665e-08
6764.8, -2.903e-08
6766.8, -2.991e-08
6768.8, -2.643e-08
6770.8, -2.678e-08
6772.8, -2.682e-08
6774.8, -2.919e-08
6776.8, -2.891e-08
6778.8, -2.687e-08
6780.8, -2.285e-08
6782.8, -2.749e-08
6784.8, -2.831e-08
6786.8, -2.502e-08
6788.8, -2.752e-08
6790.8, -2.967e-08
6792.8, -2.735e-08
6794.8, -2.815e-08
6796.8, -2.867e-08
6798.8, -2.591e-08
6800.8, -2.588e-08
6802.8, -2.633e-08
6804.8, -2.601e-08
6806.8, -2.79e-08
6808.8, -2.565e-08
6810.8, -2.436e-08
6812.8, -2.452e-08
6814.8, -2.701e-08
6816.8, -2.932e-08
6818.8, -2.609e-08
6820.8, -2.79e-08
6822.8, -2.571e-08
6824.8, -2.82e-08
6826.8, -2.809e-08
6828.8, -2.673e-08
6830.8, -2.266e-08
6832.8, -2.654e-08
6834.8, -2.5e-08
6836.8, -2.631e-08
6838.8, -2.769e-08
6840.8, -2.671e-08
6842.8, -3.141e-08
6844.8, -2.664e-08
6846.8, -2.693e-08
6848.8, -2.723e-08
6850.8, -2.882e-08
6852.8, -2.827e-08
6854.8, -2.647e-08
6856.8, -2.404e-08
6858.9, -2.827e-08
6860.9, -2.739e-08
6862.9, -2.727e-08
6864.9, -3.07e-08
6866.9, -3.11e-08
6868.9, -2.979e-08
6870.9, -2.687e-08
6872.9, -2.823e-08
6874.9, -3.405e-08
6876.9, -2.679e-08
6878.9, -2.827e-08
6880.9, -3.073e-08
6882.9, -3.246e-08
6884.9, -2.913e-08
6886.9, -3.107e-08
6888.9, -2.707e-08
6890.9, -3.142e-08
6892.9, -2.664e-08
6894.9, -2.841e-08
6896.9, -2.651e-08
6898.9, -2.899e-08
6900.9, -2.933e-08
6902.9, -2.77e-08
6904.9, -3.048e-08
6906.9, -2.678e-08
6908.9, -2.912e-08
6910.9, -2.881e-08
6912.9, -2.729e-08
6914.9, -2.711e-08
6916.9, -3.014e-08
6918.9, -2.505e-08
6920.9, -2.637e-08
6922.9, -2.564e-08
6924.9, -2.631e-08
6926.9, -2.808e-08
6928.9, -2.819e-08
6930.9, -2.658e-08
6932.9, -2.718e-08
6934.9, -2.309e-08
6936.9, -2.628e-08
6938.9, -2.499e-08
6940.9, -2.426e-08
6942.9, -2.954e-08
6944.9, -2.193e-08
6946.9, -2.509e-08
6948.9, -2.423e-08
6950.9, -2.483e-08
6952.9, -2.22e-08
6954.9, -2.226e-08
6956.9, -2.683e-08
6959.0, -2.469e-08
6961.0, -2.398e-08
6963.0, -2.658e-08
6965.0, -2.675e-08
6967.0, -2.851e-08
6969.0, -2.711e-08
6971.0, -2.483e-08
6973.0, -2.343e-08
6975.0, -2.872e-08
6977.0, -2.138e-08
6979.0, -2.523e-08
6981.0, -2.526e-08
6983.0, -2.419e-08
6985.0, -2.426e-08
6987.0, -2.378e-08
6989.0, -2.296e-08
6991.0, -2.683e-08
6993.0, -2.817e-08
6995.0, -2.762e-08
6997.0, -2.542e-08
6999.0, -3.267e-08
7001.0, -2.59e-08
7003.0, -2.581e-08
7005.0, -2.673e-08
7007.0, -2.591e-08
7009.0, -2.666e-08
7011.0, -2.646e-08
7013.0, -2.647e-08
7015.0, -2.818e-08
7017.0, -2.513e-08
7019.0, -2.548e-08
7021.0, -2.557e-08
7023.0, -2.78e-08
7025.0, -2.832e-08
7027.0, -2.806e-08
7029.0, -2.958e-08
7031.0, -2.754e-08
7033.0, -2.409e-08
7035.0, -2.771e-08
7037.0, -2.548e-08
7039.0, -2.327e-08
7041.0, -2.673e-08
7043.0, -2.497e-08
7045.0, -2.325e-08
7047.0, -2.533e-08
7049.0, -2.6e-08
7051.0, -2.865e-08
7053.0, -2.735e-08
7055.0, -2.735e-08
7057.0, -2.677e-08
7059.1, -2.38e-08
7061.1, -2.711e-08
7063.1, -2.764e-08
7065.1, -2.412e-08
7067.1, -2.282e-08
7069.1, -2.888e-08
7071.1, -2.925e-08
7073.1, -2.86e-08
7075.1, -3.079e-08
7077.1, -2.552e-08
7079.1, -2.797e-08
7081.1, -2.87e-08
7083.1, -2.554e-08
7085.1, -2.356e-08
7087.1, -2.915e-08
7089.1, -3.091e-08
7091.1, -2.599e-08
7093.1, -2.511e-08
7095.1, -2.791e-08
7097.1, -2.507e-08
7099.1, -2.726e-08
7101.1, -2.681e-08
7103.1, -3.059e-08
7105.1, -2.888e-08
7107.1, -2.973e-08
7109.1, -2.56e-08
7111.1, -2.683e-08
7113.1, -2.995e-08
7115.1, -3.075e-08
7117.1, -3.022e-08
7119.1, -2.892e-08
7121.1, -2.945e-08
7123.1, -2.795e-08
7125.1, -2.777e-08
7127.1, -2.972e-08
7129.1, -3.289e-08
7131.1, -3.051e-08
7133.1, -3.007e-08
7135.1, -2.712e-08
7137.1, -3.062e-08
7139.1, -2.443e-08
7141.1, -2.783e-08
7143.1, -2.364e-08
7145.1, -2.695e-08
7147.1, -2.773e-08
7149.1, -2.2e-08
7151.1, -2.885e-08
7153.1, -2.676e-08
7155.1, 1.8147e-07
7157.1, 3.9204e-07
7159.2, 3.4659e-07
7161.2, 3.4471e-07
7163.2, 3.5724e-07
7165.2, 3.7778e-07
7167.2, 3.7919e-07
7169.2, 3.8121e-07
7171.2, 3.5753e-07
7173.2, 3.5382e-07
7175.2, 3.7075e-07
7177.2, 3.8511e-07
7179.2, 3.7339e-07
7181.2, 3.3669e-07
7183.2, 3.7546e-07
7185.2, 3.4454e-07
7187.2, 3.7732e-07
7189.2, 3.7994e-07
7191.2, 4.0843e-07
7193.2, 3.818e-07
7195.2, 4.1489e-07
7197.2, 3.3474e-07
7199.2, 4.0273e-07
7201.2, 4.0704e-07
7203.2, 3.7641e-07
7205.2, 3.6519e-07
7207.2, 3.5462e-07
7209.2, 3.9868e-07
7211.2, 3.9135e-07
7213.2, 3.9396e-07
7215.2, 3.6973e-07
7217.2, 4.0571e-07
7219.2, 3.7315e-07
7221.2, 4.0441e-07
7223.2, 3.9277e-07
7225.2, 3.9405e-07
7227.2, 4.0893e-07
7229.2, 3.7068e-07
7231.2, 3.6311e-07
7233.2, 3.8246e-07
7235.2, 3.7924e-07
7237.2, 3.7164e-07
7239.2, 3.9329e-07
7241.2, 3.5578e-07
7243.2, 3.8679e-07
7245.2, 4.251e-07
7247.2, 3.6614e-07
7249.2, 4.2133e-07
7251.2, 3.5523e-07
7253.2, 3.808e-07
7255.2, 3.9299e-07
7257.2, 3.9761e-07
7259.3, 3.6426e-07
7261.3, 3.9548e-07
7263.3, 3.8606e-07
7265.3, 4.2691e-07
7267.3, 3.58e-07
7269.3, 3.7032e-07
7271.3, 3.9376e-07
7273.3, 4.3876e-07
7275.3, 3.6951e-07
7277.3, 4.0608e-07
7279.3, 3.5337e-07
7281.3, 4.1239e-07
7283.3, 3.8488e-07
7285.3, 3.6818e-07
7287.3, 3.9383e-07
7289.3, 3.8842e-07
7291.3, 3.4253e-07
7293.3, 4.1058e-07
7295.3, 3.7117e-07
7297.3, 4.3077e-07
7299.3, 3.8383e-07
7301.3, 4.0728e-07
7303.3, 3.7302e-07
7305.3, 4.1415e-07
7307.3, 4.2699e-07
7309.3, 4.0755e-07
7311.3, 4.0454e-07
7313.3, 3.7385e-07
7315.3, 3.9884e-07
7317.3, 3.873e-07
7319.3, 4.0684e-07
7321.3, 3.9568e-07
7323.3, 4.1326e-07
7325.3, 3.9744e-07
7327.3, 4.3421e-07
7329.3, 3.4752e-07
7331.3, 3.6434e-07
7333.3, 4.21e-07
7335.3, 3.9883e-07
7337.3, 3.9971e-07
7339.3, 3.8492e-07
7341.3, 4.0829e-07
7343.3, 3.8614e-07
7345.3, 4.3837e-07
7347.3, 4.1223e-07
7349.3, 4.0806e-07
7351.3, 4.0348e-07
7353.3, 4.0439e-07
7355.3, 4.3447e-07
7357.3, 4.2514e-07
7359.4, 3.7331e-07
7361.4, 4.0754e-07
7363.4, 4.1087e-07
7365.4, 3.8661e-07
7367.4, 4.021e-07
7369.4, 3.6622e-07
7371.4, 4.0513e-07
7373.4, 4.052e-07
7375.4, 4.0034e-07
7377.4, 4.4851e-07
7379.4, 4.1284e-07
7381.4, 4.2392e-07
7383.4, 3.8554e-07
7385.4, 4.0907e-07
7387.4, 3.3458e-07
7389.4, 4.3744e-07
7391.4, 4.0857e-07
7393.4, 3.7953e-07
7395.4, 3.9368e-07
7397.4, 4.5493e-07
7399.4, 3.9023e-07
7401.4, 4.071e-07
7403.4, 4.0779e-07
7405.4, 4.0808e-07
7407.4, 4.0878e-07
7409.4, 4.2564e-07
7411.4, 4.1498e-07
7413.4, 4.1709e-07
7415.4, 3.9006e-07
7417.4, 4.2496e-07
7419.4, 3.9873e-07
7421.4, 3.623e-07
7423.4, 4.5713e-07
7425.4, 4.2558e-07
7427.4, 4.1234e-07
7429.4, 4.0606e-07
7431.4, 3.6345e-07
7433.4, 4.122e-07
7435.4, 4.2875e-07
7437.4, 4.3292e-07
7439.4, 3.8283e-07
7441.4, 3.9208e-07
7443.4, 4.2315e-07
7445.4, 4.2106e-07
7447.4, 3.7323e-07
7449.4, 3.9855e-07
7451.4, 4.0022e-07
7453.4, 4.1021e-07
7455.4, 4.292e-07
7457.4, 3.911e-07
7459.5, 4.1947e-07
7461.5, 3.7937e-07
7463.5, 4.4191e-07
7465.5, 4.1271e-07
7467.5, 4.3233e-07
7469.5, 3.9196e-07
7471.5, 4.1475e-07
7473.5, 4.0476e-07
7475.5, 4.0322e-07
7477.5, 4.4832e-07
7479.5, 3.9291e-07
7481.5, 4.3095e-07
7483.5, 3.7937e-07
7485.5, 4.3488e-07
7487.5, 4.2856e-07
7489.5, 4.0886e-07
7491.5, 4.218e-07
7493.5, 4.1267e-07
7495.5, 4.3267e-07
7497.5, 4.2508e-07
7499.5, 4.0676e-07
7501.5, 4.0361e-07
7503.5, 4.1569e-07
7505.5, 3.7964e-07
7507.5, 4.2889e-07
7509.5, 3.6584e-07
7511.5, 4.3231e-07
7513.5, 3.6342e-07
7515.5, 4.1044e-07
7517.5, 4.2498e-07
7519.5, 4.2984e-07
7521.5, 4.3239e-07
7523.5, 4.267e-07
7525.5, 4.0092e-07
7527.5, 4.3641e-07
7529.5, 4.3393e-07
7531.5, 4.3616e-07
7533.5, 4.6355e-07
7535.5, 4.4181e-07
7537.5, 4.3703e-07
7539.5, 4.2586e-07
7541.5, 4.5372e-07
7543.5, 3.8383e-07
7545.5, 4.4967e-07
7547.5, 4.0491e-07
7549.5, 3.8479e-07
7551.5, 3.87e-07
7553.5, 4.0999e-07
7555.5, 3.9259e-07
7557.5, 4.1456e-07
7559.6, 4.0195e-07
7561.6, 4.4188e-07
7563.6, 4.1949e-07
7565.6, 4.0646e-07
7567.6, 3.8697e-07
7569.6, 4.0203e-07
7571.6, 4.2805e-07
7573.6, 3.9119e-07
7575.6, 3.8082e-07
7577.6, 4.0793e-07
7579.6, 4.2565e-07
7581.6, 4.681e-07
7583.6, 3.8339e-07
7585.6, 4.073e-07
7587.6, 3.8823e-07
7589.6, 4.1054e-07
7591.6, 4.3414e-07
7593.6, 4.1796e-07
7595.6, 4.2897e-07
7597.6, 4.3068e-07
7599.6, 4.1965e-07
7601.6, 3.6435e-07
7603.6, 3.8665e-07
7605.6, 3.8727e-07
7607.6, 4.5294e-07
7609.6, 4.2929e-07
7611.6, 3.9048e-07
7613.6, 4.3915e-07
7615.6, 3.9852e-07
7617.6, 4.1807e-07
7619.6, 4.2079e-07
7621.6, 4.3028e-07
7623.6, 4.0023e-07
7625.6, 3.7529e-07
7627.6, 4.0412e-07
7629.6, 4.2232e-07
7631.6, 4.0904e-07
7633.6, 4.4771e-07
7635.6, 3.8327e-07
7637.6, 3.8277e-07
7639.6, 3.8625e-07
7641.6, 4.2714e-07
7643.6, 4.2283e-07
7645.6, 4.2476e-07
7647.6, 4.4527e-07
7649.6, 4.0042e-07
7651.6, 4.3539e-07
7653.6, 4.412e-07
7655.6, 3.9907e-07
7657.6, 3.9333e-07
7659.7, 3.9578e-07
7661.7, 4.2631e-07
7663.7, 3.9239e-07
7665.7, 4.3892e-07
7667.7, 4.0001e-07
7669.7, 4.2391e-07
7671.7, 4.5819e-07
7673.7, 4.1583e-07
7675.7, 4.0983e-07
7677.7, 3.7061e-07
7679.7, 4.1419e-07
7681.7, 4.1324e-07
7683.7, 4.0126e-07
7685.7, 4.0976e-07
7687.7, 4.1436e-07
7689.7, 4.0909e-07
7691.7, 3.9696e-07
7693.7, 4.0892e-07
7695.7, 4.1395e-07
7697.7, 3.9636e-07
7699.7, 4.6104e-07
7701.7, 4.3338e-07
7703.7, 4.1017e-07
7705.7, 3.8745e-07
7707.7, 4.328e-07
7709.7, 4.1044e-07
7711.7, 3.9891e-07
7713.7, 4.0733e-07
7715.7, 4.3852e-07
7717.7, 3.9355e-07
7719.7, 3.9562e-07
7721.7, 4.5811e-07
7723.7, 4.2276e-07
7725.7, 4.3036e-07
7727.7, 3.7107e-07
7729.7, 3.9085e-07
7731.7, 4.0039e-07
7733.7, 4.0402e-07
7735.7, 3.8933e-07
7737.7, 3.9664e-07
7739.7, 4.4248e-07
7741.7, 3.793e-07
7743.7, 3.7227e-07
7745.7, 3.8758e-07
7747.7, 4.2475e-07
7749.7, 4.5189e-07
7751.7, 4.1093e-07
7753.7, 4.0566e-07
7755.7, 4.1516e-07
7757.7, 3.9435e-07
7759.8, 4.555e-07
7761.8, 4.1893e-07
7763.8, 4.0579e-07
7765.8, 4.4294e-07
7767.8, 4.0943e-07
7769.8, 4.4011e-07
7771.8, 3.7437e-07
7773.8, 4.2057e-07
7775.8, 4.6014e-07
7777.8, 3.9169e-07
7779.8, 4.4054e-07
7781.8, 4.2563e-07
7783.8, 4.1231e-07
7785.8, 4.4672e-07
7787.8, 4.5646e-07
7789.8, 4.0302e-07
7791.8, 3.9325e-07
7793.8, 4.3023e-07
7795.8, 4.3175e-07
7797.8, 4.1656e-07
7799.8, 4.4022e-07
7801.8, 4.1069e-07
7803.8, 4.2736e-07
7805.8, 4.4136e-07
7807.8, 4.7214e-07
7809.8, 3.8427e-07
7811.8, 4.3742e-07
7813.8, 4.1377e-07
7815.8, 4.1982e-07
7817.8, 4.1624e-07
7819.8, 4.0463e-07
7821.8, 4.6117e-07
7823.8, 4.345e-07
7825.8, 4.553e-07
7827.8, 4.0894e-07
7829.8, 4.5781e-07
7831.8, 4.0493e-07
7833.8, 4.075e-07
7835.8, 4.2424e-07
7837.8, 4.2727e-07
7839.8, 4.0778e-07
7841.8, 4.2825e-07
7843.8, 4.1765e-07
7845.8, 4.5473e-07
7847.8, 4.3227e-07
7849.8, 4.0549e-07
7851.8, 4.0936e-07
7853.8, 4.3045e-07
7855.8, 4.4877e-07
7857.8, 4.2237e-07
7859.9, 4.274e-07
7861.9, 4.7042e-07
7863.9, 4.3873e-07
7865.9, 4.0738e-07
7867.9, 4.1377e-07
7869.9, 4.275e-07
7871.9, 3.9923e-07
7873.9, 4.3332e-07
7875.9, 4.1691e-07
7877.9, 4.5158e-07
7879.9, 3.9723e-07
7881.9, 4.5568e-07
7883.9, 4.2795e-07
7885.9, 4.3645e-07
7887.9, 3.7363e-07
7889.9, 4.1999e-07
7891.9, 4.1178e-07
7893.9, 3.9127e-07
7895.9, 4.1331e-07
7897.9, 3.7049e-07
7899.9, 4.6104e-07
7901.9, 4.3327e-07
7903.9, 3.9776e-07
7905.9, 3.7391e-07
7907.9, 4.1206e-07
7909.9, 4.5316e-07
7911.9, 4.6373e-07
7913.9, 4.0557e-07
7915.9, 4.0406e-07
7917.9, 3.8609e-07
7919.9, 4.3777e-07
7921.9, 4.1357e-07
7923.9, 4.0842e-07
7925.9, 4.3159e-07
7927.9, 4.0972e-07
7929.9, 4.2003e-07
7931.9, 3.7731e-07
7933.9, 4.3193e-07
7935.9, 4.1978e-07
7937.9, 4.3565e-07
7939.9, 4.1198e-07
7941.9, 4.2071e-07
7943.9, 4.273e-07
7945.9, 4.6626e-07
7947.9, 4.4324e-07
7949.9, 4.2823e-07
7951.9, 4.5749e-07
7953.9, 4.5153e-07
7955.9, 4.1787e-07
7957.9, 4.2641e-07
7960.0, 4.2724e-07
7962.0, 4.2959e-07
7964.0, 4.0701e-07
7966.0, 4.0616e-07
7968.0, 4.0468e-07
7970.0, 3.8694e-07
7972.0, 4.6106e-07
7974.0, 4.3326e-07
7976.0, 3.8369e-07
7978.0, 4.4946e-07
7980.0, 4.1986e-07
7982.0, 4.2238e-07
7984.0, 3.679e-07
7986.0, 4.3276e-07
7988.0, 4.3247e-07
7990.0, 4.0661e-07
7992.0, 4.2432e-07
7994.0, 4.2525e-07
7996.0, 4.3972e-07
7998.0, 3.9232e-07
8000.0, 4.2061e-07
8002.0, 3.9238e-07
8004.0, 4.6467e-07
8006.0, 4.3635e-07
8008.0, 4.028e-07
8010.0, 4.3542e-07
8012.0, 4.4939e-07
8014.0, 4.3863e-07
8016.0, 4.3282e-07
8018.0, 4.1269e-07
8020.0, 3.95e-07
8022.0, 3.9491e-07
8024.0, 4.3476e-07
8026.0, 4.1046e-07
8028.0, 4.1524e-07
8030.0, 4.4117e-07
8032.0, 4.1906e-07
8034.0, 4.6427e-07
8036.0, 4.2108e-07
8038.0, 4.3274e-07
8040.0, 4.0835e-07
8042.0, 3.9277e-07
8044.0, 4.3974e-07
8046.0, 4.358e-07
8048.0, 4.019e-07
8050.0, 4.134e-07
8052.0, 4.7924e-07
8054.0, 4.3441e-07
8056.0, 3.598e-07
8058.0, 4.3344e-07
8060.1, 4.0427e-07
8062.1, 3.9958e-07
8064.1, 4.2461e-07
8066.1, 4.0131e-07
8068.1, 4.3403e-07
8070.1, 4.3771e-07
8072.1, 4.0629e-07
8074.1, 4.1881e-07
8076.1, 3.8578e-07
8078.1, 4.0064e-07
8080.1, 4.25e-07
8082.1, 4.6324e-07
8084.1, 4.2384e-07
8086.1, 4.2975e-07
8088.1, 4.3682e-07
8090.1, 4.8385e-07
8092.1, 4.0182e-07
8094.1, 4.4049e-07
8096.1, 3.8983e-07
8098.1, 3.9976e-07
8100.1, 4.134e-07
8102.1, 3.954e-07
8104.1, 4.4366e-07
8106.1, 4.3748e-07
8108.1, 4.0891e-07
8110.1, 4.7386e-07
8112.1, 4.2427e-07
8114.1, 4.1962e-07
8116.1, 4.2093e-07
8118.1, 3.9215e-07
8120.1, 3.838e-07
8122.1, 4.5016e-07
8124.1, 3.9427e-07
8126.1, 4.0603e-07
8128.1, 4.128e-07
8130.1, 4.4222e-07
8132.1, 4.506e-07
8134.1, 4.1329e-07
8136.1, 4.5551e-07
8138.1, 4.2366e-07
8140.1, 4.201e-07
8142.1, 4.0504e-07
8144.1, 4.0317e-07
8146.1, 4.1468e-07
8148.1, 3.9406e-07
8150.1, 4.2755e-07
8152.1, 4.6781e-07
8154.1, 4.3884e-07
8156.1, 1.7879e-07
8158.1, -2.118e-08
8160.2, -2.91e-08
8162.2, -2.773e-08
8164.2, -2.753e-08
8166.2, -2.754e-08
8168.2, -2.689e-08
8170.2, -2.592e-08
8172.2, -2.641e-08
8174.2, -2.505e-08
8176.2, -2.819e-08
8178.2, -2.801e-08
8180.2, -2.458e-08
8182.2, -2.67e-08
8184.2, -2.935e-08
8186.2, -2.436e-08
8188.2, -2.579e-08
8190.2, -2.617e-08
8192.2, -2.639e-08
8194.2, -2.355e-08
8196.2, -2.776e-08
8198.2, -3.232e-08
8200.2, -2.845e-08
8202.2, -2.968e-08
8204.2, -2.759e-08
8206.2, -2.879e-08
8208.2, -3.324e-08
8210.2, -2.842e-08
8212.2, -3.164e-08
8214.2, -3.131e-08
8216.2, -3.332e-08
8218.2, -3.315e-08
8220.2, -3.328e-08
8222.2, -2.86e-08
8224.2, -2.754e-08
8226.2, -2.816e-08
8228.2, -3.143e-08
8230.2, -3.317e-08
8232.2, -3.169e-08
8234.2, -3.459e-08
8236.2, -3.497e-08
8238.2, -3.16e-08
8240.2, -2.933e-08
8242.2, -3.091e-08
8244.2, -2.818e-08
8246.2, -2.772e-08
8248.2, -2.938e-08
8250.2, -3.132e-08
8252.2, -2.687e-08
8254.2, -2.589e-08
8256.2, -3.304e-08
8258.2, -3.061e-08
8260.3, -2.85e-08
8262.3, -3.221e-08
8264.3, -2.747e-08
8266.3, -3.101e-08
8268.3, -2.661e-08
8270.3, -2.605e-08
8272.3, -2.718e-08
8274.3, -2.749e-08
8276.3, -3.012e-08
8278.3, -2.516e-08
8280.3, -2.753e-08
8282.3, -2.501e-08
8284.3, -2.465e-08
8286.3, -2.545e-08
8288.3, -2.625e-08
8290.3, -2.497e-08
8292.3, -2.936e-08
8294.3, -2.759e-08
8296.3, -2.792e-08
8298.3, -2.783e-08
8300.3, -2.876e-08
8302.3, -2.87e-08
8304.3, -2.626e-08
8306.3, -2.774e-08
8308.3, -2.942e-08
8310.3, -2.733e-08
8312.3, -2.712e-08
8314.3, -2.736e-08
8316.3, -2.75e-08
8318.3, -2.874e-08
8320.3, -2.855e-08
8322.3, -3.202e-08
8324.3, -2.946e-08
8326.3, -2.973e-08
8328.3, -2.637e-08
8330.3, -2.87e-08
8332.3, -2.812e-08
8334.3, -2.644e-08
8336.3, -2.568e-08
8338.3, -2.998e-08
8340.3, -2.616e-08
8342.3, -2.706e-08
8344.3, -2.822e-08
8346.3, -2.85e-08
8348.3, -3.185e-08
8350.3, -2.914e-08
8352.3, -2.797e-08
8354.3, -3.106e-08
8356.3, -2.811e-08
8358.3, -2.644e-08
8360.4, -2.596e-08
8362.4, -2.662e-08
8364.4, -3.095e-08
8366.4, -3.104e-08
8368.4, -3.064e-08
8370.4, -2.884e-08
8372.4, -2.945e-08
8374.4, -3.029e-08
8376.4, -3.059e-08
8378.4, -2.887e-08
8380.4, -2.892e-08
8382.4, -3.245e-08
8384.4, -2.919e-08
8386.4, -2.663e-08
8388.4, -2.641e-08
8390.4, -2.734e-08
8392.4, -3.045e-08
8394.4, -3.155e-08
8396.4, -2.974e-08
8398.4, -2.703e-08
8400.4, -3.026e-08
8402.4, -2.437e-08
8404.4, -2.835e-08
8406.4, -2.889e-08
8408.4, -2.989e-08
8410.4, -2.584e-08
8412.4, -2.685e-08
8414.4, -2.894e-08
8416.4, -3.025e-08
8418.4, -2.902e-08
8420.4, -3.127e-08
8422.4, -3.432e-08
8424.4, -3.293e-08
8426.4, -2.941e-08
8428.4, -2.765e-08
8430.4, -2.857e-08
8432.4, -2.656e-08
8434.4, -2.65e-08
8436.4, -2.401e-08
8438.4, -2.834e-08
8440.4, -2.512e-08
8442.4, -2.697e-08
8444.4, -2.995e-08
8446.4, -3.213e-08
8448.4, -2.616e-08
8450.4, -2.62e-08
8452.4, -2.853e-08
8454.4, -2.834e-08
8456.4, -2.757e-08
8458.4, -2.401e-08
8460.5, -2.262e-08
8462.5, -2.463e-08
8464.5, -2.544e-08
8466.5, -2.514e-08
8468.5, -2.245e-08
8470.5, -2.322e-08
8472.5, -2.336e-08
8474.5, -2.464e-08
8476.5, -2.657e-08
8478.5, -2.385e-08
8480.5, -2.681e-08
8482.5, -2.388e-08
8484.5, -2.491e-08
8486.5, -2.966e-08
8488.5, -2.539e-08
8490.5, -2.626e-08
8492.5, -2.451e-08
8494.5, -2.705e-08
8496.5, -2.567e-08
8498.5, -2.505e-08
8500.5, -2.65e-08
8502.5, -2.669e-08
8504.5, -2.719e-08
8506.5, -2.825e-08
8508.5, -3.036e-08
8510.5, -2.787e-08
8512.5, -2.947e-08
8514.5, -2.816e-08
8516.5, -2.606e-08
8518.5, -2.52e-08
8520.5, -2.536e-08
8522.5, -3.017e-08
8524.5, -2.648e-08
8526.5, -2.515e-08
8528.5, -2.643e-08
8530.5, -2.845e-08
8532.5, -2.844e-08
8534.5, -2.597e-08
8536.5, -2.593e-08
8538.5, -2.303e-08
8540.5, -2.649e-08
8542.5, -2.447e-08
8544.5, -2.463e-08
8546.5, -2.653e-08
8548.5, -2.065e-08
8550.5, -2.075e-08
8552.5, -2.683e-08
8554.5, -2.438e-08
8556.5, -2.547e-08
8558.5, -2.227e-08
8560.6, -1.942e-08
8562.6, -2.461e-08
8564.6, -2.256e-08
8566.6, -2.083e-08
8568.6, -2.58e-08
8570.6, -2.841e-08
8572.6, -2.613e-08
8574.6, -2.711e-08
8576.6, -2.97e-08
8578.6, -2.637e-08
8580.6, -2.389e-08
8582.6, -2.133e-08
8584.6, -2.618e-08
8586.6, -2.503e-08
8588.6, -2.61e-08
8590.6, -2.288e-08
8592.6, -2.189e-08
8594.6, -2.356e-08
8596.6, -2.505e-08
8598.6, -2.33e-08
8600.6, -2.223e-08
8602.6, -2.556e-08
8604.6, -2.31e-08
8606.6, -3.045e-08
8608.6, -2.715e-08
8610.6, -2.701e-08
8612.6, -2.877e-08
8614.6, -2.669e-08
8616.6, -2.806e-08
8618.6, -2.791e-08
8620.6, -2.894e-08
8622.6, -2.945e-08
8624.6, -2.905e-08
8626.6, -2.952e-08
8628.6, -3.054e-08
8630.6, -2.856e-08
8632.6, -2.886e-08
8634.6, -2.776e-08
8636.6, -2.765e-08
8638.6, -2.846e-08
8640.6, -2.633e-08
8642.6, -2.723e-08
8644.6, -2.74e-08
8646.6, -2.769e-08
8648.6, -2.914e-08
8650.6, -2.516e-08
8652.6, -2.382e-08
8654.6, -2.646e-08
8656.6, -2.99e-08
8658.6, -2.888e-08
8660.7, -2.738e-08
8662.7, -2.936e-08
8664.7, -2.436e-08
8666.7, -3.172e-08
8668.7, -2.85e-08
8670.7, -2.676e-08
8672.7, -3.199e-08
8674.7, -3.084e-08
8676.7, -2.811e-08
8678.7, -2.966e-08
8680.7, -3.2e-08
8682.7, -2.915e-08
8684.7, -2.978e-08
8686.7, -2.869e-08
8688.7, -2.615e-08
8690.7, -2.751e-08
8692.7, -2.563e-08
8694.7, -3.144e-08
8696.7, -2.726e-08
8698.7, -2.873e-08
8700.7, -2.81e-08
8702.7, -2.409e-08
8704.7, -2.572e-08
8706.7, -2.216e-08
8708.7, -2.581e-08
8710.7, -2.328e-08
8712.7, -2.599e-08
8714.7, -2.416e-08
8716.7, -2.442e-08
8718.7, -2.653e-08
8720.7, -2.744e-08
8722.7, -2.681e-08
8724.7, -2.763e-08
8726.7, -2.663e-08
8728.7, -2.45e-08
8730.7, -2.37e-08
8732.7, -2.756e-08
8734.7, -2.665e-08
8736.7, -2.729e-08
8738.7, -2.677e-08
8740.7, -2.798e-08
8742.7, -2.758e-08
8744.7, -2.797e-08
8746.7, -2.472e-08
8748.7, -3.047e-08
8750.7, -2.967e-08
8752.7, -2.779e-08
8754.7, -2.801e-08
8756.7, -2.768e-08
8758.7, -2.615e-08
8760.8, -2.682e-08
8762.8, -2.668e-08
8764.8, -2.713e-08
8766.8, -2.98e-08
8768.8, -2.536e-08
8770.8, -2.868e-08
8772.8, -3.042e-08
8774.8, -3.104e-08
8776.8, -2.995e-08
8778.8, -3.079e-08
8780.8, -2.965e-08
8782.8, -2.867e-08
8784.8, -2.909e-08
8786.8, -2.741e-08
8788.8, -2.923e-08
8790.8, -3.21e-08
8792.8, -3.07e-08
8794.8, -3.211e-08
8796.8, -2.894e-08
8798.8, -3.061e-08
8800.8, -2.888e-08
8802.8, -3.032e-08
8804.8, -2.722e-08
8806.8, -2.867e-08
8808.8, -2.813e-08
8810.8, -3.178e-08
8812.8, -3.351e-08
8814.8, -3.014e-08
8816.8, -3.114e-08
8818.8, -3.301e-08
8820.8, -3.239e-08
8822.8, -2.688e-08
8824.8, -3.135e-08
8826.8, -2.925e-08
8828.8, -3.29e-08
8830.8, -3.257e-08
8832.8, -3.166e-08
8834.8, -3.298e-08
8836.8, -3.265e-08
8838.8, -2.921e-08
8840.8, -2.905e-08
8842.8, -2.444e-08
8844.8, -2.859e-08
8846.8, -3.088e-08
8848.8, -3.176e-08
8850.8, -3.271e-08
8852.8, -3.216e-08
8854.8, -2.97e-08
8856.8, -2.964e-08
8858.8, -3.135e-08
8860.9, -2.947e-08
8862.9, -2.59e-08
8864.9, -2.772e-08
8866.9, -2.752e-08
8868.9, -3.051e-08
8870.9, -2.902e-08
8872.9, -2.813e-08
8874.9, -2.809e-08
8876.9, -2.897e-08
8878.9, -2.714e-08
8880.9, -2.891e-08
8882.9, -2.991e-08
8884.9, -3.071e-08
8886.9, -3.076e-08
8888.9, -3.031e-08
8890.9, -3.147e-08
8892.9, -3.047e-08
8894.9, -2.999e-08
8896.9, -2.912e-08
8898.9, -2.965e-08
8900.9, -3.056e-08
8902.9, -2.847e-08
8904.9, -2.803e-08
8906.9, -3.101e-08
8908.9, -2.926e-08
8910.9, -3.069e-08
8912.9, -3.312e-08
8914.9, -2.864e-08
8916.9, -3.091e-08
8918.9, -3.013e-08
8920.9, -2.996e-08
8922.9, -2.67e-08
8924.9, -3.012e-08
8926.9, -3.246e-08
8928.9, -2.914e-08
8930.9, -3.073e-08
8932.9, -2.487e-08
8934.9, -2.908e-08
8936.9, -2.724e-08
8938.9, -3.312e-08
8940.9, -3.201e-08
8942.9, -3.127e-08
8944.9, -2.993e-08
8946.9, -3.253e-08
8948.9, -2.948e-08
8950.9, -3e-08
8952.9, -3.234e-08
8954.9, -2.969e-08
8956.9, -3.269e-08
8958.9, -3.145e-08
8961.0, -2.893e-08
8963.0, -3.124e-08
8965.0, -3.152e-08
8967.0, -2.884e-08
8969.0, -2.877e-08
8971.0, -2.691e-08
8973.0, -3.07e-08
8975.0, -3.152e-08
8977.0, -3.347e-08
8979.0, -3.256e-08
8981.0, -3.24e-08
8983.0, -2.753e-08
8985.0, -3.098e-08
8987.0, -3.278e-08
8989.0, -2.853e-08
8991.0, -3.084e-08
8993.0, -2.9e-08
8995.0, -2.917e-08
8997.0, -2.884e-08
8999.0, -3.036e-08
9001.0, -3.085e-08
9003.0, -2.886e-08
9005.0, -2.687e-08
9007.0, -3.026e-08
9009.0, -2.825e-08
9011.0, -3.014e-08
9013.0, -2.871e-08
9015.0, -2.967e-08
9017.0, -2.664e-08
9019.0, -2.843e-08
9021.0, -3.071e-08
9023.0, -2.736e-08
9025.0, -3.153e-08
9027.0, -2.76e-08
9029.0, -2.997e-08
9031.0, -2.573e-08
9033.0, -2.657e-08
9035.0, -2.938e-08
9037.0, -3.158e-08
9039.0, -2.757e-08
9041.0, -2.882e-08
9043.0, -2.859e-08
9045.0, -2.939e-08
9047.0, -3.183e-08
9049.0, -3.266e-08
9051.0, -3.015e-08
9053.0, -3.063e-08
9055.0, -3e-08
9057.0, -3.241e-08
9059.0, -2.924e-08
9061.1, -2.991e-08
9063.1, -2.751e-08
9065.1, -3.015e-08
9067.1, -2.918e-08
9069.1, -2.926e-08
9071.1, -2.953e-08
9073.1, -2.876e-08
9075.1, -3.203e-08
9077.1, -3.129e-08
9079.1, -2.394e-08
9081.1, -2.478e-08
9083.1, -2.532e-08
9085.1, -2.746e-08
9087.1, -2.84e-08
9089.1, -2.918e-08
9091.1, -2.799e-08
9093.1, -2.993e-08
9095.1, -2.318e-08
9097.1, -2.83e-08
9099.1, -2.822e-08
9101.1, -3.081e-08
9103.1, -2.847e-08
9105.1, -3.082e-08
9107.1, -2.929e-08
9109.1, -3.029e-08
9111.1, -2.773e-08
9113.1, -2.8e-08
9115.1, -3.178e-08
9117.1, -2.621e-08
9119.1, -2.676e-08
9121.1, -2.837e-08
9123.1, -2.677e-08
9125.1, -2.827e-08
9127.1, -2.497e-08
9129.1, -2.65e-08
9131.1, -2.327e-08
9133.1, -2.548e-08
9135.1, -2.633e-08
9137.1, -2.627e-08
9139.1, -2.639e-08
9141.1, -2.815e-08
9143.1, -2.676e-08
9145.1, -2.624e-08
9147.1, -2.771e-08
9149.1, -2.701e-08
9151.1, -2.759e-08
9153.1, -2.897e-08
9155.1, -2.917e-08
9157.1, -2.943e-08
9159.1, -2.96e-08
9161.2, -3.037e-08
9163.2, -2.813e-08
9165.2, -2.988e-08
9167.2, -2.682e-08
9169.2, -2.776e-08
9171.2, -2.822e-08
9173.2, -2.791e-08
9175.2, -3.002e-08
9177.2, -3.095e-08
9179.2, -2.832e-08
9181.2, -2.904e-08
9183.2, -3.032e-08
9185.2, -3.178e-08
9187.2, -2.779e-08
9189.2, -2.898e-08
9191.2, -2.985e-08
9193.2, -2.856e-08
9195.2, -2.629e-08
9197.2, -2.871e-08
9199.2, -2.927e-08
9201.2, -2.809e-08
9203.2, -2.929e-08
9205.2, -2.688e-08
9207.2, -2.724e-08
9209.2, -2.596e-08
9211.2, -2.352e-08
9213.2, -2.649e-08
9215.2, -2.664e-08
9217.2, -3.209e-08
9219.2, -2.753e-08
9221.2, -2.941e-08
9223.2, -2.924e-08
9225.2, -3.067e-08
9227.2, -2.833e-08
9229.2, -2.765e-08
9231.2, -2.674e-08
9233.2, -2.852e-08
9235.2, -2.615e-08
9237.2, -2.461e-08
9239.2, -2.368e-08
9241.2, -2.562e-08
9243.2, -2.826e-08
9245.2, -2.349e-08
9247.2, -2.674e-08
9249.2, -2.353e-08
9251.2, -2.648e-08
9253.2, -2.504e-08
9255.2, -2.866e-08
9257.2, -2.958e-08
9259.2, -3.149e-08
9261.3, -2.881e-08
9263.3, -2.796e-08
9265.3, -3.159e-08
9267.3, -2.652e-08
9269.3, -3.105e-08
9271.3, -2.939e-08
9273.3, -2.636e-08
9275.3, -3.008e-08
9277.3, -2.414e-08
9279.3, -3.07e-08
9281.3, -2.929e-08
9283.3, -3.147e-08
9285.3, -2.652e-08
9287.3, -2.92e-08
9289.3, -3.459e-08
9291.3, -3.352e-08
9293.3, -3.142e-08
9295.3, -2.834e-08
9297.3, -2.932e-08
9299.3, -3.159e-08
9301.3, -2.983e-08
9303.3, -2.88e-08
9305.3, -3.164e-08
9307.3, -2.981e-08
9309.3, -2.88e-08
9311.3, -3.038e-08
9313.3, -2.945e-08
9315.3, -2.613e-08
9317.3, -2.914e-08
9319.3, -2.709e-08
9321.3, -2.854e-08
9323.3, -2.779e-08
9325.3, -2.72e-08
9327.3, -2.926e-08
9329.3, -2.973e-08
9331.3, -2.951e-08
9333.3, -3.022e-08
9335.3, -3.021e-08
9337.3, -2.703e-08
9339.3, -2.745e-08
9341.3, -3.037e-08
9343.3, -3.061e-08
9345.3, -3.064e-08
9347.3, -2.737e-08
9349.3, -2.845e-08
9351.3, -2.648e-08
9353.3, -2.708e-08
9355.3, -2.24e-08
9357.3, -2.635e-08
9359.3, -3.101e-08
9361.4, -3.219e-08
9363.4, -2.716e-08
9365.4, -2.995e-08
9367.4, -2.771e-08
9369.4, -2.587e-08
9371.4, -2.679e-08
9373.4, -2.605e-08
9375.4, -2.702e-08
9377.4, -2.87e-08
9379.4, -2.663e-08
9381.4, -2.827e-08
9383.4, -3.084e-08
9385.4, -3.188e-08
9387.4, -3.148e-08
9389.4, -2.979e-08
9391.4, -3.002e-08
9393.4, -2.848e-08
9395.4, -2.778e-08
9397.4, -2.644e-08
9399.4, -2.473e-08
9401.4, -2.743e-08
9403.4, -2.869e-08
9405.4, -2.7e-08
9407.4, -2.702e-08
9409.4, -2.798e-08
9411.4, -3.025e-08
9413.4, -2.646e-08
9415.4, -2.901e-08
9417.4, -2.634e-08
9419.4, -2.676e-08
9421.4, -2.685e-08
9423.4, -2.535e-08
9425.4, -2.634e-08
9427.4, -2.54e-08
9429.4, -2.644e-08
9431.4, -2.551e-08
9433.4, -2.777e-08
9435.4, -3.096e-08
9437.4, -3.065e-08
9439.4, -2.983e-08
9441.4, -2.543e-08
9443.4, -2.591e-08
9445.4, -2.484e-08
9447.4, -2.517e-08
9449.4, -2.446e-08
9451.4, -2.332e-08
9453.4, -2.388e-08
9455.4, -2.178e-08
9457.4, -2.009e-08
9459.4, -2.352e-08
9461.5, -1.904e-08
9463.5, -2.155e-08
9465.5, -2.549e-08
9467.5, -2.515e-08
9469.5, -1.866e-08
9471.5, -2.256e-08
9473.5, -2.425e-08
9475.5, -1.75e-08
9477.5, -1.802e-08
9479.5, -2.017e-08
9481.5, -2.371e-08
9483.5, -2.398e-08
9485.5, -2.472e-08
9487.5, -2.618e-08
9489.5, -2.802e-08
9491.5, -2.368e-08
9493.5, -2.513e-08
9495.5, -2.489e-08
9497.5, -2.658e-08
9499.5, -2.402e-08
9501.5, -2.661e-08
9503.5, -2.314e-08
9505.5, -2.469e-08
9507.5, -2.484e-08
9509.5, -2.743e-08
9511.5, -2.524e-08
9513.5, -2.291e-08
9515.5, -2.464e-08
9517.5, -2.597e-08
9519.5, -2.509e-08
9521.5, -2.488e-08
9523.5, -2.813e-08
9525.5, -2.827e-08
9527.5, -2.96e-08
9529.5, -2.698e-08
9531.5, -2.573e-08
9533.5, -2.449e-08
9535.5, -2.531e-08
9537.5, -2.481e-08
9539.5, -2.573e-08
9541.5, -2.166e-08
9543.5, -2.64e-08
9545.5, -2.715e-08
9547.5, -2.61e-08
9549.5, -2.178e-08
9551.5, -2.269e-08
9553.5, -2.529e-08
9555.5, -2.838e-08
9557.5, -2.705e-08
9559.5, -2.625e-08
9561.6, -2.385e-08
9563.6, -2.418e-08
9565.6, -2.516e-08
9567.6, -2.625e-08
9569.6, -2.439e-08
9571.6, -2.632e-08
9573.6, -2.635e-08
9575.6, -2.409e-08
9577.6, -2.478e-08
9579.6, -2.496e-08
9581.6, -1.944e-08
9583.6, -2.735e-08
9585.6, -2.565e-08
9587.6, -2.716e-08
9589.6, -2.749e-08
9591.6, -2.606e-08
9593.6, -2.443e-08
9595.6, -2.423e-08
9597.6, -2.581e-08
9599.6, -2.556e-08
9601.6, -2.446e-08
9603.6, -2.665e-08
9605.6, -2.614e-08
9607.6, -2.803e-08
9609.6, -2.887e-08
9611.6, -2.754e-08
9613.6, -2.123e-08
9615.6, -2.757e-08
9617.6, -2.529e-08
9619.6, -2.689e-08
9621.6, -2.312e-08
9623.6, -2.384e-08
9625.6, -2.431e-08
9627.6, -2.555e-08
9629.6, -2.666e-08
9631.6, -2.758e-08
9633.6, -2.414e-08
9635.6, -2.643e-08
9637.6, -3.011e-08
9639.6, -2.517e-08
9641.6, -2.647e-08
9643.6, -2.527e-08
9645.6, -2.543e-08
9647.6, -2.966e-08
9649.6, -3.041e-08
9651.6, -3.054e-08
9653.6, -2.71e-08
9655.6, -3.096e-08
9657.6, -2.633e-08
9659.6, -2.724e-08
9661.7, -2.61e-08
9663.7, -2.723e-08
9665.7, -3.288e-08
9667.7, -2.681e-08
9669.7, -2.599e-08
9671.7, -2.809e-08
9673.7, -2.509e-08
9675.7, -2.729e-08
9677.7, -3.178e-08
9679.7, -3.035e-08
9681.7, -3.204e-08
9683.7, -2.484e-08
9685.7, -2.577e-08
9687.7, -2.752e-08
9689.7, -2.446e-08
9691.7, -2.785e-08
9693.7, -2.551e-08
9695.7, -2.594e-08
9697.7, -2.675e-08
9699.7, -2.601e-08
9701.7, -2.588e-08
9703.7, -2.576e-08
9705.7, -2.57e-08
9707.7, -2.758e-08
9709.7, -2.732e-08
9711.7, -2.276e-08
9713.7, -2.5e-08
9715.7, -2.609e-08
9717.7, -2.444e-08
9719.7, -2.61e-08
9721.7, -2.417e-08
9723.7, -2.458e-08
9725.7, -2.458e-08
9727.7, -2.37e-08
9729.7, -2.689e-08
9731.7, -2.741e-08
9733.7, -2.465e-08
9735.7, -2.309e-08
9737.7, -2.06e-08
9739.7, -2.604e-08
9741.7, -2.599e-08
9743.7, -2.684e-08
9745.7, -2.845e-08
9747.7, -2.962e-08
9749.7, -2.876e-08
9751.7, -2.416e-08
9753.7, -2.612e-08
9755.7, -2.515e-08
9757.7, -2.331e-08
9759.7, -2.637e-08
9761.8, -2.097e-08
9763.8, -2.447e-08
9765.8, -2.48e-08
9767.8, -2.197e-08
9769.8, -2.794e-08
9771.8, -2.477e-08
9773.8, -2.503e-08
9775.8, -2.572e-08
9777.8, -2.648e-08
9779.8, -2.629e-08
9781.8, -2.42e-08
9783.8, -2.447e-08
9785.8, -2.444e-08
9787.8, -2.61e-08
9789.8, -2.829e-08
9791.8, -2.476e-08
9793.8, -2.515e-08
9795.8, -2.695e-08
9797.8, -2.553e-08
9799.8, -2.401e-08
9801.8, -2.488e-08
9803.8, -2.173e-08
9805.8, -2.418e-08
9807.8, -2.648e-08
9809.8, -2.634e-08
9811.8, -2.295e-08
9813.8, -2.236e-08
9815.8, -2.587e-08
9817.8, -2.151e-08
9819.8, -2.614e-08
9821.8, -2.694e-08
9823.8, -2.786e-08
9825.8, -2.514e-08
9827.8, -2.371e-08
9829.8, -1.981e-08
9831.8, -2.029e-08
9833.8, -2.381e-08
9835.8, -2.567e-08
9837.8, -2.763e-08
9839.8, -2.305e-08
9841.8, -2.277e-08
9843.8, -2.423e-08
9845.8, -2.238e-08
9847.8, -2.03e-08
9849.8, -2.006e-08
9851.8, -1.885e-08
9853.8, -2.154e-08
9855.8, -2.316e-08
9857.8, -2.145e-08
9859.8, -2.301e-08
9861.9, -2.086e-08
9863.9, -2.526e-08
9865.9, -2.541e-08
9867.9, -2.207e-08
9869.9, -2.164e-08
9871.9, -1.664e-08
9873.9, -1.808e-08
9875.9, -2.063e-08
9877.9, -2.123e-08
9879.9, -2.482e-08
9881.9, -2.035e-08
9883.9, -2.363e-08
9885.9, -2.768e-08
9887.9, -2.734e-08
9889.9, -2.506e-08
9891.9, -2.763e-08
9893.9, -2.679e-08
9895.9, -2.674e-08
9897.9, -2.8e-08
9899.9, -2.25e-08
9901.9, -2.209e-08
9903.9, -2.233e-08
9905.9, -2.283e-08
9907.9, -2.127e-08
9909.9, -1.728e-08
9911.9, -1.756e-08
9913.9, -1.742e-08
9915.9, -2.091e-08
9917.9, -2.072e-08
9919.9, -2.036e-08
9921.9, -2.018e-08
9923.9, -1.912e-08
9925.9, -2.189e-08
9927.9, -2.079e-08
9929.9, -1.664e-08
9931.9, -1.808e-08
9933.9, -1.804e-08
9935.9, -1.583e-08
9937.9, -1.875e-08
9939.9, -1.979e-08
9941.9, -2.061e-08
9943.9, -2.182e-08
9945.9, -2.369e-08
9947.9, -2.299e-08
9949.9, -2.123e-08
9951.9, -1.931e-08
9953.9, -2.506e-08
9955.9, -2.402e-08
9957.9, -2.179e-08
9959.9, -2.558e-08
9962.0, -2.304e-08
9964.0, -2.435e-08
9966.0, -2.158e-08
9968.0, -2.475e-08
9970.0, -2.576e-08
9972.0, -2.249e-08
9974.0, -2.153e-08
9976.0, -2.518e-08
9978.0, -2.613e-08
9980.0, -2.422e-08
9982.0, -2.377e-08
9984.0, -2.373e-08
9986.0, -2.662e-08
9988.0, -2.322e-08
9990.0, -2.617e-08
9992.0, -2.663e-08
9994.0, -2.277e-08
9996.0, -2.136e-08
9998.0, -2.445e-08
10000.0, -2.125e-08
10002.0, -2.365e-08
10004.0, -2.116e-08
10006.0, -1.953e-08
10008.0, -2.294e-08
