Time sep (ms?), Current (A)
0.0, -2.189e-08
2.002, -2.015e-08
4.004, -1.978e-08
6.006, -1.637e-08
8.008, -1.757e-08
10.01, -1.915e-08
12.012, -1.995e-08
14.014, -1.724e-08
16.016, -2.019e-08
18.018, -1.92e-08
20.02, -2.03e-08
22.022, -2.093e-08
24.024, -2.011e-08
26.026, -1.926e-08
28.028, -1.836e-08
30.03, -2.066e-08
32.032, -1.86e-08
34.034, -1.645e-08
36.036, -1.554e-08
38.038, -1.84e-08
40.04, -2.116e-08
42.042, -1.667e-08
44.044, -1.989e-08
46.046, -1.974e-08
48.048, -1.928e-08
50.05, -1.956e-08
52.052, -1.83e-08
54.054, -1.765e-08
56.056, -1.889e-08
58.058, -1.77e-08
60.06, -1.482e-08
62.062, -1.783e-08
64.064, -1.72e-08
66.066, -1.797e-08
68.068, -1.916e-08
70.07, -1.97e-08
72.072, -1.893e-08
74.074, -1.966e-08
76.076, -1.895e-08
78.078, -1.816e-08
80.08, -2.309e-08
82.082, -2.126e-08
84.084, -1.739e-08
86.086, -1.883e-08
88.088, -2.091e-08
90.09, -2.187e-08
92.092, -1.978e-08
94.094, -2.039e-08
96.096, -1.776e-08
98.098, -2.159e-08
100.1, -1.62e-08
102.1, -2.162e-08
104.1, -1.93e-08
106.11, -1.86e-08
108.11, -2.186e-08
110.11, -2.133e-08
112.11, -1.927e-08
114.11, -2.044e-08
116.12, -2.197e-08
118.12, -2.289e-08
120.12, -2.372e-08
122.12, -2.271e-08
124.12, -2.113e-08
126.13, -2.156e-08
128.13, -2.019e-08
130.13, -2.19e-08
132.13, -1.982e-08
134.13, -1.917e-08
136.14, -1.8e-08
138.14, -1.813e-08
140.14, -2.085e-08
142.14, -2.337e-08
144.14, -2.139e-08
146.15, -1.928e-08
148.15, -1.729e-08
150.15, -1.675e-08
152.15, -1.97e-08
154.15, -2.151e-08
156.16, -1.639e-08
158.16, -1.556e-08
160.16, -2.079e-08
162.16, -1.679e-08
164.16, -2.202e-08
166.17, -1.919e-08
168.17, -2.136e-08
170.17, -2.013e-08
172.17, -1.653e-08
174.17, -1.683e-08
176.18, -1.994e-08
178.18, -1.994e-08
180.18, -1.918e-08
182.18, -2.011e-08
184.18, -1.686e-08
186.19, -1.709e-08
188.19, -2.072e-08
190.19, -1.934e-08
192.19, -1.937e-08
194.19, -1.682e-08
196.2, -1.646e-08
198.2, -1.9e-08
200.2, -2.085e-08
202.2, -1.888e-08
204.2, -1.986e-08
206.21, -1.652e-08
208.21, -1.536e-08
210.21, -2.028e-08
212.21, -2.126e-08
214.21, -2.129e-08
216.22, -1.828e-08
218.22, -1.685e-08
220.22, -1.953e-08
222.22, -1.362e-08
224.22, -1.861e-08
226.23, -1.849e-08
228.23, -2.095e-08
230.23, -1.654e-08
232.23, -1.531e-08
234.23, -1.7e-08
236.24, -1.712e-08
238.24, -1.681e-08
240.24, -1.637e-08
242.24, -1.547e-08
244.24, -1.789e-08
246.25, -1.612e-08
248.25, -1.871e-08
250.25, -1.575e-08
252.25, -2.037e-08
254.25, -1.373e-08
256.26, -1.721e-08
258.26, -1.696e-08
260.26, -1.603e-08
262.26, -1.926e-08
264.26, -1.738e-08
266.27, -1.493e-08
268.27, -1.647e-08
270.27, -1.828e-08
272.27, -1.31e-08
274.27, -1.688e-08
276.28, -1.39e-08
278.28, -1.508e-08
280.28, -1.73e-08
282.28, -1.269e-08
284.28, -1.441e-08
286.29, -1.263e-08
288.29, -1.615e-08
290.29, -1.555e-08
292.29, -1.724e-08
294.29, -1.594e-08
296.3, -1.504e-08
298.3, -1.681e-08
300.3, -1.839e-08
302.3, -2.094e-08
304.3, -1.88e-08
306.31, -2.122e-08
308.31, -2.204e-08
310.31, -1.972e-08
312.31, -1.894e-08
314.31, -2.094e-08
316.32, -1.698e-08
318.32, -1.76e-08
320.32, -2.051e-08
322.32, -1.863e-08
324.32, -1.74e-08
326.33, -1.863e-08
328.33, -1.471e-08
330.33, -1.719e-08
332.33, -1.687e-08
334.33, -1.662e-08
336.34, -1.676e-08
338.34, -1.597e-08
340.34, -1.658e-08
342.34, -2.175e-08
344.34, -1.769e-08
346.35, -1.534e-08
348.35, -1.576e-08
350.35, -1.642e-08
352.35, -1.765e-08
354.35, -1.584e-08
356.36, -1.443e-08
358.36, -1.534e-08
360.36, -1.827e-08
362.36, -1.506e-08
364.36, -1.992e-08
366.37, -1.446e-08
368.37, -1.6e-08
370.37, -1.523e-08
372.37, -1.863e-08
374.37, -1.719e-08
376.38, -1.99e-08
378.38, -1.813e-08
380.38, -1.831e-08
382.38, -1.59e-08
384.38, -1.749e-08
386.39, -1.928e-08
388.39, -1.768e-08
390.39, -1.794e-08
392.39, -1.589e-08
394.39, -1.931e-08
396.4, -1.474e-08
398.4, -1.726e-08
400.4, -1.719e-08
402.4, -1.339e-08
404.4, -2.04e-08
406.41, -2.026e-08
408.41, -2.082e-08
410.41, -2.008e-08
412.41, -2.044e-08
414.41, -1.762e-08
416.42, -1.853e-08
418.42, -1.47e-08
420.42, -1.718e-08
422.42, -1.805e-08
424.42, -1.66e-08
426.43, -1.832e-08
428.43, -1.546e-08
430.43, -2.026e-08
432.43, -1.751e-08
434.43, -1.471e-08
436.44, -1.859e-08
438.44, -1.425e-08
440.44, -1.565e-08
442.44, -1.658e-08
444.44, -1.443e-08
446.45, -1.84e-08
448.45, -1.564e-08
450.45, -1.96e-08
452.45, -2.065e-08
454.45, -1.93e-08
456.46, -1.874e-08
458.46, -2.031e-08
460.46, -1.938e-08
462.46, -2.252e-08
464.46, -1.829e-08
466.47, -2.134e-08
468.47, -1.952e-08
470.47, -1.987e-08
472.47, -1.724e-08
474.47, -1.895e-08
476.48, -1.424e-08
478.48, -1.525e-08
480.48, -1.64e-08
482.48, -1.637e-08
484.48, -1.646e-08
486.49, -1.487e-08
488.49, -1.598e-08
490.49, -1.446e-08
492.49, -1.928e-08
494.49, -1.724e-08
496.5, -1.605e-08
498.5, -1.714e-08
500.5, -1.746e-08
502.5, -2.003e-08
504.5, -1.777e-08
506.51, -1.74e-08
508.51, -2.051e-08
510.51, -1.923e-08
512.51, -1.86e-08
514.51, -1.749e-08
516.52, -1.854e-08
518.52, -1.58e-08
520.52, -1.419e-08
522.52, -1.423e-08
524.52, -1.909e-08
526.53, -1.65e-08
528.53, -1.815e-08
530.53, -1.999e-08
532.53, -1.819e-08
534.53, -1.782e-08
536.54, -1.853e-08
538.54, -2.06e-08
540.54, -2.025e-08
542.54, -1.974e-08
544.54, -1.833e-08
546.55, -2.047e-08
548.55, -2.231e-08
550.55, -2.169e-08
552.55, -2.538e-08
554.55, -2.324e-08
556.56, -2.333e-08
558.56, -2.213e-08
560.56, -2.255e-08
562.56, -2.301e-08
564.56, -2.177e-08
566.57, -2.394e-08
568.57, -2.284e-08
570.57, -2.279e-08
572.57, -2.1e-08
574.57, -1.816e-08
576.58, -1.817e-08
578.58, -2.055e-08
580.58, -2.352e-08
582.58, -2.571e-08
584.58, -2.367e-08
586.59, -2.356e-08
588.59, -2.346e-08
590.59, -2.172e-08
592.59, -2.277e-08
594.59, -2.115e-08
596.6, -2.302e-08
598.6, -2.212e-08
600.6, -2.085e-08
602.6, -1.994e-08
604.6, -1.683e-08
606.61, -1.513e-08
608.61, -1.429e-08
610.61, -1.428e-08
612.61, -1.753e-08
614.61, -1.264e-08
616.62, -1.804e-08
618.62, -1.849e-08
620.62, -2.157e-08
622.62, -1.743e-08
624.62, -1.894e-08
626.63, -1.915e-08
628.63, -1.729e-08
630.63, -2.046e-08
632.63, -1.828e-08
634.63, -1.869e-08
636.64, -2.126e-08
638.64, -2.108e-08
640.64, -1.844e-08
642.64, -2.237e-08
644.64, -2.382e-08
646.65, -2.466e-08
648.65, -2.239e-08
650.65, -2.117e-08
652.65, -2.23e-08
654.65, -2.158e-08
656.66, -2.306e-08
658.66, -2.044e-08
660.66, -2.087e-08
662.66, -1.784e-08
664.66, -2.227e-08
666.67, -2.091e-08
668.67, -2.004e-08
670.67, -1.913e-08
672.67, -1.95e-08
674.67, -2.203e-08
676.68, -2.173e-08
678.68, -2.234e-08
680.68, -2.218e-08
682.68, -2.294e-08
684.68, -1.927e-08
686.69, -2.302e-08
688.69, -2.017e-08
690.69, -1.903e-08
692.69, -2.385e-08
694.69, -2.638e-08
696.7, -2.338e-08
698.7, -2.464e-08
700.7, -2.443e-08
702.7, -2.297e-08
704.7, -2.202e-08
706.71, -2.286e-08
708.71, -2.378e-08
710.71, -2.336e-08
712.71, -2.017e-08
714.71, -2.221e-08
716.72, -1.9e-08
718.72, -2.158e-08
720.72, -1.957e-08
722.72, -2.303e-08
724.72, -2.111e-08
726.73, -2.117e-08
728.73, -2.154e-08
730.73, -1.944e-08
732.73, -2.04e-08
734.73, -2.092e-08
736.74, -1.955e-08
738.74, -1.983e-08
740.74, -1.905e-08
742.74, -2.022e-08
744.74, -1.688e-08
746.75, -1.591e-08
748.75, -1.803e-08
750.75, -1.907e-08
752.75, -1.745e-08
754.75, -1.649e-08
756.76, -1.806e-08
758.76, -1.358e-08
760.76, -1.468e-08
762.76, -1.583e-08
764.76, -2.028e-08
766.77, -2.188e-08
768.77, -2.098e-08
770.77, -2.275e-08
772.77, -2.33e-08
774.77, -1.904e-08
776.78, -1.947e-08
778.78, -2.072e-08
780.78, -1.61e-08
782.78, -2.191e-08
784.78, -1.927e-08
786.79, -2.041e-08
788.79, -1.86e-08
790.79, -2.23e-08
792.79, -1.872e-08
794.79, -1.877e-08
796.8, -2.061e-08
798.8, -2.122e-08
800.8, -1.945e-08
802.8, -1.818e-08
804.8, -2.085e-08
806.81, -1.778e-08
808.81, -2.086e-08
810.81, -1.576e-08
812.81, -1.83e-08
814.81, -1.927e-08
816.82, -2.11e-08
818.82, -1.468e-08
820.82, -2.058e-08
822.82, -1.992e-08
824.82, -2.223e-08
826.83, -1.906e-08
828.83, -2.226e-08
830.83, -2.346e-08
832.83, -1.999e-08
834.83, -2.088e-08
836.84, -1.486e-08
838.84, -1.922e-08
840.84, -1.956e-08
842.84, -1.918e-08
844.84, -1.897e-08
846.85, -1.409e-08
848.85, -1.822e-08
850.85, -2.063e-08
852.85, -1.283e-08
854.85, -2.092e-08
856.86, -2.062e-08
858.86, -1.826e-08
860.86, -1.945e-08
862.86, -1.845e-08
864.86, -2.185e-08
866.87, -2.077e-08
868.87, -2.122e-08
870.87, -1.704e-08
872.87, -2.056e-08
874.87, -1.671e-08
876.88, -1.978e-08
878.88, -1.711e-08
880.88, -1.697e-08
882.88, -1.703e-08
884.88, -2.262e-08
886.89, -1.618e-08
888.89, -1.53e-08
890.89, -1.826e-08
892.89, -1.749e-08
894.89, -1.837e-08
896.9, -1.996e-08
898.9, -2.085e-08
900.9, -2.218e-08
902.9, -2.169e-08
904.9, -1.805e-08
906.91, -2.156e-08
908.91, -2.381e-08
910.91, -2.016e-08
912.91, -1.849e-08
914.91, -1.536e-08
916.92, -1.992e-08
918.92, -1.916e-08
920.92, -1.978e-08
922.92, -2.442e-08
924.92, -2.05e-08
926.93, -1.707e-08
928.93, -2.054e-08
930.93, -2.061e-08
932.93, -2.018e-08
934.93, -2.032e-08
936.94, -1.987e-08
938.94, -1.821e-08
940.94, -1.924e-08
942.94, -1.846e-08
944.94, -1.548e-08
946.95, -1.423e-08
948.95, -1.766e-08
950.95, -1.817e-08
952.95, -2.053e-08
954.95, -1.946e-08
956.96, -2.006e-08
958.96, -1.931e-08
960.96, -2.069e-08
962.96, -1.988e-08
964.96, -2.017e-08
966.97, -1.739e-08
968.97, -2.359e-08
970.97, -1.978e-08
972.97, -2.133e-08
974.97, -2.443e-08
976.98, -2.44e-08
978.98, -2.46e-08
980.98, -2.376e-08
982.98, -2.147e-08
984.98, -2.215e-08
986.99, -2.22e-08
988.99, -2.339e-08
990.99, -2.337e-08
992.99, -2.439e-08
994.99, -2.659e-08
997.0, -1.945e-08
999.0, -2.085e-08
1001.0, -2.29e-08
1003.0, -2.284e-08
1005.0, -2.217e-08
1007.0, -2.699e-08
1009.0, -2.407e-08
1011.0, -2.065e-08
1013.0, -1.985e-08
1015.0, -1.782e-08
1017.0, -2.003e-08
1019.0, -2.17e-08
1021.0, -2.137e-08
1023.0, -2.025e-08
1025.0, -2.179e-08
1027.0, -1.937e-08
1029.0, -1.98e-08
1031.0, -2.077e-08
1033.0, -2.023e-08
1035.0, -2.004e-08
1037.0, -1.989e-08
1039.0, -1.843e-08
1041.0, -2.042e-08
1043.0, -1.806e-08
1045.0, -1.613e-08
1047.0, -1.915e-08
1049.0, -2.086e-08
1051.0, -2.21e-08
1053.1, -2.229e-08
1055.1, -2.033e-08
1057.1, -2.325e-08
1059.1, -1.938e-08
1061.1, -2.731e-08
1063.1, -2.402e-08
1065.1, -2.088e-08
1067.1, -2.273e-08
1069.1, -2.312e-08
1071.1, -2.598e-08
1073.1, -2.149e-08
1075.1, -1.955e-08
1077.1, -1.641e-08
1079.1, -1.776e-08
1081.1, -1.691e-08
1083.1, -1.95e-08
1085.1, -2.229e-08
1087.1, -1.924e-08
1089.1, -2.036e-08
1091.1, -1.961e-08
1093.1, -2.192e-08
1095.1, -1.922e-08
1097.1, -2.583e-08
1099.1, -2.25e-08
1101.1, -2.298e-08
1103.1, -2.459e-08
1105.1, -2.008e-08
1107.1, -2.028e-08
1109.1, -2.272e-08
1111.1, -2.014e-08
1113.1, -2.421e-08
1115.1, -2.269e-08
1117.1, -2.07e-08
1119.1, -2.36e-08
1121.1, -2.253e-08
1123.1, -2.074e-08
1125.1, -2.231e-08
1127.1, -2.399e-08
1129.1, -2.093e-08
1131.1, -2.462e-08
1133.1, -2.433e-08
1135.1, -2.543e-08
1137.1, -2.271e-08
1139.1, -2.203e-08
1141.1, -2.362e-08
1143.1, -1.991e-08
1145.1, -2.49e-08
1147.1, -2.401e-08
1149.1, -2.16e-08
1151.1, -2.322e-08
1153.2, -2.131e-08
1155.2, -2.202e-08
1157.2, -1.828e-08
1159.2, -1.997e-08
1161.2, -2.099e-08
1163.2, -2.275e-08
1165.2, -1.968e-08
1167.2, -1.758e-08
1169.2, -1.538e-08
1171.2, -1.587e-08
1173.2, -1.988e-08
1175.2, -1.863e-08
1177.2, -2.414e-08
1179.2, -1.862e-08
1181.2, -2.204e-08
1183.2, -2.027e-08
1185.2, -1.549e-08
1187.2, -1.64e-08
1189.2, -1.683e-08
1191.2, -1.922e-08
1193.2, -1.863e-08
1195.2, -1.671e-08
1197.2, -1.622e-08
1199.2, -2.111e-08
1201.2, -2.047e-08
1203.2, -1.791e-08
1205.2, -2.209e-08
1207.2, -1.849e-08
1209.2, -1.777e-08
1211.2, -1.901e-08
1213.2, -1.668e-08
1215.2, -1.937e-08
1217.2, -1.994e-08
1219.2, -1.969e-08
1221.2, -2.096e-08
1223.2, -1.913e-08
1225.2, -2.232e-08
1227.2, -2.122e-08
1229.2, -2.079e-08
1231.2, -2.297e-08
1233.2, -2.433e-08
1235.2, -2.383e-08
1237.2, -2.076e-08
1239.2, -2.043e-08
1241.2, -2.325e-08
1243.2, -2.102e-08
1245.2, -1.681e-08
1247.2, -2.151e-08
1249.2, -1.902e-08
1251.2, -2.114e-08
1253.3, -1.984e-08
1255.3, -1.951e-08
1257.3, -1.956e-08
1259.3, -1.84e-08
1261.3, -2.179e-08
1263.3, -1.947e-08
1265.3, -2.04e-08
1267.3, -2.353e-08
1269.3, -2.502e-08
1271.3, -2.481e-08
1273.3, -2.247e-08
1275.3, -2.133e-08
1277.3, -2.318e-08
1279.3, -2.215e-08
1281.3, -2.339e-08
1283.3, -2.279e-08
1285.3, -1.98e-08
1287.3, -1.807e-08
1289.3, -2.154e-08
1291.3, -2.078e-08
1293.3, -1.979e-08
1295.3, -1.799e-08
1297.3, -2.057e-08
1299.3, -2.154e-08
1301.3, -2.194e-08
1303.3, -2.297e-08
1305.3, -1.913e-08
1307.3, -1.715e-08
1309.3, -2.329e-08
1311.3, -2.574e-08
1313.3, -2.272e-08
1315.3, -2.1e-08
1317.3, -2.113e-08
1319.3, -2.114e-08
1321.3, -2.664e-08
1323.3, -2.223e-08
1325.3, -1.887e-08
1327.3, -2.252e-08
1329.3, -2.23e-08
1331.3, -2.304e-08
1333.3, -2.434e-08
1335.3, -2.245e-08
1337.3, -2.375e-08
1339.3, -2.417e-08
1341.3, -2.311e-08
1343.3, -2.367e-08
1345.3, -2.433e-08
1347.3, -2.136e-08
1349.3, -2.217e-08
1351.3, -2.12e-08
1353.4, -1.953e-08
1355.4, -2.216e-08
1357.4, -2.339e-08
1359.4, -2.582e-08
1361.4, -2.071e-08
1363.4, -2.303e-08
1365.4, -1.837e-08
1367.4, -2.118e-08
1369.4, -1.934e-08
1371.4, -2.195e-08
1373.4, -1.92e-08
1375.4, -1.619e-08
1377.4, -2.062e-08
1379.4, -2.069e-08
1381.4, -2.402e-08
1383.4, -1.798e-08
1385.4, -1.653e-08
1387.4, -2.053e-08
1389.4, -2.102e-08
1391.4, -2.069e-08
1393.4, -2.343e-08
1395.4, -1.797e-08
1397.4, -2.004e-08
1399.4, -2.271e-08
1401.4, -2.102e-08
1403.4, -2.142e-08
1405.4, -1.845e-08
1407.4, -2.141e-08
1409.4, -2.152e-08
1411.4, -1.986e-08
1413.4, -1.998e-08
1415.4, -1.897e-08
1417.4, -2.087e-08
1419.4, -2.256e-08
1421.4, -2.389e-08
1423.4, -1.827e-08
1425.4, -2.105e-08
1427.4, -2.084e-08
1429.4, -2.078e-08
1431.4, -1.779e-08
1433.4, -2.178e-08
1435.4, -2.214e-08
1437.4, -2.069e-08
1439.4, -2.158e-08
1441.4, -2.016e-08
1443.4, -2.276e-08
1445.4, -2.334e-08
1447.4, -2.323e-08
1449.4, -2.195e-08
1451.4, -2.319e-08
1453.5, -2.384e-08
1455.5, -2.098e-08
1457.5, -2.076e-08
1459.5, -2.25e-08
1461.5, -2.084e-08
1463.5, -2.36e-08
1465.5, -2.121e-08
1467.5, -2.21e-08
1469.5, -1.907e-08
1471.5, -1.774e-08
1473.5, -1.93e-08
1475.5, -2.145e-08
1477.5, -1.998e-08
1479.5, -2.2e-08
1481.5, -1.868e-08
1483.5, -2.22e-08
1485.5, -1.842e-08
1487.5, -1.861e-08
1489.5, -2.083e-08
1491.5, -2.117e-08
1493.5, -2.62e-08
1495.5, -2.317e-08
1497.5, -1.871e-08
1499.5, -2.074e-08
1501.5, -2.466e-08
1503.5, -2.447e-08
1505.5, -2.033e-08
1507.5, -1.987e-08
1509.5, -2.051e-08
1511.5, -2.217e-08
1513.5, -1.907e-08
1515.5, -2.281e-08
1517.5, -2.467e-08
1519.5, -2.337e-08
1521.5, -2.47e-08
1523.5, -2.291e-08
1525.5, -2.195e-08
1527.5, -2.073e-08
1529.5, -2.482e-08
1531.5, -2.478e-08
1533.5, -2.53e-08
1535.5, -2.278e-08
1537.5, -2.21e-08
1539.5, -2.008e-08
1541.5, -2.651e-08
1543.5, -2.512e-08
1545.5, -3.13e-08
1547.5, -2.739e-08
1549.5, -2.539e-08
1551.5, -2.499e-08
1553.6, -2.432e-08
1555.6, -2.639e-08
1557.6, -2.395e-08
1559.6, -2.364e-08
1561.6, -2.214e-08
1563.6, -2.495e-08
1565.6, -2.091e-08
1567.6, -2.442e-08
1569.6, -2.173e-08
1571.6, -2.136e-08
1573.6, -2.463e-08
1575.6, -2.498e-08
1577.6, -2.619e-08
1579.6, -2.227e-08
1581.6, -2.167e-08
1583.6, -2.643e-08
1585.6, -2.89e-08
1587.6, -2.566e-08
1589.6, -2.825e-08
1591.6, -2.728e-08
1593.6, -2.393e-08
1595.6, -2.636e-08
1597.6, -2.395e-08
1599.6, -2.38e-08
1601.6, -2.632e-08
1603.6, -2.845e-08
1605.6, -2.065e-08
1607.6, -2.078e-08
1609.6, -2.635e-08
1611.6, -2.172e-08
1613.6, -2.086e-08
1615.6, -2.338e-08
1617.6, -2.124e-08
1619.6, -2.167e-08
1621.6, -2.443e-08
1623.6, -2.776e-08
1625.6, -2.63e-08
1627.6, -2.184e-08
1629.6, -2.541e-08
1631.6, -2.005e-08
1633.6, -2.074e-08
1635.6, -2.033e-08
1637.6, -1.745e-08
1639.6, -2.153e-08
1641.6, -1.866e-08
1643.6, -2.276e-08
1645.6, -2.176e-08
1647.6, -2.35e-08
1649.6, -1.911e-08
1651.6, -2.503e-08
1653.7, -2.059e-08
1655.7, -2.053e-08
1657.7, -2.196e-08
1659.7, -2.116e-08
1661.7, -2.026e-08
1663.7, -2.555e-08
1665.7, -2.168e-08
1667.7, -2.088e-08
1669.7, -2.251e-08
1671.7, -2.412e-08
1673.7, -2.327e-08
1675.7, -2.082e-08
1677.7, -2.475e-08
1679.7, -2.451e-08
1681.7, -2.247e-08
1683.7, -2.6e-08
1685.7, -2.119e-08
1687.7, -1.833e-08
1689.7, -2.705e-08
1691.7, -2.547e-08
1693.7, -2.164e-08
1695.7, -2.318e-08
1697.7, -2.024e-08
1699.7, -2.352e-08
1701.7, -2.23e-08
1703.7, -2.34e-08
1705.7, -2.299e-08
1707.7, -2.167e-08
1709.7, -2.43e-08
1711.7, -2.253e-08
1713.7, -2.46e-08
1715.7, -2.262e-08
1717.7, -1.953e-08
1719.7, -2.048e-08
1721.7, -2.22e-08
1723.7, -2.64e-08
1725.7, -2.54e-08
1727.7, -2.372e-08
1729.7, -2.287e-08
1731.7, -2.456e-08
1733.7, -2.426e-08
1735.7, -2.334e-08
1737.7, -2.498e-08
1739.7, -2.418e-08
1741.7, -2.114e-08
1743.7, -2.053e-08
1745.7, -2.246e-08
1747.7, -2.161e-08
1749.7, -2.09e-08
1751.7, -2.027e-08
1753.8, -2.058e-08
1755.8, -2.257e-08
1757.8, -2.253e-08
1759.8, -1.917e-08
1761.8, -2.292e-08
1763.8, -2.339e-08
1765.8, -2.509e-08
1767.8, -1.769e-08
1769.8, -1.866e-08
1771.8, -2.328e-08
1773.8, -2.276e-08
1775.8, -2.326e-08
1777.8, -2.329e-08
1779.8, -2.174e-08
1781.8, -2.419e-08
1783.8, -2.502e-08
1785.8, -2.544e-08
1787.8, -2.376e-08
1789.8, -2.137e-08
1791.8, -2.05e-08
1793.8, -2.269e-08
1795.8, -2.137e-08
1797.8, -1.964e-08
1799.8, -2.372e-08
1801.8, -2.849e-08
1803.8, -2.727e-08
1805.8, -2.95e-08
1807.8, -2.408e-08
1809.8, -2.105e-08
1811.8, -2.176e-08
1813.8, -2.488e-08
1815.8, -2.647e-08
1817.8, -2.427e-08
1819.8, -2.3e-08
1821.8, -2.002e-08
1823.8, -2.558e-08
1825.8, -2.697e-08
1827.8, -2.555e-08
1829.8, -2.433e-08
1831.8, -3.009e-08
1833.8, -2.633e-08
1835.8, -2.573e-08
1837.8, -2.618e-08
1839.8, 7.004e-08
1841.8, 1.5457e-07
1843.8, 1.3637e-07
1845.8, 1.6084e-07
1847.8, 1.4623e-07
1849.8, 1.1851e-07
1851.8, 1.1409e-07
1853.9, 1.4006e-07
1855.9, 1.2578e-07
1857.9, 1.4029e-07
1859.9, 1.2766e-07
1861.9, 1.3863e-07
1863.9, 1.4336e-07
1865.9, 1.1386e-07
1867.9, 1.1989e-07
1869.9, 1.6522e-07
1871.9, 1.2112e-07
1873.9, 1.3747e-07
1875.9, 1.2472e-07
1877.9, 1.483e-07
1879.9, 1.314e-07
1881.9, 1.4049e-07
1883.9, 1.3522e-07
1885.9, 1.6889e-07
1887.9, 1.54e-07
1889.9, 1.6314e-07
1891.9, 1.2458e-07
1893.9, 1.5526e-07
1895.9, 1.7737e-07
1897.9, 1.6458e-07
1899.9, 1.4988e-07
1901.9, 1.6594e-07
1903.9, 1.858e-07
1905.9, 1.4576e-07
1907.9, 1.409e-07
1909.9, 1.4878e-07
1911.9, 1.611e-07
1913.9, 1.4249e-07
1915.9, 1.4654e-07
1917.9, 1.6602e-07
1919.9, 1.6481e-07
1921.9, 1.6084e-07
1923.9, 1.5284e-07
1925.9, 1.4668e-07
1927.9, 1.643e-07
1929.9, 1.4859e-07
1931.9, 1.237e-07
1933.9, 1.6928e-07
1935.9, 1.4313e-07
1937.9, 1.6242e-07
1939.9, 1.4405e-07
1941.9, 1.6155e-07
1943.9, 1.5624e-07
1945.9, 1.5544e-07
1947.9, 1.9093e-07
1949.9, 1.7388e-07
1951.9, 1.5012e-07
1954.0, 1.5108e-07
1956.0, 1.59e-07
1958.0, 1.5826e-07
1960.0, 2.1893e-07
1962.0, 1.4368e-07
1964.0, 1.6341e-07
1966.0, 1.718e-07
1968.0, 1.4999e-07
1970.0, 1.4397e-07
1972.0, 2.1216e-07
1974.0, 1.3414e-07
1976.0, 1.4873e-07
1978.0, 1.8363e-07
1980.0, 1.6154e-07
1982.0, 1.6332e-07
1984.0, 1.7148e-07
1986.0, 1.6106e-07
1988.0, 1.9004e-07
1990.0, 1.7364e-07
1992.0, 1.5927e-07
1994.0, 1.6725e-07
1996.0, 1.5577e-07
1998.0, 1.9751e-07
2000.0, 1.8575e-07
2002.0, 1.7437e-07
2004.0, 1.5818e-07
2006.0, 1.7227e-07
2008.0, 1.8728e-07
2010.0, 2.1717e-07
2012.0, 1.9688e-07
2014.0, 1.7911e-07
2016.0, 1.6031e-07
2018.0, 1.8073e-07
2020.0, 1.4057e-07
2022.0, 1.9426e-07
2024.0, 1.5001e-07
2026.0, 1.6622e-07
2028.0, 1.4802e-07
2030.0, 2.1019e-07
2032.0, 1.4652e-07
2034.0, 1.9134e-07
2036.0, 1.7001e-07
2038.0, 1.4611e-07
2040.0, 1.5429e-07
2042.0, 1.848e-07
2044.0, 1.5396e-07
2046.0, 1.4648e-07
2048.0, 1.4651e-07
2050.0, 1.5381e-07
2052.0, 1.4072e-07
2054.1, 1.5383e-07
2056.1, 1.9292e-07
2058.1, 1.6263e-07
2060.1, 1.8589e-07
2062.1, 1.7155e-07
2064.1, 1.9623e-07
2066.1, 1.5895e-07
2068.1, 1.3717e-07
2070.1, 1.4411e-07
2072.1, 1.9359e-07
2074.1, 1.5445e-07
2076.1, 1.4274e-07
2078.1, 1.7271e-07
2080.1, 1.637e-07
2082.1, 1.7453e-07
2084.1, 1.5795e-07
2086.1, 1.4062e-07
2088.1, 1.8993e-07
2090.1, 1.7205e-07
2092.1, 1.5635e-07
2094.1, 1.8308e-07
2096.1, 1.7009e-07
2098.1, 1.3939e-07
2100.1, 1.7863e-07
2102.1, 1.6341e-07
2104.1, 1.6525e-07
2106.1, 1.8177e-07
2108.1, 1.4386e-07
2110.1, 1.6191e-07
2112.1, 1.6267e-07
2114.1, 1.7835e-07
2116.1, 2.0477e-07
2118.1, 1.7913e-07
2120.1, 1.7718e-07
2122.1, 1.5786e-07
2124.1, 1.9667e-07
2126.1, 1.5208e-07
2128.1, 1.8813e-07
2130.1, 1.7554e-07
2132.1, 1.6519e-07
2134.1, 1.9808e-07
2136.1, 1.304e-07
2138.1, 1.9338e-07
2140.1, 1.359e-07
2142.1, 1.4447e-07
2144.1, 1.6552e-07
2146.1, 1.5618e-07
2148.1, 1.4965e-07
2150.1, 1.7495e-07
2152.1, 1.9339e-07
2154.2, 1.6239e-07
2156.2, 1.7996e-07
2158.2, 1.6151e-07
2160.2, 1.5768e-07
2162.2, 1.6683e-07
2164.2, 1.5145e-07
2166.2, 1.9525e-07
2168.2, 1.8585e-07
2170.2, 1.8617e-07
2172.2, 1.4976e-07
2174.2, 1.8713e-07
2176.2, 1.6139e-07
2178.2, 1.4642e-07
2180.2, 1.6123e-07
2182.2, 1.7509e-07
2184.2, 1.884e-07
2186.2, 1.6308e-07
2188.2, 1.6023e-07
2190.2, 1.7215e-07
2192.2, 1.6099e-07
2194.2, 1.8128e-07
2196.2, 1.3417e-07
2198.2, 1.7603e-07
2200.2, 1.8242e-07
2202.2, 1.8494e-07
2204.2, 1.6266e-07
2206.2, 1.5071e-07
2208.2, 1.5812e-07
2210.2, 1.6423e-07
2212.2, 1.5059e-07
2214.2, 1.9323e-07
2216.2, 1.7364e-07
2218.2, 1.7527e-07
2220.2, 1.5264e-07
2222.2, 1.6241e-07
2224.2, 1.6527e-07
2226.2, 1.8299e-07
2228.2, 1.5384e-07
2230.2, 1.7287e-07
2232.2, 1.4511e-07
2234.2, 1.4017e-07
2236.2, 1.7132e-07
2238.2, 1.717e-07
2240.2, 1.8052e-07
2242.2, 1.5077e-07
2244.2, 1.884e-07
2246.2, 1.7444e-07
2248.2, 1.7889e-07
2250.2, 1.8431e-07
2252.2, 1.6152e-07
2254.3, 1.5605e-07
2256.3, 1.7811e-07
2258.3, 1.52e-07
2260.3, 1.8455e-07
2262.3, 1.3434e-07
2264.3, 1.8528e-07
2266.3, 1.5939e-07
2268.3, 1.6962e-07
2270.3, 1.7189e-07
2272.3, 1.808e-07
2274.3, 1.7069e-07
2276.3, 2.0498e-07
2278.3, 1.4929e-07
2280.3, 1.6502e-07
2282.3, 2.1112e-07
2284.3, 1.8539e-07
2286.3, 1.9556e-07
2288.3, 2.0231e-07
2290.3, 1.5601e-07
2292.3, 1.8406e-07
2294.3, 1.58e-07
2296.3, 1.6113e-07
2298.3, 1.7965e-07
2300.3, 1.9448e-07
2302.3, 1.7992e-07
2304.3, 1.6555e-07
2306.3, 1.8366e-07
2308.3, 1.8488e-07
2310.3, 1.9203e-07
2312.3, 2.0379e-07
2314.3, 1.594e-07
2316.3, 1.6758e-07
2318.3, 1.8724e-07
2320.3, 1.7753e-07
2322.3, 1.809e-07
2324.3, 1.8671e-07
2326.3, 1.765e-07
2328.3, 1.5843e-07
2330.3, 1.8898e-07
2332.3, 1.8487e-07
2334.3, 1.6859e-07
2336.3, 1.7053e-07
2338.3, 1.5495e-07
2340.3, 1.6529e-07
2342.3, 1.6614e-07
2344.3, 1.9654e-07
2346.3, 1.5816e-07
2348.3, 1.5449e-07
2350.3, 1.5307e-07
2352.3, 1.6172e-07
2354.4, 1.6383e-07
2356.4, 1.6475e-07
2358.4, 1.7799e-07
2360.4, 1.5552e-07
2362.4, 2.0397e-07
2364.4, 1.827e-07
2366.4, 1.7085e-07
2368.4, 1.4795e-07
2370.4, 1.8644e-07
2372.4, 1.9569e-07
2374.4, 1.6405e-07
2376.4, 1.8116e-07
2378.4, 2.2765e-07
2380.4, 1.7834e-07
2382.4, 2.0507e-07
2384.4, 1.9927e-07
2386.4, 1.9052e-07
2388.4, 2.036e-07
2390.4, 2.1849e-07
2392.4, 1.7015e-07
2394.4, 1.7316e-07
2396.4, 1.8957e-07
2398.4, 2.4457e-07
2400.4, 1.6368e-07
2402.4, 1.5189e-07
2404.4, 1.75e-07
2406.4, 1.6333e-07
2408.4, 1.7593e-07
2410.4, 2.0177e-07
2412.4, 1.5972e-07
2414.4, 2.0702e-07
2416.4, 1.5237e-07
2418.4, 1.7794e-07
2420.4, 1.9014e-07
2422.4, 1.8622e-07
2424.4, 1.6357e-07
2426.4, 1.4813e-07
2428.4, 2.2781e-07
2430.4, 1.6583e-07
2432.4, 1.8418e-07
2434.4, 1.9232e-07
2436.4, 1.9049e-07
2438.4, 1.5227e-07
2440.4, 1.7125e-07
2442.4, 1.6831e-07
2444.4, 1.4359e-07
2446.4, 2.0839e-07
2448.4, 1.8763e-07
2450.4, 1.7725e-07
2452.4, 1.9255e-07
2454.5, 1.7462e-07
2456.5, 1.2512e-07
2458.5, 1.4398e-07
2460.5, 1.7175e-07
2462.5, 1.5421e-07
2464.5, 1.6204e-07
2466.5, 1.8699e-07
2468.5, 1.5343e-07
2470.5, 1.7539e-07
2472.5, 1.6729e-07
2474.5, 1.7905e-07
2476.5, 1.6634e-07
2478.5, 1.7547e-07
2480.5, 1.8212e-07
2482.5, 2.0388e-07
2484.5, 1.6548e-07
2486.5, 1.7503e-07
2488.5, 1.7778e-07
2490.5, 1.6532e-07
2492.5, 1.9391e-07
2494.5, 1.8386e-07
2496.5, 2.0092e-07
2498.5, 1.7991e-07
2500.5, 1.8216e-07
2502.5, 1.6824e-07
2504.5, 1.6979e-07
2506.5, 1.7996e-07
2508.5, 1.6046e-07
2510.5, 1.642e-07
2512.5, 1.4931e-07
2514.5, 1.6707e-07
2516.5, 2.1025e-07
2518.5, 1.8453e-07
2520.5, 1.961e-07
2522.5, 1.5529e-07
2524.5, 1.6337e-07
2526.5, 1.7719e-07
2528.5, 1.5286e-07
2530.5, 2.1725e-07
2532.5, 2.0599e-07
2534.5, 1.964e-07
2536.5, 1.9297e-07
2538.5, 1.6725e-07
2540.5, 2.0867e-07
2542.5, 2.163e-07
2544.5, 1.5413e-07
2546.5, 2.1094e-07
2548.5, 2.0203e-07
2550.5, 1.6507e-07
2552.5, 2.0924e-07
2554.6, 1.9175e-07
2556.6, 1.9339e-07
2558.6, 1.946e-07
2560.6, 1.8181e-07
2562.6, 1.5296e-07
2564.6, 2.0968e-07
2566.6, 1.7448e-07
2568.6, 1.7456e-07
2570.6, 1.8604e-07
2572.6, 1.8377e-07
2574.6, 1.9509e-07
2576.6, 2.0617e-07
2578.6, 1.8714e-07
2580.6, 1.6714e-07
2582.6, 2.074e-07
2584.6, 1.9412e-07
2586.6, 1.6443e-07
2588.6, 1.7522e-07
2590.6, 2.0324e-07
2592.6, 1.6202e-07
2594.6, 1.9031e-07
2596.6, 2.0956e-07
2598.6, 1.9326e-07
2600.6, 2.076e-07
2602.6, 1.5605e-07
2604.6, 1.6864e-07
2606.6, 1.7629e-07
2608.6, 1.7748e-07
2610.6, 2.1146e-07
2612.6, 1.9981e-07
2614.6, 2.0269e-07
2616.6, 2.1078e-07
2618.6, 1.9328e-07
2620.6, 2.2325e-07
2622.6, 1.6078e-07
2624.6, 1.9654e-07
2626.6, 1.7323e-07
2628.6, 1.6698e-07
2630.6, 1.8153e-07
2632.6, 1.7775e-07
2634.6, 2.3939e-07
2636.6, 1.6879e-07
2638.6, 1.7544e-07
2640.6, 1.8891e-07
2642.6, 1.667e-07
2644.6, 2.1007e-07
2646.6, 1.8183e-07
2648.6, 1.7973e-07
2650.6, 1.837e-07
2652.6, 1.6498e-07
2654.7, 2.186e-07
2656.7, 1.749e-07
2658.7, 1.8902e-07
2660.7, 1.9184e-07
2662.7, 1.7149e-07
2664.7, 1.69e-07
2666.7, 1.6987e-07
2668.7, 1.909e-07
2670.7, 1.7545e-07
2672.7, 2.3376e-07
2674.7, 1.6673e-07
2676.7, 1.8456e-07
2678.7, 1.8905e-07
2680.7, 1.6071e-07
2682.7, 1.5397e-07
2684.7, 1.7034e-07
2686.7, 1.491e-07
2688.7, 2.1096e-07
2690.7, 1.9539e-07
2692.7, 1.811e-07
2694.7, 2.0579e-07
2696.7, 2.0365e-07
2698.7, 1.6505e-07
2700.7, 2.0662e-07
2702.7, 1.6674e-07
2704.7, 1.5968e-07
2706.7, 1.802e-07
2708.7, 2.1145e-07
2710.7, 1.9015e-07
2712.7, 1.9558e-07
2714.7, 2.1998e-07
2716.7, 2.0337e-07
2718.7, 1.8733e-07
2720.7, 1.7912e-07
2722.7, 2.0001e-07
2724.7, 1.8336e-07
2726.7, 1.8595e-07
2728.7, 1.9582e-07
2730.7, 1.8313e-07
2732.7, 1.8793e-07
2734.7, 1.699e-07
2736.7, 1.7646e-07
2738.7, 2.0235e-07
2740.7, 1.6607e-07
2742.7, 2.0362e-07
2744.7, 1.9257e-07
2746.7, 1.8586e-07
2748.7, 1.7496e-07
2750.7, 1.6163e-07
2752.7, 1.8248e-07
2754.8, 1.7691e-07
2756.8, 1.8862e-07
2758.8, 1.4406e-07
2760.8, 2.0113e-07
2762.8, 1.9283e-07
2764.8, 1.5272e-07
2766.8, 2.4099e-07
2768.8, 1.7419e-07
2770.8, 1.6848e-07
2772.8, 2.1082e-07
2774.8, 1.5632e-07
2776.8, 1.9197e-07
2778.8, 1.6196e-07
2780.8, 1.9375e-07
2782.8, 1.5729e-07
2784.8, 1.9259e-07
2786.8, 1.6907e-07
2788.8, 1.6546e-07
2790.8, 1.7972e-07
2792.8, 1.8423e-07
2794.8, 1.9641e-07
2796.8, 1.776e-07
2798.8, 1.8987e-07
2800.8, 1.641e-07
2802.8, 1.8859e-07
2804.8, 1.7557e-07
2806.8, 1.6504e-07
2808.8, 1.6385e-07
2810.8, 1.882e-07
2812.8, 1.7616e-07
2814.8, 2.2181e-07
2816.8, 1.8792e-07
2818.8, 1.8519e-07
2820.8, 1.3893e-07
2822.8, 1.6958e-07
2824.8, 1.8004e-07
2826.8, 2.0467e-07
2828.8, 1.9623e-07
2830.8, 1.9379e-07
2832.8, 1.9367e-07
2834.8, 1.9252e-07
2836.8, 1.8468e-07
2838.8, 1.9657e-07
2840.8, 7.868e-08
2842.8, -2.185e-08
2844.8, -2.424e-08
2846.8, -2.101e-08
2848.8, -1.982e-08
2850.8, -2.032e-08
2852.8, -2.25e-08
2854.9, -2.226e-08
2856.9, -2.25e-08
2858.9, -2.287e-08
2860.9, -2.094e-08
2862.9, -2.05e-08
2864.9, -2.076e-08
2866.9, -1.983e-08
2868.9, -1.808e-08
2870.9, -2.006e-08
2872.9, -2.344e-08
2874.9, -2.46e-08
2876.9, -2.136e-08
2878.9, -2.161e-08
2880.9, -1.923e-08
2882.9, -1.92e-08
2884.9, -1.987e-08
2886.9, -2.03e-08
2888.9, -1.773e-08
2890.9, -1.997e-08
2892.9, -1.798e-08
2894.9, -1.732e-08
2896.9, -1.883e-08
2898.9, -1.978e-08
2900.9, -1.973e-08
2902.9, -2.264e-08
2904.9, -1.745e-08
2906.9, -1.809e-08
2908.9, -2.033e-08
2910.9, -2.068e-08
2912.9, -1.855e-08
2914.9, -1.99e-08
2916.9, -2.152e-08
2918.9, -2.046e-08
2920.9, -1.954e-08
2922.9, -2.054e-08
2924.9, -2.068e-08
2926.9, -1.993e-08
2928.9, -1.946e-08
2930.9, -2.121e-08
2932.9, -2.222e-08
2934.9, -2.076e-08
2936.9, -1.837e-08
2938.9, -1.841e-08
2940.9, -2.052e-08
2942.9, -1.726e-08
2944.9, -1.834e-08
2946.9, -1.38e-08
2948.9, -1.674e-08
2950.9, -1.225e-08
2952.9, -1.97e-08
2955.0, -1.911e-08
2957.0, -1.72e-08
2959.0, -2.262e-08
2961.0, -2.323e-08
2963.0, -1.942e-08
2965.0, -1.911e-08
2967.0, -2.233e-08
2969.0, -2.004e-08
2971.0, -2.039e-08
2973.0, -1.789e-08
2975.0, -2.074e-08
2977.0, -1.84e-08
2979.0, -1.69e-08
2981.0, -2.078e-08
2983.0, -2.392e-08
2985.0, -2.046e-08
2987.0, -1.77e-08
2989.0, -1.878e-08
2991.0, -2.101e-08
2993.0, -2.254e-08
2995.0, -2.162e-08
2997.0, -1.954e-08
2999.0, -1.802e-08
3001.0, -1.906e-08
3003.0, -1.611e-08
3005.0, -1.591e-08
3007.0, -1.54e-08
3009.0, -2.064e-08
3011.0, -2.338e-08
3013.0, -2.393e-08
3015.0, -1.978e-08
3017.0, -1.768e-08
3019.0, -1.765e-08
3021.0, -1.762e-08
3023.0, -1.988e-08
3025.0, -1.694e-08
3027.0, -1.982e-08
3029.0, -2.19e-08
3031.0, -2.029e-08
3033.0, -1.988e-08
3035.0, -1.811e-08
3037.0, -1.682e-08
3039.0, -1.643e-08
3041.0, -1.463e-08
3043.0, -1.735e-08
3045.0, -1.797e-08
3047.0, -1.063e-08
3049.0, -1.234e-08
3051.0, -1.839e-08
3053.0, -1.548e-08
3055.1, -1.841e-08
3057.1, -1.886e-08
3059.1, -1.863e-08
3061.1, -1.517e-08
3063.1, -1.384e-08
3065.1, -1.392e-08
3067.1, -1.66e-08
3069.1, -1.134e-08
3071.1, -1.708e-08
3073.1, -1.815e-08
3075.1, -1.547e-08
3077.1, -1.127e-08
3079.1, -9.93e-09
3081.1, -1.245e-08
3083.1, -1.435e-08
3085.1, -1.749e-08
3087.1, -1.203e-08
3089.1, -1.459e-08
3091.1, -1.152e-08
3093.1, -1.183e-08
3095.1, -1.932e-08
3097.1, -1.755e-08
3099.1, -1.154e-08
3101.1, -1.48e-08
3103.1, -1.666e-08
3105.1, -1.79e-08
3107.1, -1.685e-08
3109.1, -1.821e-08
3111.1, -1.773e-08
3113.1, -2.235e-08
3115.1, -1.901e-08
3117.1, -1.892e-08
3119.1, -2.113e-08
3121.1, -1.87e-08
3123.1, -1.835e-08
3125.1, -1.813e-08
3127.1, -1.71e-08
3129.1, -1.738e-08
3131.1, -2.088e-08
3133.1, -1.872e-08
3135.1, -1.673e-08
3137.1, -1.733e-08
3139.1, -1.569e-08
3141.1, -1.631e-08
3143.1, -1.543e-08
3145.1, -1.32e-08
3147.1, -1.808e-08
3149.1, -1.502e-08
3151.1, -1.508e-08
3153.1, -1.511e-08
3155.2, -1.467e-08
3157.2, -1.404e-08
3159.2, -1.624e-08
3161.2, -1.258e-08
3163.2, -1.289e-08
3165.2, -1.178e-08
3167.2, -1.171e-08
3169.2, -1.445e-08
3171.2, -1.727e-08
3173.2, -1.598e-08
3175.2, -1.405e-08
3177.2, -1.454e-08
3179.2, -1.261e-08
3181.2, -1.511e-08
3183.2, -1.061e-08
3185.2, -1.283e-08
3187.2, -1.173e-08
3189.2, -1.146e-08
3191.2, -1.116e-08
3193.2, -1.269e-08
3195.2, -1.35e-08
3197.2, -1.091e-08
3199.2, -1.427e-08
3201.2, -1.286e-08
3203.2, -1.472e-08
3205.2, -1.561e-08
3207.2, -1.63e-08
3209.2, -1.489e-08
3211.2, -1.23e-08
3213.2, -1.879e-08
3215.2, -1.558e-08
3217.2, -1.7e-08
3219.2, -1.406e-08
3221.2, -1.722e-08
3223.2, -1.226e-08
3225.2, -1.121e-08
3227.2, -1.607e-08
3229.2, -1.614e-08
3231.2, -1.343e-08
3233.2, -1.876e-08
3235.2, -1.381e-08
3237.2, -1.73e-08
3239.2, -1.628e-08
3241.2, -1.635e-08
3243.2, -1.424e-08
3245.2, -1.233e-08
3247.2, -1.277e-08
3249.2, -1.275e-08
3251.2, -1.709e-08
3253.2, -2.078e-08
3255.3, -1.694e-08
3257.3, -1.573e-08
3259.3, -1.296e-08
3261.3, -1.671e-08
3263.3, -1.678e-08
3265.3, -1.586e-08
3267.3, -1.417e-08
3269.3, -1.445e-08
3271.3, -1.866e-08
3273.3, -1.737e-08
3275.3, -1.718e-08
3277.3, -1.252e-08
3279.3, -1.497e-08
3281.3, -1.26e-08
3283.3, -1.247e-08
3285.3, -1.229e-08
3287.3, -1.511e-08
3289.3, -1.415e-08
3291.3, -1.329e-08
3293.3, -1.563e-08
3295.3, -1.561e-08
3297.3, -1.4e-08
3299.3, -1.47e-08
3301.3, -1.634e-08
3303.3, -1.981e-08
3305.3, -1.582e-08
3307.3, -1.402e-08
3309.3, -1.364e-08
3311.3, -1.201e-08
3313.3, -1.585e-08
3315.3, -1.83e-08
3317.3, -1.555e-08
3319.3, -1.665e-08
3321.3, -1.164e-08
3323.3, -1.351e-08
3325.3, -1.602e-08
3327.3, -1.576e-08
3329.3, -1.322e-08
3331.3, -1.706e-08
3333.3, -1.593e-08
3335.3, -1.59e-08
3337.3, -1.759e-08
3339.3, -1.392e-08
3341.3, -1.549e-08
3343.3, -1.549e-08
3345.3, -1.625e-08
3347.3, -2.049e-08
3349.3, -1.461e-08
3351.3, -1.527e-08
3353.3, -1.812e-08
3355.4, -1.219e-08
3357.4, -1.661e-08
3359.4, -1.828e-08
3361.4, -1.863e-08
3363.4, -1.915e-08
3365.4, -1.756e-08
3367.4, -1.527e-08
3369.4, -1.355e-08
3371.4, -1.76e-08
3373.4, -1.869e-08
3375.4, -1.662e-08
3377.4, -1.968e-08
3379.4, -1.492e-08
3381.4, -1.375e-08
3383.4, -1.456e-08
3385.4, -1.154e-08
3387.4, -1.221e-08
3389.4, -1.36e-08
3391.4, -1.9e-08
3393.4, -1.896e-08
3395.4, -1.56e-08
3397.4, -2.074e-08
3399.4, -1.442e-08
3401.4, -1.659e-08
3403.4, -1.333e-08
3405.4, -2.283e-08
3407.4, -2.021e-08
3409.4, -2.081e-08
3411.4, -1.478e-08
3413.4, -2.178e-08
3415.4, -2.23e-08
3417.4, -1.948e-08
3419.4, -2.109e-08
3421.4, -2.228e-08
3423.4, -2.164e-08
3425.4, -2.074e-08
3427.4, -2.07e-08
3429.4, -1.938e-08
3431.4, -2.244e-08
3433.4, -1.771e-08
3435.4, -2.105e-08
3437.4, -2.088e-08
3439.4, -2.082e-08
3441.4, -2.004e-08
3443.4, -2.114e-08
3445.4, -1.821e-08
3447.4, -1.747e-08
3449.4, -1.73e-08
3451.4, -1.651e-08
3453.4, -1.41e-08
3455.5, -1.652e-08
3457.5, -1.744e-08
3459.5, -2.074e-08
3461.5, -1.686e-08
3463.5, -1.897e-08
3465.5, -2.062e-08
3467.5, -2.093e-08
3469.5, -2.172e-08
3471.5, -1.913e-08
3473.5, -2.12e-08
3475.5, -2.31e-08
3477.5, -2.086e-08
3479.5, -2.054e-08
3481.5, -2.516e-08
3483.5, -2.031e-08
3485.5, -2.104e-08
3487.5, -2.12e-08
3489.5, -2.464e-08
3491.5, -2.212e-08
3493.5, -1.872e-08
3495.5, -2.356e-08
3497.5, -2.124e-08
3499.5, -1.786e-08
3501.5, -1.766e-08
3503.5, -2.206e-08
3505.5, -1.998e-08
3507.5, -1.88e-08
3509.5, -1.7e-08
3511.5, -1.875e-08
3513.5, -1.68e-08
3515.5, -1.84e-08
3517.5, -1.562e-08
3519.5, -1.302e-08
3521.5, -1.557e-08
3523.5, -1.595e-08
3525.5, -1.785e-08
3527.5, -1.827e-08
3529.5, -1.865e-08
3531.5, -1.882e-08
3533.5, -2.097e-08
3535.5, -2.301e-08
3537.5, -1.576e-08
3539.5, -1.84e-08
3541.5, -2.032e-08
3543.5, -1.762e-08
3545.5, -1.997e-08
3547.5, -1.949e-08
3549.5, -1.697e-08
3551.5, -2.095e-08
3553.5, -1.821e-08
3555.6, -2.335e-08
3557.6, -2.05e-08
3559.6, -1.769e-08
3561.6, -1.521e-08
3563.6, -1.897e-08
3565.6, -1.475e-08
3567.6, -1.255e-08
3569.6, -1.303e-08
3571.6, -1.433e-08
3573.6, -1.569e-08
3575.6, -1.738e-08
3577.6, -1.581e-08
3579.6, -1.241e-08
3581.6, -1.54e-08
3583.6, -1.618e-08
3585.6, -1.7e-08
3587.6, -1.578e-08
3589.6, -1.594e-08
3591.6, -1.656e-08
3593.6, -1.71e-08
3595.6, -1.63e-08
3597.6, -1.928e-08
3599.6, -2.052e-08
3601.6, -1.961e-08
3603.6, -1.741e-08
3605.6, -1.69e-08
3607.6, -1.422e-08
3609.6, -1.371e-08
3611.6, -1.505e-08
3613.6, -1.273e-08
3615.6, -1.483e-08
3617.6, -1.523e-08
3619.6, -1.488e-08
3621.6, -1.522e-08
3623.6, -1.429e-08
3625.6, -1.464e-08
3627.6, -1.585e-08
3629.6, -1.656e-08
3631.6, -1.477e-08
3633.6, -1.389e-08
3635.6, -1.531e-08
3637.6, -1.209e-08
3639.6, -1.219e-08
3641.6, -1.336e-08
3643.6, -1.385e-08
3645.6, -1.153e-08
3647.6, -1.253e-08
3649.6, -1.275e-08
3651.6, -1.387e-08
3653.6, -1.107e-08
3655.7, -1.233e-08
3657.7, -1.206e-08
3659.7, -1.055e-08
3661.7, -1.145e-08
3663.7, -1.266e-08
3665.7, -1.422e-08
3667.7, -1.371e-08
3669.7, -1.293e-08
3671.7, -1.27e-08
3673.7, -1.165e-08
3675.7, -1.246e-08
3677.7, -1.295e-08
3679.7, -1.445e-08
3681.7, -8.38e-09
3683.7, -1.713e-08
3685.7, -1.293e-08
3687.7, -1.297e-08
3689.7, -1.523e-08
3691.7, -1.419e-08
3693.7, -1.149e-08
3695.7, -1.486e-08
3697.7, -1.401e-08
3699.7, -1.08e-08
3701.7, -1.363e-08
3703.7, -1.068e-08
3705.7, -1.113e-08
3707.7, -1.188e-08
3709.7, -1.179e-08
3711.7, -9.88e-09
3713.7, -1.264e-08
3715.7, -1.324e-08
3717.7, -1.424e-08
3719.7, -1.212e-08
3721.7, -1.521e-08
3723.7, -1.484e-08
3725.7, -1.64e-08
3727.7, -1.545e-08
3729.7, -1.259e-08
3731.7, -1.644e-08
3733.7, -1.524e-08
3735.7, -1.923e-08
3737.7, -1.237e-08
3739.7, -1.11e-08
3741.7, -1.267e-08
3743.7, -1.256e-08
3745.7, -1.391e-08
3747.7, -1.541e-08
3749.7, -1.367e-08
3751.7, -1.503e-08
3753.7, -1.178e-08
3755.8, -1.448e-08
3757.8, -1.021e-08
3759.8, -1.383e-08
3761.8, -1.582e-08
3763.8, -1.441e-08
3765.8, -1.44e-08
3767.8, -1.399e-08
3769.8, -1.045e-08
3771.8, -1.262e-08
3773.8, -1.45e-08
3775.8, -1.37e-08
3777.8, -1.48e-08
3779.8, -1.66e-08
3781.8, -1.449e-08
3783.8, -1.769e-08
3785.8, -1.573e-08
3787.8, -1.376e-08
3789.8, -1.197e-08
3791.8, -1.599e-08
3793.8, -1.413e-08
3795.8, -1.011e-08
3797.8, -1.235e-08
3799.8, -1.655e-08
3801.8, -1.533e-08
3803.8, -1.421e-08
3805.8, -1.68e-08
3807.8, -1.251e-08
3809.8, -1.56e-08
3811.8, -1.239e-08
3813.8, -1.568e-08
3815.8, -1.648e-08
3817.8, -1.497e-08
3819.8, -1.485e-08
3821.8, -1.547e-08
3823.8, -1.554e-08
3825.8, -1.573e-08
3827.8, -1.595e-08
3829.8, -1.333e-08
3831.8, -1.554e-08
3833.8, -1.743e-08
3835.8, -1.836e-08
3837.8, -1.404e-08
3839.8, -1.612e-08
3841.8, -1.437e-08
3843.8, -1.925e-08
3845.8, -2.043e-08
3847.8, -1.676e-08
3849.8, -1.675e-08
3851.8, -1.477e-08
3853.8, -1.548e-08
3855.9, -1.721e-08
3857.9, -1.463e-08
3859.9, -1.433e-08
3861.9, -1.555e-08
3863.9, -1.604e-08
3865.9, -1.55e-08
3867.9, -1.486e-08
3869.9, -1.26e-08
3871.9, -1.396e-08
3873.9, 1.9891e-07
3875.9, 1.5046e-07
3877.9, 1.6705e-07
3879.9, 1.636e-07
3881.9, 1.5929e-07
3883.9, 1.7772e-07
3885.9, 1.5309e-07
3887.9, 1.4843e-07
3889.9, 1.6505e-07
3891.9, 1.6021e-07
3893.9, 1.6105e-07
3895.9, 1.175e-07
3897.9, 1.4917e-07
3899.9, 1.3963e-07
3901.9, 1.619e-07
3903.9, 1.4911e-07
3905.9, 1.6566e-07
3907.9, 1.2502e-07
3909.9, 1.7057e-07
3911.9, 1.9614e-07
3913.9, 1.4187e-07
3915.9, 1.9521e-07
3917.9, 1.4297e-07
3919.9, 1.7727e-07
3921.9, 1.5403e-07
3923.9, 1.7316e-07
3925.9, 1.8089e-07
3927.9, 1.7911e-07
3929.9, 1.6316e-07
3931.9, 1.6983e-07
3933.9, 1.4066e-07
3935.9, 2.1161e-07
3937.9, 1.7256e-07
3939.9, 1.8207e-07
3941.9, 1.3746e-07
3943.9, 1.6021e-07
3945.9, 1.6164e-07
3947.9, 1.6736e-07
3949.9, 1.845e-07
3951.9, 2.0112e-07
3953.9, 1.3992e-07
3956.0, 1.4355e-07
3958.0, 1.8025e-07
3960.0, 2.2824e-07
3962.0, 1.5461e-07
3964.0, 1.7524e-07
3966.0, 1.5548e-07
3968.0, 1.697e-07
3970.0, 1.5607e-07
3972.0, 1.7303e-07
3974.0, 1.8719e-07
3976.0, 1.3059e-07
3978.0, 1.6496e-07
3980.0, 1.4452e-07
3982.0, 1.6181e-07
3984.0, 1.213e-07
3986.0, 1.7842e-07
3988.0, 1.3203e-07
3990.0, 1.4802e-07
3992.0, 1.5771e-07
3994.0, 1.9716e-07
3996.0, 1.6007e-07
3998.0, 1.9873e-07
4000.0, 1.8132e-07
4002.0, 1.6953e-07
4004.0, 1.7427e-07
4006.0, 1.6035e-07
4008.0, 1.8585e-07
4010.0, 1.7233e-07
4012.0, 1.7689e-07
4014.0, 1.718e-07
4016.0, 1.4965e-07
4018.0, 1.6003e-07
4020.0, 1.54e-07
4022.0, 1.8657e-07
4024.0, 1.7899e-07
4026.0, 2.1549e-07
4028.0, 1.5879e-07
4030.0, 1.7017e-07
4032.0, 1.8546e-07
4034.0, 1.6224e-07
4036.0, 1.5774e-07
4038.0, 1.2455e-07
4040.0, 1.6439e-07
4042.0, 1.6526e-07
4044.0, 1.8229e-07
4046.0, 2.1373e-07
4048.0, 1.8789e-07
4050.0, 1.4196e-07
4052.0, 1.809e-07
4054.0, 1.4967e-07
4056.1, 1.7169e-07
4058.1, 1.7226e-07
4060.1, 1.6652e-07
4062.1, 1.7583e-07
4064.1, 1.3272e-07
4066.1, 1.981e-07
4068.1, 1.7352e-07
4070.1, 1.5901e-07
4072.1, 1.5492e-07
4074.1, 1.3186e-07
4076.1, 1.4772e-07
4078.1, 1.894e-07
4080.1, 1.5473e-07
4082.1, 1.8788e-07
4084.1, 1.5794e-07
4086.1, 1.6196e-07
4088.1, 1.4524e-07
4090.1, 1.4762e-07
4092.1, 2.112e-07
4094.1, 2.0246e-07
4096.1, 1.828e-07
4098.1, 1.7224e-07
4100.1, 1.9064e-07
4102.1, 1.6537e-07
4104.1, 2.3048e-07
4106.1, 1.6254e-07
4108.1, 1.9888e-07
4110.1, 1.8795e-07
4112.1, 1.6745e-07
4114.1, 1.553e-07
4116.1, 1.4657e-07
4118.1, 1.7431e-07
4120.1, 1.6301e-07
4122.1, 2.3714e-07
4124.1, 1.7441e-07
4126.1, 1.6026e-07
4128.1, 1.9375e-07
4130.1, 1.5468e-07
4132.1, 1.8578e-07
4134.1, 1.4604e-07
4136.1, 1.6025e-07
4138.1, 1.9262e-07
4140.1, 1.5641e-07
4142.1, 1.7355e-07
4144.1, 1.4863e-07
4146.1, 1.906e-07
4148.1, 1.7768e-07
4150.1, 1.7378e-07
4152.1, 1.6242e-07
4154.1, 1.6318e-07
4156.2, 2.0317e-07
4158.2, 1.7567e-07
4160.2, 1.8512e-07
4162.2, 1.8582e-07
4164.2, 1.6812e-07
4166.2, 1.6514e-07
4168.2, 1.683e-07
4170.2, 1.8281e-07
4172.2, 1.7482e-07
4174.2, 1.6373e-07
4176.2, 1.7063e-07
4178.2, 1.909e-07
4180.2, 1.7661e-07
4182.2, 1.5489e-07
4184.2, 1.8506e-07
4186.2, 1.6824e-07
4188.2, 1.6573e-07
4190.2, 1.7801e-07
4192.2, 1.6865e-07
4194.2, 1.9726e-07
4196.2, 1.7701e-07
4198.2, 1.776e-07
4200.2, 1.6193e-07
4202.2, 1.8434e-07
4204.2, 2.2088e-07
4206.2, 1.739e-07
4208.2, 1.6e-07
4210.2, 1.6563e-07
4212.2, 1.7877e-07
4214.2, 1.9112e-07
4216.2, 1.8898e-07
4218.2, 1.9524e-07
4220.2, 1.8762e-07
4222.2, 2.0466e-07
4224.2, 1.5469e-07
4226.2, 1.7565e-07
4228.2, 1.605e-07
4230.2, 2.037e-07
4232.2, 1.738e-07
4234.2, 2.0569e-07
4236.2, 1.7372e-07
4238.2, 1.7229e-07
4240.2, 1.7507e-07
4242.2, 1.7632e-07
4244.2, 1.8073e-07
4246.2, 1.8777e-07
4248.2, 1.8867e-07
4250.2, 2.0467e-07
4252.2, 1.8024e-07
4254.2, 1.6097e-07
4256.3, 1.7035e-07
4258.3, 1.9221e-07
4260.3, 2.1851e-07
4262.3, 1.9691e-07
4264.3, 1.7511e-07
4266.3, 1.8367e-07
4268.3, 1.7985e-07
4270.3, 1.9728e-07
4272.3, 2.1809e-07
4274.3, 1.9481e-07
4276.3, 1.802e-07
4278.3, 1.9273e-07
4280.3, 1.6894e-07
4282.3, 1.6552e-07
4284.3, 1.7777e-07
4286.3, 1.5747e-07
4288.3, 1.9562e-07
4290.3, 1.9626e-07
4292.3, 1.8882e-07
4294.3, 2.2321e-07
4296.3, 1.9069e-07
4298.3, 1.6807e-07
4300.3, 1.6453e-07
4302.3, 1.8898e-07
4304.3, 1.7529e-07
4306.3, 1.7389e-07
4308.3, 1.5448e-07
4310.3, 1.6207e-07
4312.3, 1.9467e-07
4314.3, 2.0452e-07
4316.3, 1.7966e-07
4318.3, 1.9311e-07
4320.3, 1.9763e-07
4322.3, 1.7639e-07
4324.3, 1.6155e-07
4326.3, 1.8731e-07
4328.3, 1.9428e-07
4330.3, 1.7172e-07
4332.3, 2.1161e-07
4334.3, 1.746e-07
4336.3, 1.788e-07
4338.3, 1.9463e-07
4340.3, 1.6772e-07
4342.3, 2.257e-07
4344.3, 2.0949e-07
4346.3, 1.83e-07
4348.3, 1.9065e-07
4350.3, 1.8885e-07
4352.3, 1.9581e-07
4354.3, 1.6762e-07
4356.4, 1.7766e-07
4358.4, 1.5818e-07
4360.4, 1.4956e-07
4362.4, 1.8206e-07
4364.4, 2.1739e-07
4366.4, 1.8948e-07
4368.4, 1.913e-07
4370.4, 1.8769e-07
4372.4, 2.143e-07
4374.4, 2.0542e-07
4376.4, 1.8156e-07
4378.4, 1.7722e-07
4380.4, 2.2547e-07
4382.4, 2.1618e-07
4384.4, 1.7684e-07
4386.4, 1.9842e-07
4388.4, 1.9929e-07
4390.4, 1.6459e-07
4392.4, 1.7454e-07
4394.4, 2.1664e-07
4396.4, 1.8663e-07
4398.4, 2.1759e-07
4400.4, 1.7987e-07
4402.4, 2.0016e-07
4404.4, 1.7911e-07
4406.4, 1.7259e-07
4408.4, 1.7684e-07
4410.4, 2.0524e-07
4412.4, 1.6139e-07
4414.4, 1.7504e-07
4416.4, 1.8998e-07
4418.4, 1.5793e-07
4420.4, 1.9862e-07
4422.4, 2.0536e-07
4424.4, 2.0299e-07
4426.4, 1.9791e-07
4428.4, 2.0655e-07
4430.4, 1.7584e-07
4432.4, 1.8225e-07
4434.4, 1.5932e-07
4436.4, 1.4465e-07
4438.4, 1.9193e-07
4440.4, 1.7889e-07
4442.4, 1.7267e-07
4444.4, 1.9735e-07
4446.4, 1.6394e-07
4448.4, 2.0047e-07
4450.4, 1.7636e-07
4452.4, 1.9386e-07
4454.4, 1.5673e-07
4456.5, 2.0323e-07
4458.5, 1.6389e-07
4460.5, 1.627e-07
4462.5, 2.3464e-07
4464.5, 1.8167e-07
4466.5, 1.8166e-07
4468.5, 1.6572e-07
4470.5, 1.6167e-07
4472.5, 1.7622e-07
4474.5, 2.0617e-07
4476.5, 1.6681e-07
4478.5, 1.751e-07
4480.5, 1.5555e-07
4482.5, 2.6216e-07
4484.5, 1.4867e-07
4486.5, 1.9936e-07
4488.5, 1.8212e-07
4490.5, 2.1211e-07
4492.5, 1.706e-07
4494.5, 1.4069e-07
4496.5, 1.707e-07
4498.5, 1.8698e-07
4500.5, 2.3085e-07
4502.5, 1.6238e-07
4504.5, 2.2471e-07
4506.5, 1.7293e-07
4508.5, 1.8446e-07
4510.5, 1.9802e-07
4512.5, 1.8061e-07
4514.5, 2.0607e-07
4516.5, 1.5966e-07
4518.5, 2.0744e-07
4520.5, 1.6711e-07
4522.5, 2.369e-07
4524.5, 1.5877e-07
4526.5, 1.8117e-07
4528.5, 1.657e-07
4530.5, 2.04e-07
4532.5, 2.0499e-07
4534.5, 1.9942e-07
4536.5, 2.0499e-07
4538.5, 1.9238e-07
4540.5, 1.6273e-07
4542.5, 1.8599e-07
4544.5, 2.0761e-07
4546.5, 1.6455e-07
4548.5, 2.0642e-07
4550.5, 1.9029e-07
4552.5, 1.9533e-07
4554.5, 1.7555e-07
4556.6, 1.6538e-07
4558.6, 2.0461e-07
4560.6, 1.8189e-07
4562.6, 1.8295e-07
4564.6, 1.8973e-07
4566.6, 2.3137e-07
4568.6, 2.1257e-07
4570.6, 1.5362e-07
4572.6, 2.0049e-07
4574.6, 2.0393e-07
4576.6, 1.9094e-07
4578.6, 1.9473e-07
4580.6, 1.5197e-07
4582.6, 2.0626e-07
4584.6, 1.771e-07
4586.6, 2.1222e-07
4588.6, 1.6142e-07
4590.6, 1.9123e-07
4592.6, 1.4746e-07
4594.6, 1.5416e-07
4596.6, 2.1103e-07
4598.6, 2.1714e-07
4600.6, 1.8768e-07
4602.6, 2.1167e-07
4604.6, 1.9074e-07
4606.6, 1.9677e-07
4608.6, 1.7382e-07
4610.6, 1.6822e-07
4612.6, 1.7447e-07
4614.6, 1.8121e-07
4616.6, 1.8666e-07
4618.6, 2.3198e-07
4620.6, 1.759e-07
4622.6, 2.0426e-07
4624.6, 2.1055e-07
4626.6, 1.6658e-07
4628.6, 2.0437e-07
4630.6, 1.7948e-07
4632.6, 2.0852e-07
4634.6, 1.6821e-07
4636.6, 1.8222e-07
4638.6, 1.8323e-07
4640.6, 1.9688e-07
4642.6, 1.4022e-07
4644.6, 1.8407e-07
4646.6, 2.0473e-07
4648.6, 1.8848e-07
4650.6, 1.8677e-07
4652.6, 1.4601e-07
4654.6, 1.7301e-07
4656.7, 2.217e-07
4658.7, 1.9792e-07
4660.7, 1.6671e-07
4662.7, 1.7093e-07
4664.7, 1.6606e-07
4666.7, 1.9952e-07
4668.7, 1.8328e-07
4670.7, 1.6378e-07
4672.7, 1.814e-07
4674.7, 1.9539e-07
4676.7, 2.0223e-07
4678.7, 1.4494e-07
4680.7, 1.729e-07
4682.7, 1.6679e-07
4684.7, 1.8669e-07
4686.7, 1.6231e-07
4688.7, 1.8168e-07
4690.7, 1.7967e-07
4692.7, 1.9125e-07
4694.7, 1.751e-07
4696.7, 1.6916e-07
4698.7, 1.8238e-07
4700.7, 2.1112e-07
4702.7, 2.0411e-07
4704.7, 1.8261e-07
4706.7, 1.9967e-07
4708.7, 1.7055e-07
4710.7, 2.1946e-07
4712.7, 1.8269e-07
4714.7, 1.4871e-07
4716.7, 1.7204e-07
4718.7, 1.9481e-07
4720.7, 1.7165e-07
4722.7, 1.6526e-07
4724.7, 1.7739e-07
4726.7, 1.6316e-07
4728.7, 1.8011e-07
4730.7, 1.7964e-07
4732.7, 1.7645e-07
4734.7, 1.959e-07
4736.7, 1.8443e-07
4738.7, 1.6209e-07
4740.7, 2.0854e-07
4742.7, 1.8456e-07
4744.7, 1.8037e-07
4746.7, 1.8442e-07
4748.7, 1.8967e-07
4750.7, 1.9703e-07
4752.7, 1.6974e-07
4754.7, 1.7804e-07
4756.8, 1.8853e-07
4758.8, 1.8073e-07
4760.8, 1.8732e-07
4762.8, 1.6697e-07
4764.8, 1.6874e-07
4766.8, 1.4635e-07
4768.8, 2.3911e-07
4770.8, 1.7393e-07
4772.8, 2.1493e-07
4774.8, 1.9254e-07
4776.8, 1.5292e-07
4778.8, 2.2153e-07
4780.8, 1.6355e-07
4782.8, 1.9796e-07
4784.8, 1.8483e-07
4786.8, 1.6797e-07
4788.8, 1.7867e-07
4790.8, 2.0781e-07
4792.8, 1.5112e-07
4794.8, 2.0184e-07
4796.8, 1.8921e-07
4798.8, 2.1069e-07
4800.8, 1.8918e-07
4802.8, 2.1962e-07
4804.8, 1.7471e-07
4806.8, 2.1032e-07
4808.8, 1.6914e-07
4810.8, 2.0588e-07
4812.8, 1.5268e-07
4814.8, 1.7306e-07
4816.8, 1.9028e-07
4818.8, 1.6231e-07
4820.8, 2.026e-07
4822.8, 2.2382e-07
4824.8, 1.6123e-07
4826.8, 1.7569e-07
4828.8, 2.2527e-07
4830.8, 1.7284e-07
4832.8, 1.9439e-07
4834.8, 1.9164e-07
4836.8, 1.9347e-07
4838.8, 1.859e-07
4840.8, 1.7756e-07
4842.8, 2.0031e-07
4844.8, 1.9013e-07
4846.8, 2.1983e-07
4848.8, 2.1306e-07
4850.8, 1.5971e-07
4852.8, 1.8623e-07
4854.8, 1.869e-07
4856.9, 1.5773e-07
4858.9, 1.6228e-07
4860.9, 1.9402e-07
4862.9, 1.657e-07
4864.9, 1.7197e-07
4866.9, 2.1366e-07
4868.9, 1.8641e-07
4870.9, 1.8718e-07
4872.9, 1.5561e-07
4874.9, -2.046e-08
4876.9, -1.816e-08
4878.9, -1.51e-08
4880.9, -1.67e-08
4882.9, -1.85e-08
4884.9, -1.578e-08
4886.9, -2.344e-08
4888.9, -1.699e-08
4890.9, -1.309e-08
4892.9, -1.642e-08
4894.9, -1.957e-08
4896.9, -1.851e-08
4898.9, -1.802e-08
4900.9, -1.819e-08
4902.9, -1.904e-08
4904.9, -1.873e-08
4906.9, -1.694e-08
4908.9, -1.794e-08
4910.9, -1.953e-08
4912.9, -1.816e-08
4914.9, -1.874e-08
4916.9, -1.566e-08
4918.9, -1.529e-08
4920.9, -1.591e-08
4922.9, -2.091e-08
4924.9, -2.004e-08
4926.9, -1.882e-08
4928.9, -1.926e-08
4930.9, -1.996e-08
4932.9, -2.163e-08
4934.9, -2.134e-08
4936.9, -1.964e-08
4938.9, -1.901e-08
4940.9, -1.885e-08
4942.9, -2.089e-08
4944.9, -2.152e-08
4946.9, -2.302e-08
4948.9, -2.103e-08
4950.9, -2.178e-08
4952.9, -2.28e-08
4954.9, -1.907e-08
4957.0, -2.426e-08
4959.0, -2.243e-08
4961.0, -2.362e-08
4963.0, -2.084e-08
4965.0, -2.195e-08
4967.0, -2.297e-08
4969.0, -1.997e-08
4971.0, -2.303e-08
4973.0, -2.241e-08
4975.0, -2.319e-08
4977.0, -2.028e-08
4979.0, -2.16e-08
4981.0, -2.244e-08
4983.0, -2.235e-08
4985.0, -1.913e-08
4987.0, -2.074e-08
4989.0, -2.146e-08
4991.0, -2.194e-08
4993.0, -2.175e-08
4995.0, -2.41e-08
4997.0, -2.271e-08
4999.0, -2.028e-08
5001.0, -2.067e-08
5003.0, -2.141e-08
5005.0, -2.252e-08
5007.0, -2.027e-08
5009.0, -1.891e-08
5011.0, -1.683e-08
5013.0, -2.528e-08
5015.0, -2.656e-08
5017.0, -2.484e-08
5019.0, -2.322e-08
5021.0, -2.041e-08
5023.0, -2.39e-08
5025.0, -2.454e-08
5027.0, -2.647e-08
5029.0, -2.073e-08
5031.0, -2.056e-08
5033.0, -2.295e-08
5035.0, -2.193e-08
5037.0, -2.201e-08
5039.0, -2.184e-08
5041.0, -2.215e-08
5043.0, -2.32e-08
5045.0, -1.932e-08
5047.0, -2.469e-08
5049.0, -2.43e-08
5051.0, -2.283e-08
5053.0, -2.458e-08
5055.0, -2.282e-08
5057.1, -2.233e-08
5059.1, -2.233e-08
5061.1, -2.505e-08
5063.1, -2.471e-08
5065.1, -2.117e-08
5067.1, -2.615e-08
5069.1, -2.504e-08
5071.1, -2.619e-08
5073.1, -2.655e-08
5075.1, -2.558e-08
5077.1, -2.75e-08
5079.1, -2.458e-08
5081.1, -2.294e-08
5083.1, -1.893e-08
5085.1, -2.491e-08
5087.1, -2.381e-08
5089.1, -2.49e-08
5091.1, -2.5e-08
5093.1, -2.082e-08
5095.1, -2.025e-08
5097.1, -2.01e-08
5099.1, -2.107e-08
5101.1, -2.034e-08
5103.1, -2.031e-08
5105.1, -2.057e-08
5107.1, -1.897e-08
5109.1, -1.866e-08
5111.1, -2.205e-08
5113.1, -2.242e-08
5115.1, -2.296e-08
5117.1, -2.302e-08
5119.1, -2.042e-08
5121.1, -2.143e-08
5123.1, -2.14e-08
5125.1, -1.871e-08
5127.1, -1.789e-08
5129.1, -2.053e-08
5131.1, -1.968e-08
5133.1, -2.054e-08
5135.1, -1.848e-08
5137.1, -1.754e-08
5139.1, -2.188e-08
5141.1, -1.851e-08
5143.1, -1.984e-08
5145.1, -1.741e-08
5147.1, -2.191e-08
5149.1, -1.914e-08
5151.1, -1.687e-08
5153.1, -1.39e-08
5155.1, -1.323e-08
5157.2, -1.826e-08
5159.2, -2.228e-08
5161.2, -1.585e-08
5163.2, -1.821e-08
5165.2, -1.465e-08
5167.2, -1.853e-08
5169.2, -1.377e-08
5171.2, -1.642e-08
5173.2, -1.681e-08
5175.2, -1.224e-08
5177.2, -1.5e-08
5179.2, -1.432e-08
5181.2, -1.358e-08
5183.2, -1.456e-08
5185.2, -1.533e-08
5187.2, -1.427e-08
5189.2, -1.051e-08
5191.2, -1.278e-08
5193.2, -1.063e-08
5195.2, -1.651e-08
5197.2, -1.213e-08
5199.2, -1.884e-08
5201.2, -1.597e-08
5203.2, -1.843e-08
5205.2, -2.054e-08
5207.2, -1.537e-08
5209.2, -1.986e-08
5211.2, -1.596e-08
5213.2, -1.41e-08
5215.2, -2.035e-08
5217.2, -1.952e-08
5219.2, -1.71e-08
5221.2, -1.701e-08
5223.2, -1.575e-08
5225.2, -1.738e-08
5227.2, -1.973e-08
5229.2, -1.732e-08
5231.2, -1.412e-08
5233.2, -1.716e-08
5235.2, -1.941e-08
5237.2, -1.782e-08
5239.2, -2.06e-08
5241.2, -1.994e-08
5243.2, -1.984e-08
5245.2, -1.789e-08
5247.2, -1.873e-08
5249.2, -2.013e-08
5251.2, -2.148e-08
5253.2, -1.575e-08
5255.2, -1.656e-08
5257.3, -1.776e-08
5259.3, -1.918e-08
5261.3, -2.479e-08
5263.3, -2.575e-08
5265.3, -2.188e-08
5267.3, -2.343e-08
5269.3, -1.922e-08
5271.3, -1.639e-08
5273.3, -1.841e-08
5275.3, -2.166e-08
5277.3, -1.696e-08
5279.3, -1.722e-08
5281.3, -2.116e-08
5283.3, -2.008e-08
5285.3, -2.319e-08
5287.3, -1.944e-08
5289.3, -2.038e-08
5291.3, -1.945e-08
5293.3, -2.024e-08
5295.3, -2.347e-08
5297.3, -2.396e-08
5299.3, -2.235e-08
5301.3, -1.794e-08
5303.3, -1.878e-08
5305.3, -2.439e-08
5307.3, -2.718e-08
5309.3, -2.712e-08
5311.3, -2.431e-08
5313.3, -2.807e-08
5315.3, -2.328e-08
5317.3, -2.501e-08
5319.3, -2.321e-08
5321.3, -2.25e-08
5323.3, -2.76e-08
5325.3, -2.156e-08
5327.3, -2.299e-08
5329.3, -2.257e-08
5331.3, -2.225e-08
5333.3, -2.243e-08
5335.3, -2.27e-08
5337.3, -2.173e-08
5339.3, -2.297e-08
5341.3, -2.305e-08
5343.3, -2.242e-08
5345.3, -2.24e-08
5347.3, -2.031e-08
5349.3, -1.799e-08
5351.3, -2.079e-08
5353.3, -1.76e-08
5355.3, -1.859e-08
5357.4, -1.969e-08
5359.4, -2.234e-08
5361.4, -1.731e-08
5363.4, -1.964e-08
5365.4, -1.63e-08
5367.4, -1.739e-08
5369.4, -1.538e-08
5371.4, -2.015e-08
5373.4, -1.948e-08
5375.4, -2.126e-08
5377.4, -2.092e-08
5379.4, -2.029e-08
5381.4, -2.191e-08
5383.4, -2.156e-08
5385.4, -2.356e-08
5387.4, -2.062e-08
5389.4, -2.205e-08
5391.4, -1.966e-08
5393.4, -2.222e-08
5395.4, -2.32e-08
5397.4, -2.231e-08
5399.4, -1.99e-08
5401.4, -2.165e-08
5403.4, -2.043e-08
5405.4, -1.871e-08
5407.4, -2.231e-08
5409.4, -1.773e-08
5411.4, -2.117e-08
5413.4, -1.994e-08
5415.4, -2.363e-08
5417.4, -2.014e-08
5419.4, -2.347e-08
5421.4, -2.183e-08
5423.4, -1.82e-08
5425.4, -2.229e-08
5427.4, -2.203e-08
5429.4, -2.178e-08
5431.4, -2.423e-08
5433.4, -2.407e-08
5435.4, -2.618e-08
5437.4, -2.727e-08
5439.4, -2.531e-08
5441.4, -2.236e-08
5443.4, -2.499e-08
5445.4, -2.336e-08
5447.4, -2.301e-08
5449.4, -2.533e-08
5451.4, -2.165e-08
5453.4, -2.286e-08
5455.4, -2.241e-08
5457.5, -2.088e-08
5459.5, -2.265e-08
5461.5, -2.359e-08
5463.5, -2.399e-08
5465.5, -1.983e-08
5467.5, -2.04e-08
5469.5, -1.959e-08
5471.5, -2.092e-08
5473.5, -2.305e-08
5475.5, -2.276e-08
5477.5, -2.191e-08
5479.5, -1.977e-08
5481.5, -2.158e-08
5483.5, -2.387e-08
5485.5, -1.928e-08
5487.5, -2.205e-08
5489.5, -2.091e-08
5491.5, -1.887e-08
5493.5, -2.052e-08
5495.5, -2.009e-08
5497.5, -2.276e-08
5499.5, -1.603e-08
5501.5, -2.386e-08
5503.5, -2.055e-08
5505.5, -2.337e-08
5507.5, -2.307e-08
5509.5, -2.365e-08
5511.5, -2.528e-08
5513.5, -2.408e-08
5515.5, -2.321e-08
5517.5, -2.256e-08
5519.5, -1.903e-08
5521.5, -2.047e-08
5523.5, -1.839e-08
5525.5, -1.943e-08
5527.5, -1.924e-08
5529.5, -2.3e-08
5531.5, -1.975e-08
5533.5, -2.086e-08
5535.5, -1.862e-08
5537.5, -1.983e-08
5539.5, -1.707e-08
5541.5, -1.973e-08
5543.5, -2.305e-08
5545.5, -2.22e-08
5547.5, -2.119e-08
5549.5, -2.002e-08
5551.5, -1.607e-08
5553.5, -2.138e-08
5555.5, -2.038e-08
5557.6, -2.031e-08
5559.6, -1.938e-08
5561.6, -2.335e-08
5563.6, -2.165e-08
5565.6, -2.023e-08
5567.6, -2.006e-08
5569.6, -2.065e-08
5571.6, -1.938e-08
5573.6, -2.145e-08
5575.6, -2.56e-08
5577.6, -2.515e-08
5579.6, -2.075e-08
5581.6, -2.362e-08
5583.6, -1.972e-08
5585.6, -2.53e-08
5587.6, -2.413e-08
5589.6, -2.608e-08
5591.6, -2.294e-08
5593.6, -2.369e-08
5595.6, -2.404e-08
5597.6, -2.327e-08
5599.6, -2.14e-08
5601.6, -2.317e-08
5603.6, -2.292e-08
5605.6, -2.509e-08
5607.6, -2.559e-08
5609.6, -2.557e-08
5611.6, -2.17e-08
5613.6, -2.507e-08
5615.6, -2.409e-08
5617.6, -2.464e-08
5619.6, -2.396e-08
5621.6, -2.729e-08
5623.6, -2.771e-08
5625.6, -3.037e-08
5627.6, -2.836e-08
5629.6, -2.507e-08
5631.6, -2.399e-08
5633.6, -2.494e-08
5635.6, -2.895e-08
5637.6, -2.423e-08
5639.6, -2.571e-08
5641.6, -2.455e-08
5643.6, -2.671e-08
5645.6, -2.446e-08
5647.6, -2.396e-08
5649.6, -2.438e-08
5651.6, -2.301e-08
5653.6, -2.508e-08
5655.6, -2.383e-08
5657.7, -2.547e-08
5659.7, -2.414e-08
5661.7, -2.47e-08
5663.7, -2.32e-08
5665.7, -2.571e-08
5667.7, -2.444e-08
5669.7, -2.113e-08
5671.7, -2.311e-08
5673.7, -2.172e-08
5675.7, -2.099e-08
5677.7, -2.391e-08
5679.7, -2.512e-08
5681.7, -2.34e-08
5683.7, -2.614e-08
5685.7, -2.337e-08
5687.7, -2.015e-08
5689.7, -2.101e-08
5691.7, -2.407e-08
5693.7, -2.297e-08
5695.7, -2.299e-08
5697.7, -2.408e-08
5699.7, -2.604e-08
5701.7, -2.59e-08
5703.7, -2.574e-08
5705.7, -2.076e-08
5707.7, -2.185e-08
5709.7, -1.943e-08
5711.7, -2.425e-08
5713.7, -2.152e-08
5715.7, -2.224e-08
5717.7, -2.184e-08
5719.7, -2.084e-08
5721.7, -2.086e-08
5723.7, -1.918e-08
5725.7, -2.429e-08
5727.7, -2.132e-08
5729.7, -1.9e-08
5731.7, -2.13e-08
5733.7, -2.004e-08
5735.7, -2.547e-08
5737.7, -2.242e-08
5739.7, -2.144e-08
5741.7, -2.203e-08
5743.7, -2.533e-08
5745.7, -2.87e-08
5747.7, -2.547e-08
5749.7, -2.035e-08
5751.7, -2.311e-08
5753.7, -2.004e-08
5755.7, -2.26e-08
5757.8, -2.382e-08
5759.8, -2.326e-08
5761.8, -1.895e-08
5763.8, -2.012e-08
5765.8, -2.274e-08
5767.8, -2.321e-08
5769.8, -2.561e-08
5771.8, -2.287e-08
5773.8, -2.124e-08
5775.8, -1.987e-08
5777.8, -2.23e-08
5779.8, -2.165e-08
5781.8, -2.259e-08
5783.8, -2.274e-08
5785.8, -1.586e-08
5787.8, -2.282e-08
5789.8, -1.86e-08
5791.8, -2.058e-08
5793.8, -2.322e-08
5795.8, -1.919e-08
5797.8, -1.991e-08
5799.8, -1.785e-08
5801.8, -1.936e-08
5803.8, -2.102e-08
5805.8, -2.073e-08
5807.8, -1.966e-08
5809.8, -1.954e-08
5811.8, -2.088e-08
5813.8, -2.085e-08
5815.8, -2.044e-08
5817.8, -2.274e-08
5819.8, -2.483e-08
5821.8, -2.527e-08
5823.8, -2.393e-08
5825.8, -2.551e-08
5827.8, -2.402e-08
5829.8, -2.423e-08
5831.8, -2.36e-08
5833.8, -2.368e-08
5835.8, -2.159e-08
5837.8, -2.496e-08
5839.8, -2.417e-08
5841.8, -2.041e-08
5843.8, -2.42e-08
5845.8, -2.71e-08
5847.8, -2.712e-08
5849.8, -2.342e-08
5851.8, -2.365e-08
5853.8, -2.472e-08
5855.8, -2.466e-08
5857.9, -2.298e-08
5859.9, -2.301e-08
5861.9, -2.265e-08
5863.9, -2.432e-08
5865.9, -2.571e-08
5867.9, -2.376e-08
5869.9, -2.264e-08
5871.9, -2.134e-08
5873.9, -2.641e-08
5875.9, -2.671e-08
5877.9, -2.266e-08
5879.9, -1.952e-08
5881.9, -1.929e-08
5883.9, -2.061e-08
5885.9, -2.388e-08
5887.9, -2.377e-08
5889.9, -2.196e-08
5891.9, -1.81e-08
5893.9, -2.077e-08
5895.9, -2.342e-08
5897.9, -2.284e-08
5899.9, -2.508e-08
5901.9, -2.35e-08
5903.9, -2.479e-08
5905.9, -2.346e-08
5907.9, -2.418e-08
5909.9, -2.21e-08
5911.9, -2.71e-08
5913.9, -2.648e-08
5915.9, -2.524e-08
5917.9, -2.452e-08
5919.9, -2.138e-08
5921.9, -2.146e-08
5923.9, 9.583e-08
5925.9, 1.2569e-07
5927.9, 1.7244e-07
5929.9, 1.5669e-07
5931.9, 1.5092e-07
5933.9, 1.4689e-07
5935.9, 1.5384e-07
5937.9, 1.4747e-07
5939.9, 1.6435e-07
5941.9, 1.622e-07
5943.9, 1.3467e-07
5945.9, 1.2121e-07
5947.9, 1.4116e-07
5949.9, 1.6168e-07
5951.9, 1.9981e-07
5953.9, 1.675e-07
5955.9, 1.2956e-07
5958.0, 1.491e-07
5960.0, 1.9624e-07
5962.0, 1.5441e-07
5964.0, 1.4134e-07
5966.0, 1.3908e-07
5968.0, 1.6886e-07
5970.0, 1.3275e-07
5972.0, 1.5695e-07
5974.0, 1.5369e-07
5976.0, 1.8274e-07
5978.0, 1.6165e-07
5980.0, 1.913e-07
5982.0, 1.4723e-07
5984.0, 1.8967e-07
5986.0, 1.4255e-07
5988.0, 1.7067e-07
5990.0, 1.9163e-07
5992.0, 1.7366e-07
5994.0, 1.5048e-07
5996.0, 1.5277e-07
5998.0, 1.2307e-07
6000.0, 1.6026e-07
6002.0, 1.911e-07
6004.0, 1.5722e-07
6006.0, 1.7909e-07
6008.0, 1.3048e-07
6010.0, 1.951e-07
6012.0, 1.5082e-07
6014.0, 1.7242e-07
6016.0, 1.4879e-07
6018.0, 1.6683e-07
6020.0, 1.736e-07
6022.0, 1.3935e-07
6024.0, 2.0586e-07
6026.0, 1.3077e-07
6028.0, 1.6972e-07
6030.0, 1.6862e-07
6032.0, 1.6951e-07
6034.0, 1.6508e-07
6036.0, 1.73e-07
6038.0, 1.9679e-07
6040.0, 1.5788e-07
6042.0, 1.3536e-07
6044.0, 1.516e-07
6046.0, 1.541e-07
6048.0, 1.5936e-07
6050.0, 1.5241e-07
6052.0, 1.5676e-07
6054.0, 1.7894e-07
6056.0, 1.91e-07
6058.1, 1.7642e-07
6060.1, 1.8068e-07
6062.1, 1.4062e-07
6064.1, 1.5543e-07
6066.1, 1.762e-07
6068.1, 1.7147e-07
6070.1, 1.6464e-07
6072.1, 1.7895e-07
6074.1, 1.66e-07
6076.1, 1.8042e-07
6078.1, 2.0327e-07
6080.1, 1.536e-07
6082.1, 1.53e-07
6084.1, 2.0241e-07
6086.1, 1.4427e-07
6088.1, 1.6825e-07
6090.1, 1.5944e-07
6092.1, 1.7377e-07
6094.1, 1.639e-07
6096.1, 1.5957e-07
6098.1, 1.801e-07
6100.1, 1.8939e-07
6102.1, 1.5393e-07
6104.1, 1.8813e-07
6106.1, 1.5943e-07
6108.1, 1.7445e-07
6110.1, 1.6978e-07
6112.1, 1.608e-07
6114.1, 1.7702e-07
6116.1, 1.6806e-07
6118.1, 1.6841e-07
6120.1, 1.8791e-07
6122.1, 1.9094e-07
6124.1, 1.7932e-07
6126.1, 1.7046e-07
6128.1, 1.5906e-07
6130.1, 1.9264e-07
6132.1, 1.6708e-07
6134.1, 1.6479e-07
6136.1, 1.7113e-07
6138.1, 1.7565e-07
6140.1, 1.4062e-07
6142.1, 1.7403e-07
6144.1, 2.1406e-07
6146.1, 1.915e-07
6148.1, 1.7164e-07
6150.1, 1.7841e-07
6152.1, 1.9955e-07
6154.1, 1.7292e-07
6156.1, 2.0834e-07
6158.2, 1.544e-07
6160.2, 1.8991e-07
6162.2, 1.8981e-07
6164.2, 1.8856e-07
6166.2, 2.0271e-07
6168.2, 1.7533e-07
6170.2, 1.641e-07
6172.2, 1.5407e-07
6174.2, 1.8155e-07
6176.2, 1.7806e-07
6178.2, 1.6731e-07
6180.2, 1.9683e-07
6182.2, 1.7072e-07
6184.2, 1.7708e-07
6186.2, 1.9471e-07
6188.2, 1.7705e-07
6190.2, 1.606e-07
6192.2, 1.6058e-07
6194.2, 1.7163e-07
6196.2, 1.7003e-07
6198.2, 1.9046e-07
6200.2, 1.4799e-07
6202.2, 1.8225e-07
6204.2, 1.6809e-07
6206.2, 1.9519e-07
6208.2, 1.9201e-07
6210.2, 1.5026e-07
6212.2, 1.6436e-07
6214.2, 1.4522e-07
6216.2, 1.7766e-07
6218.2, 1.7249e-07
6220.2, 1.9159e-07
6222.2, 1.7385e-07
6224.2, 1.6229e-07
6226.2, 2.0573e-07
6228.2, 1.5466e-07
6230.2, 1.6451e-07
6232.2, 1.6303e-07
6234.2, 1.8659e-07
6236.2, 1.7613e-07
6238.2, 1.9364e-07
6240.2, 1.8608e-07
6242.2, 1.8138e-07
6244.2, 1.5922e-07
6246.2, 2.214e-07
6248.2, 2.0481e-07
6250.2, 1.6464e-07
6252.2, 1.68e-07
6254.2, 1.6781e-07
6256.2, 1.6642e-07
6258.3, 1.9059e-07
6260.3, 1.513e-07
6262.3, 1.5856e-07
6264.3, 1.7533e-07
6266.3, 1.8414e-07
6268.3, 1.7438e-07
6270.3, 1.7954e-07
6272.3, 1.6868e-07
6274.3, 1.2418e-07
6276.3, 1.8825e-07
6278.3, 1.6418e-07
6280.3, 1.6318e-07
6282.3, 1.9315e-07
6284.3, 1.7579e-07
6286.3, 1.9416e-07
6288.3, 1.9904e-07
6290.3, 1.7373e-07
6292.3, 1.344e-07
6294.3, 2.0157e-07
6296.3, 1.8927e-07
6298.3, 1.4707e-07
6300.3, 2.0823e-07
6302.3, 2.0608e-07
6304.3, 1.8295e-07
6306.3, 1.5344e-07
6308.3, 1.7262e-07
6310.3, 1.5923e-07
6312.3, 1.7926e-07
6314.3, 1.7572e-07
6316.3, 1.906e-07
6318.3, 1.8712e-07
6320.3, 1.8134e-07
6322.3, 1.822e-07
6324.3, 1.4842e-07
6326.3, 1.7922e-07
6328.3, 1.5629e-07
6330.3, 1.6704e-07
6332.3, 1.4065e-07
6334.3, 1.6211e-07
6336.3, 1.7122e-07
6338.3, 2.0293e-07
6340.3, 1.9965e-07
6342.3, 1.9117e-07
6344.3, 1.4427e-07
6346.3, 1.8621e-07
6348.3, 1.7549e-07
6350.3, 1.7241e-07
6352.3, 2.2744e-07
6354.3, 2.0173e-07
6356.3, 1.8828e-07
6358.4, 1.9305e-07
6360.4, 1.4785e-07
6362.4, 1.5405e-07
6364.4, 1.6706e-07
6366.4, 1.787e-07
6368.4, 1.7225e-07
6370.4, 2.0218e-07
6372.4, 1.5941e-07
6374.4, 1.9757e-07
6376.4, 1.72e-07
6378.4, 1.6694e-07
6380.4, 1.576e-07
6382.4, 2.2297e-07
6384.4, 1.6956e-07
6386.4, 1.6721e-07
6388.4, 1.6476e-07
6390.4, 1.7812e-07
6392.4, 2.339e-07
6394.4, 1.7844e-07
6396.4, 1.8466e-07
6398.4, 1.8236e-07
6400.4, 1.8517e-07
6402.4, 1.6402e-07
6404.4, 1.8842e-07
6406.4, 1.9358e-07
6408.4, 1.6732e-07
6410.4, 1.6833e-07
6412.4, 1.7552e-07
6414.4, 2.0471e-07
6416.4, 1.9092e-07
6418.4, 1.6145e-07
6420.4, 1.9306e-07
6422.4, 1.796e-07
6424.4, 1.8469e-07
6426.4, 1.8573e-07
6428.4, 1.9289e-07
6430.4, 1.7642e-07
6432.4, 2.2639e-07
6434.4, 2.0787e-07
6436.4, 2.0909e-07
6438.4, 1.6691e-07
6440.4, 1.5269e-07
6442.4, 1.8112e-07
6444.4, 1.6467e-07
6446.4, 1.8841e-07
6448.4, 1.9847e-07
6450.4, 1.7906e-07
6452.4, 1.9513e-07
6454.4, 1.7679e-07
6456.4, 1.6978e-07
6458.5, 1.5454e-07
6460.5, 1.7191e-07
6462.5, 1.8635e-07
6464.5, 1.743e-07
6466.5, 2.1464e-07
6468.5, 1.9207e-07
6470.5, 1.8173e-07
6472.5, 1.8021e-07
6474.5, 1.8598e-07
6476.5, 1.8907e-07
6478.5, 1.7925e-07
6480.5, 1.8113e-07
6482.5, 1.5924e-07
6484.5, 1.8495e-07
6486.5, 1.9129e-07
6488.5, 2.1763e-07
6490.5, 1.8786e-07
6492.5, 1.7783e-07
6494.5, 1.7183e-07
6496.5, 2.2061e-07
6498.5, 1.7296e-07
6500.5, 1.7998e-07
6502.5, 1.8867e-07
6504.5, 1.9765e-07
6506.5, 1.726e-07
6508.5, 2.2413e-07
6510.5, 1.8737e-07
6512.5, 1.8445e-07
6514.5, 1.9623e-07
6516.5, 1.6821e-07
6518.5, 1.8711e-07
6520.5, 1.7465e-07
6522.5, 1.5642e-07
6524.5, 1.6027e-07
6526.5, 1.9545e-07
6528.5, 2.3624e-07
6530.5, 1.7899e-07
6532.5, 1.8933e-07
6534.5, 1.6886e-07
6536.5, 1.9083e-07
6538.5, 1.9356e-07
6540.5, 1.9966e-07
6542.5, 1.9261e-07
6544.5, 2.0752e-07
6546.5, 1.8686e-07
6548.5, 1.6149e-07
6550.5, 1.869e-07
6552.5, 1.9474e-07
6554.5, 2.0797e-07
6556.5, 1.4895e-07
6558.6, 1.4845e-07
6560.6, 1.3544e-07
6562.6, 1.9383e-07
6564.6, 2.0309e-07
6566.6, 2.024e-07
6568.6, 2.2947e-07
6570.6, 2.1652e-07
6572.6, 2.0687e-07
6574.6, 1.8285e-07
6576.6, 1.9034e-07
6578.6, 1.9578e-07
6580.6, 1.965e-07
6582.6, 1.9645e-07
6584.6, 1.7971e-07
6586.6, 1.533e-07
6588.6, 1.7076e-07
6590.6, 2.3627e-07
6592.6, 1.9913e-07
6594.6, 1.9754e-07
6596.6, 2.2042e-07
6598.6, 2.0095e-07
6600.6, 1.7572e-07
6602.6, 1.5549e-07
6604.6, 2.0356e-07
6606.6, 1.7773e-07
6608.6, 1.8618e-07
6610.6, 2.0789e-07
6612.6, 2.0673e-07
6614.6, 2.0185e-07
6616.6, 1.9468e-07
6618.6, 1.9908e-07
6620.6, 1.9932e-07
6622.6, 1.76e-07
6624.6, 2.025e-07
6626.6, 1.787e-07
6628.6, 1.8403e-07
6630.6, 1.9462e-07
6632.6, 1.9896e-07
6634.6, 2.0382e-07
6636.6, 1.8067e-07
6638.6, 1.2714e-07
6640.6, 2.0646e-07
6642.6, 2.3048e-07
6644.6, 1.978e-07
6646.6, 1.8416e-07
6648.6, 2.0184e-07
6650.6, 1.8112e-07
6652.6, 1.7151e-07
6654.6, 2.1019e-07
6656.6, 1.7927e-07
6658.7, 1.844e-07
6660.7, 1.9288e-07
6662.7, 1.9606e-07
6664.7, 2.1655e-07
6666.7, 1.7359e-07
6668.7, 2.0836e-07
6670.7, 1.8667e-07
6672.7, 2.0571e-07
6674.7, 1.8936e-07
6676.7, 1.8117e-07
6678.7, 2.0751e-07
6680.7, 1.8618e-07
6682.7, 1.9951e-07
6684.7, 1.8458e-07
6686.7, 1.7274e-07
6688.7, 1.9879e-07
6690.7, 1.6559e-07
6692.7, 1.695e-07
6694.7, 1.8474e-07
6696.7, 2.0773e-07
6698.7, 1.7396e-07
6700.7, 2.0196e-07
6702.7, 1.6766e-07
6704.7, 1.8165e-07
6706.7, 1.9163e-07
6708.7, 1.9288e-07
6710.7, 1.8691e-07
6712.7, 2.0709e-07
6714.7, 2.2193e-07
6716.7, 1.8691e-07
6718.7, 1.556e-07
6720.7, 2.0174e-07
6722.7, 1.6327e-07
6724.7, 1.7071e-07
6726.7, 1.8651e-07
6728.7, 1.5456e-07
6730.7, 1.518e-07
6732.7, 1.773e-07
6734.7, 1.8392e-07
6736.7, 1.9735e-07
6738.7, 1.7862e-07
6740.7, 1.7073e-07
6742.7, 1.7866e-07
6744.7, 1.6138e-07
6746.7, 1.8324e-07
6748.7, 2.0438e-07
6750.7, 1.9249e-07
6752.7, 1.8711e-07
6754.7, 1.6605e-07
6756.7, 1.9087e-07
6758.8, 1.6816e-07
6760.8, 1.9738e-07
6762.8, 1.9744e-07
6764.8, 2.1272e-07
6766.8, 2.1092e-07
6768.8, 1.7964e-07
6770.8, 2.1181e-07
6772.8, 1.9741e-07
6774.8, 1.8411e-07
6776.8, 1.8408e-07
6778.8, 2.1757e-07
6780.8, 1.8506e-07
6782.8, 2.1533e-07
6784.8, 2.1863e-07
6786.8, 2.0708e-07
6788.8, 1.7677e-07
6790.8, 2.0224e-07
6792.8, 1.7306e-07
6794.8, 1.7587e-07
6796.8, 1.9712e-07
6798.8, 2.1191e-07
6800.8, 1.8629e-07
6802.8, 1.8986e-07
6804.8, 1.5696e-07
6806.8, 1.8798e-07
6808.8, 1.7332e-07
6810.8, 1.3794e-07
6812.8, 1.9555e-07
6814.8, 1.9064e-07
6816.8, 1.8629e-07
6818.8, 2.2558e-07
6820.8, 1.605e-07
6822.8, 2.0577e-07
6824.8, 1.9529e-07
6826.8, 1.7103e-07
6828.8, 2.0465e-07
6830.8, 1.6938e-07
6832.8, 2.0652e-07
6834.8, 1.9878e-07
6836.8, 1.7375e-07
6838.8, 1.7472e-07
6840.8, 1.7947e-07
6842.8, 1.6919e-07
6844.8, 1.6772e-07
6846.8, 1.6829e-07
6848.8, 1.6043e-07
6850.8, 2.1737e-07
6852.8, 1.9761e-07
6854.8, 2.0235e-07
6856.8, 1.8006e-07
6858.9, 1.82e-07
6860.9, 1.665e-07
6862.9, 1.8454e-07
6864.9, 1.8406e-07
6866.9, 1.7392e-07
6868.9, 2.0078e-07
6870.9, 1.8063e-07
6872.9, 1.7023e-07
6874.9, 1.7476e-07
6876.9, 1.9981e-07
6878.9, 1.7203e-07
6880.9, 2.0656e-07
6882.9, 2.1803e-07
6884.9, 1.7944e-07
6886.9, 1.9578e-07
6888.9, 2.3198e-07
6890.9, 2.0075e-07
6892.9, 2.0826e-07
6894.9, 1.8029e-07
6896.9, 2.0463e-07
6898.9, 1.9547e-07
6900.9, 1.663e-07
6902.9, 2.0193e-07
6904.9, 1.8506e-07
6906.9, 2.255e-07
6908.9, 1.6404e-07
6910.9, 1.9845e-07
6912.9, 1.9114e-07
6914.9, 2.3193e-07
6916.9, 1.6304e-07
6918.9, 1.8131e-07
6920.9, 1.8475e-07
6922.9, 1.6286e-07
6924.9, 9.184e-08
6926.9, -2.399e-08
6928.9, -2.156e-08
6930.9, -2.262e-08
6932.9, -2.075e-08
6934.9, -2.259e-08
6936.9, -2.538e-08
6938.9, -2.504e-08
6940.9, -2.494e-08
6942.9, -1.932e-08
6944.9, -2.491e-08
6946.9, -2.744e-08
6948.9, -2.722e-08
6950.9, -2.565e-08
6952.9, -2.34e-08
6954.9, -2.281e-08
6956.9, -2.623e-08
6959.0, -2.145e-08
6961.0, -2.653e-08
6963.0, -2.316e-08
6965.0, -2.376e-08
6967.0, -2.017e-08
6969.0, -1.876e-08
6971.0, -2.007e-08
6973.0, -2.261e-08
6975.0, -2.343e-08
6977.0, -2.445e-08
6979.0, -2.239e-08
6981.0, -2.245e-08
6983.0, -2.576e-08
6985.0, -2.118e-08
6987.0, -2.317e-08
6989.0, -2.206e-08
6991.0, -2.085e-08
6993.0, -1.981e-08
6995.0, -1.96e-08
6997.0, -2.195e-08
6999.0, -2.042e-08
7001.0, -2.214e-08
7003.0, -2.238e-08
7005.0, -1.869e-08
7007.0, -2.63e-08
7009.0, -2.73e-08
7011.0, -2.447e-08
7013.0, -2.329e-08
7015.0, -2.381e-08
7017.0, -2.559e-08
7019.0, -2.491e-08
7021.0, -2.178e-08
7023.0, -2.304e-08
7025.0, -2.496e-08
7027.0, -1.886e-08
7029.0, -2.364e-08
7031.0, -1.968e-08
7033.0, -1.996e-08
7035.0, -2.042e-08
7037.0, -1.867e-08
7039.0, -1.862e-08
7041.0, -2.077e-08
7043.0, -2.18e-08
7045.0, -1.939e-08
7047.0, -1.915e-08
7049.0, -2.505e-08
7051.0, -2.095e-08
7053.0, -2.386e-08
7055.0, -2.401e-08
7057.0, -2.085e-08
7059.1, -2.293e-08
7061.1, -2.012e-08
7063.1, -2.068e-08
7065.1, -2.013e-08
7067.1, -2.023e-08
7069.1, -2.083e-08
7071.1, -1.969e-08
7073.1, -1.959e-08
7075.1, -1.997e-08
7077.1, -2.176e-08
7079.1, -2.082e-08
7081.1, -2.14e-08
7083.1, -2.184e-08
7085.1, -2.355e-08
7087.1, -2.216e-08
7089.1, -2.64e-08
7091.1, -1.967e-08
7093.1, -1.944e-08
7095.1, -1.934e-08
7097.1, -2.225e-08
7099.1, -1.948e-08
7101.1, -1.816e-08
7103.1, -1.716e-08
7105.1, -1.51e-08
7107.1, -1.723e-08
7109.1, -1.86e-08
7111.1, -1.562e-08
7113.1, -1.747e-08
7115.1, -2.06e-08
7117.1, -2.254e-08
7119.1, -2.282e-08
7121.1, -2.241e-08
7123.1, -1.936e-08
7125.1, -2.534e-08
7127.1, -2.477e-08
7129.1, -2.292e-08
7131.1, -2.319e-08
7133.1, -2.014e-08
7135.1, -2.133e-08
7137.1, -2.263e-08
7139.1, -2.227e-08
7141.1, -2.111e-08
7143.1, -2.292e-08
7145.1, -2.357e-08
7147.1, -2.521e-08
7149.1, -2.405e-08
7151.1, -2.116e-08
7153.1, -2.08e-08
7155.1, -2.403e-08
7157.1, -2.175e-08
7159.2, -2.054e-08
7161.2, -2.443e-08
7163.2, -2.256e-08
7165.2, -2.101e-08
7167.2, -2.369e-08
7169.2, -2.322e-08
7171.2, -2.254e-08
7173.2, -2.388e-08
7175.2, -2.265e-08
7177.2, -2.322e-08
7179.2, -2.193e-08
7181.2, -2.656e-08
7183.2, -2.254e-08
7185.2, -2.45e-08
7187.2, -2.242e-08
7189.2, -1.948e-08
7191.2, -2.008e-08
7193.2, -2.36e-08
7195.2, -2.344e-08
7197.2, -1.736e-08
7199.2, -1.99e-08
7201.2, -1.847e-08
7203.2, -1.93e-08
7205.2, -2.214e-08
7207.2, -1.977e-08
7209.2, -2.181e-08
7211.2, -2.133e-08
7213.2, -2.234e-08
7215.2, -2.396e-08
7217.2, -2.083e-08
7219.2, -2.177e-08
7221.2, -2.145e-08
7223.2, -2.058e-08
7225.2, -2.019e-08
7227.2, -1.995e-08
7229.2, -2.087e-08
7231.2, -1.952e-08
7233.2, -1.988e-08
7235.2, -2.05e-08
7237.2, -2.348e-08
7239.2, -1.973e-08
7241.2, -1.967e-08
7243.2, -2.195e-08
7245.2, -1.99e-08
7247.2, -2.061e-08
7249.2, -2.21e-08
7251.2, -2.246e-08
7253.2, -1.813e-08
7255.2, -1.901e-08
7257.2, -1.937e-08
7259.3, -1.867e-08
7261.3, -1.977e-08
7263.3, -2.049e-08
7265.3, -2.169e-08
7267.3, -1.974e-08
7269.3, -2.081e-08
7271.3, -1.787e-08
7273.3, -2.129e-08
7275.3, -2.4e-08
7277.3, -2.073e-08
7279.3, -2.025e-08
7281.3, -2.137e-08
7283.3, -2.417e-08
7285.3, -2.238e-08
7287.3, -2.492e-08
7289.3, -2.309e-08
7291.3, -2.933e-08
7293.3, -2.589e-08
7295.3, -2.722e-08
7297.3, -2.495e-08
7299.3, -2.539e-08
7301.3, -1.741e-08
7303.3, -2.079e-08
7305.3, -2.281e-08
7307.3, -2.151e-08
7309.3, -2.084e-08
7311.3, -2.143e-08
7313.3, -2.48e-08
7315.3, -1.924e-08
7317.3, -2.322e-08
7319.3, -2.482e-08
7321.3, -2.248e-08
7323.3, -2.584e-08
7325.3, -2.546e-08
7327.3, -3.019e-08
7329.3, -2.803e-08
7331.3, -2.588e-08
7333.3, -2.733e-08
7335.3, -2.766e-08
7337.3, -2.87e-08
7339.3, -2.858e-08
7341.3, -2.763e-08
7343.3, -2.383e-08
7345.3, -2.696e-08
7347.3, -2.581e-08
7349.3, -2.756e-08
7351.3, -2.647e-08
7353.3, -2.635e-08
7355.3, -2.459e-08
7357.3, -2.451e-08
7359.4, -2.522e-08
7361.4, -2.618e-08
7363.4, -2.805e-08
7365.4, -2.673e-08
7367.4, -2.772e-08
7369.4, -2.462e-08
7371.4, -2.181e-08
7373.4, -2.057e-08
7375.4, -2.219e-08
7377.4, -2.618e-08
7379.4, -2.338e-08
7381.4, -2.227e-08
7383.4, -2.008e-08
7385.4, -2.051e-08
7387.4, -1.955e-08
7389.4, -2.362e-08
7391.4, -2.478e-08
7393.4, -2.706e-08
7395.4, -2.204e-08
7397.4, -2.018e-08
7399.4, -2.448e-08
7401.4, -2.519e-08
7403.4, -2.4e-08
7405.4, -2.01e-08
7407.4, -2.482e-08
7409.4, -2.836e-08
7411.4, -2.83e-08
7413.4, -2.636e-08
7415.4, -2.524e-08
7417.4, -2.607e-08
7419.4, -2.77e-08
7421.4, -2.254e-08
7423.4, -2.097e-08
7425.4, -2.025e-08
7427.4, -2.168e-08
7429.4, -2.327e-08
7431.4, -2.193e-08
7433.4, -2.385e-08
7435.4, -2.459e-08
7437.4, -2.631e-08
7439.4, -2.359e-08
7441.4, -2.098e-08
7443.4, -2.035e-08
7445.4, -2.293e-08
7447.4, -2.347e-08
7449.4, -2.354e-08
7451.4, -2.289e-08
7453.4, -2.029e-08
7455.4, -2.025e-08
7457.4, -2.257e-08
7459.5, -2.323e-08
7461.5, -2.006e-08
7463.5, -2.407e-08
7465.5, -2.474e-08
7467.5, -2.018e-08
7469.5, -2.062e-08
7471.5, -2.501e-08
7473.5, -2.332e-08
7475.5, -2.453e-08
7477.5, -2.711e-08
7479.5, -2.483e-08
7481.5, -2.055e-08
7483.5, -2.016e-08
7485.5, -2.417e-08
7487.5, -2.278e-08
7489.5, -1.959e-08
7491.5, -1.525e-08
7493.5, -1.759e-08
7495.5, -2.042e-08
7497.5, -2.32e-08
7499.5, -1.806e-08
7501.5, -2.007e-08
7503.5, -2.139e-08
7505.5, -1.996e-08
7507.5, -2.193e-08
7509.5, -1.928e-08
7511.5, -1.913e-08
7513.5, -2.535e-08
7515.5, -1.799e-08
7517.5, -2.081e-08
7519.5, -2.432e-08
7521.5, -1.775e-08
7523.5, -1.855e-08
7525.5, -2.648e-08
7527.5, -2.135e-08
7529.5, -2.094e-08
7531.5, -2.193e-08
7533.5, -2.386e-08
7535.5, -2.3e-08
7537.5, -2.176e-08
7539.5, -2.216e-08
7541.5, -2.159e-08
7543.5, -2.443e-08
7545.5, -2.053e-08
7547.5, -2.386e-08
7549.5, -2.536e-08
7551.5, -2.374e-08
7553.5, -2.321e-08
7555.5, -2.207e-08
7557.5, -2.42e-08
7559.6, -2.134e-08
7561.6, -2.388e-08
7563.6, -1.87e-08
7565.6, -2.138e-08
7567.6, -2.276e-08
7569.6, -2.347e-08
7571.6, -2.494e-08
7573.6, -2.363e-08
7575.6, -2.37e-08
7577.6, -2.383e-08
7579.6, -2.747e-08
7581.6, -2.601e-08
7583.6, -2.403e-08
7585.6, -2.263e-08
7587.6, -2.275e-08
7589.6, -2.425e-08
7591.6, -2.39e-08
7593.6, -2.72e-08
7595.6, -2.392e-08
7597.6, -2.372e-08
7599.6, -2.402e-08
7601.6, -2.303e-08
7603.6, -2.051e-08
7605.6, -2.38e-08
7607.6, -2.609e-08
7609.6, -2.632e-08
7611.6, -2.376e-08
7613.6, -2.389e-08
7615.6, -2.316e-08
7617.6, -2.312e-08
7619.6, -2.044e-08
7621.6, -2.348e-08
7623.6, -2.154e-08
7625.6, -2.166e-08
7627.6, -2.02e-08
7629.6, -1.637e-08
7631.6, -1.828e-08
7633.6, -1.446e-08
7635.6, -1.707e-08
7637.6, -1.973e-08
7639.6, -2.344e-08
7641.6, -1.804e-08
7643.6, -2.073e-08
7645.6, -1.91e-08
7647.6, -1.772e-08
7649.6, -2.293e-08
7651.6, -1.906e-08
7653.6, -1.969e-08
7655.6, -2.324e-08
7657.6, -2.137e-08
7659.7, -2.273e-08
7661.7, -2.129e-08
7663.7, -1.634e-08
7665.7, -2.11e-08
7667.7, -2.289e-08
7669.7, -2.113e-08
7671.7, -1.904e-08
7673.7, -2.075e-08
7675.7, -2.326e-08
7677.7, -2.236e-08
7679.7, -2.167e-08
7681.7, -2.393e-08
7683.7, -2.606e-08
7685.7, -2.103e-08
7687.7, -2.391e-08
7689.7, -2.186e-08
7691.7, -2.321e-08
7693.7, -2.183e-08
7695.7, -2.187e-08
7697.7, -2.18e-08
7699.7, -1.978e-08
7701.7, -2.043e-08
7703.7, -2.114e-08
7705.7, -2.313e-08
7707.7, -2.144e-08
7709.7, -2.301e-08
7711.7, -2.283e-08
7713.7, -1.907e-08
7715.7, -2.418e-08
7717.7, -2.198e-08
7719.7, -2.131e-08
7721.7, -2.3e-08
7723.7, -1.943e-08
7725.7, -1.866e-08
7727.7, -2.03e-08
7729.7, -2.124e-08
7731.7, -2.001e-08
7733.7, -2.197e-08
7735.7, -2.206e-08
7737.7, -1.934e-08
7739.7, -2.049e-08
7741.7, -1.943e-08
7743.7, -1.448e-08
7745.7, -2.112e-08
7747.7, -1.809e-08
7749.7, -1.773e-08
7751.7, -2.085e-08
7753.7, -2.199e-08
7755.7, -1.835e-08
7757.7, -2.299e-08
7759.8, -2.184e-08
7761.8, -2.276e-08
7763.8, -1.933e-08
7765.8, -2.3e-08
7767.8, -2.637e-08
7769.8, -2.382e-08
7771.8, -2.269e-08
7773.8, -2.15e-08
7775.8, -1.811e-08
7777.8, -2.07e-08
7779.8, -2.232e-08
7781.8, -2.186e-08
7783.8, -2.144e-08
7785.8, -2.099e-08
7787.8, -1.991e-08
7789.8, -2.744e-08
7791.8, -2.531e-08
7793.8, -1.969e-08
7795.8, -2.067e-08
7797.8, -2.137e-08
7799.8, -2.238e-08
7801.8, -2.121e-08
7803.8, -2.049e-08
7805.8, -1.872e-08
7807.8, -2.009e-08
7809.8, -1.998e-08
7811.8, -2.048e-08
7813.8, -2.554e-08
7815.8, -2.256e-08
7817.8, -2.679e-08
7819.8, -2.937e-08
7821.8, -2.349e-08
7823.8, -2.713e-08
7825.8, -2.231e-08
7827.8, -2.533e-08
7829.8, -2.38e-08
7831.8, -2.397e-08
7833.8, -2.496e-08
7835.8, -2.267e-08
7837.8, -2.515e-08
7839.8, -2.772e-08
7841.8, -2.876e-08
7843.8, -2.457e-08
7845.8, -2.523e-08
7847.8, -2.393e-08
7849.8, -2.575e-08
7851.8, -2.799e-08
7853.8, -2.522e-08
7855.8, -2.939e-08
7857.8, -2.925e-08
7859.9, -2.783e-08
7861.9, -2.99e-08
7863.9, -2.74e-08
7865.9, -2.374e-08
7867.9, -2.626e-08
7869.9, -2.65e-08
7871.9, -2.379e-08
7873.9, -2.477e-08
7875.9, -2.499e-08
7877.9, -2.497e-08
7879.9, -2.599e-08
7881.9, -2.248e-08
7883.9, -2.617e-08
7885.9, -2.363e-08
7887.9, -2.403e-08
7889.9, -2.226e-08
7891.9, -2.025e-08
7893.9, -1.996e-08
7895.9, -2.491e-08
7897.9, -2.289e-08
7899.9, -2.376e-08
7901.9, -2.324e-08
7903.9, -2.492e-08
7905.9, -2.441e-08
7907.9, -2.341e-08
7909.9, -2.359e-08
7911.9, -2.25e-08
7913.9, -1.824e-08
7915.9, -2.125e-08
7917.9, -2.49e-08
7919.9, -2.493e-08
7921.9, -2.067e-08
7923.9, -2.114e-08
7925.9, -2.584e-08
7927.9, -2.698e-08
7929.9, -2.617e-08
7931.9, -2.58e-08
7933.9, -2.405e-08
7935.9, -2.407e-08
7937.9, -2.405e-08
7939.9, -2.563e-08
7941.9, -2.782e-08
7943.9, -2.571e-08
7945.9, -2.4e-08
7947.9, -2.507e-08
7949.9, -2.101e-08
7951.9, -2.122e-08
7953.9, -2.239e-08
7955.9, 9.856e-08
7957.9, 1.3876e-07
7960.0, 1.6105e-07
7962.0, 1.6893e-07
7964.0, 1.5645e-07
7966.0, 1.5738e-07
7968.0, 1.5153e-07
7970.0, 1.273e-07
7972.0, 1.8053e-07
7974.0, 1.4754e-07
7976.0, 1.564e-07
7978.0, 1.2534e-07
7980.0, 1.5395e-07
7982.0, 1.3275e-07
7984.0, 1.3284e-07
7986.0, 1.7478e-07
7988.0, 1.8433e-07
7990.0, 1.5662e-07
7992.0, 1.4002e-07
7994.0, 1.507e-07
7996.0, 1.2474e-07
7998.0, 1.3842e-07
8000.0, 1.4839e-07
8002.0, 1.6638e-07
8004.0, 1.793e-07
8006.0, 1.4399e-07
8008.0, 1.1402e-07
8010.0, 1.4618e-07
8012.0, 1.6622e-07
8014.0, 1.512e-07
8016.0, 1.5535e-07
8018.0, 1.5036e-07
8020.0, 1.8342e-07
8022.0, 1.379e-07
8024.0, 1.8277e-07
8026.0, 1.6432e-07
8028.0, 1.3494e-07
8030.0, 1.7905e-07
8032.0, 1.4513e-07
8034.0, 1.336e-07
8036.0, 1.4253e-07
8038.0, 1.6059e-07
8040.0, 1.4211e-07
8042.0, 1.5108e-07
8044.0, 1.7715e-07
8046.0, 1.7492e-07
8048.0, 1.6379e-07
8050.0, 1.787e-07
8052.0, 1.3369e-07
8054.0, 1.5739e-07
8056.0, 1.449e-07
8058.0, 1.7149e-07
8060.1, 1.5265e-07
8062.1, 1.5189e-07
8064.1, 1.7017e-07
8066.1, 1.5563e-07
8068.1, 1.5253e-07
8070.1, 1.6041e-07
8072.1, 1.6302e-07
8074.1, 1.6562e-07
8076.1, 1.6436e-07
8078.1, 1.611e-07
8080.1, 1.7692e-07
8082.1, 1.9365e-07
8084.1, 1.5541e-07
8086.1, 1.3616e-07
8088.1, 1.4482e-07
8090.1, 1.843e-07
8092.1, 1.4147e-07
8094.1, 1.6818e-07
8096.1, 1.6618e-07
8098.1, 1.9441e-07
8100.1, 1.3848e-07
8102.1, 1.897e-07
8104.1, 1.923e-07
8106.1, 1.8853e-07
8108.1, 1.4575e-07
8110.1, 1.6322e-07
8112.1, 1.5093e-07
8114.1, 1.7486e-07
8116.1, 1.5697e-07
8118.1, 1.7533e-07
8120.1, 1.6947e-07
8122.1, 1.9779e-07
8124.1, 1.7305e-07
8126.1, 1.5179e-07
8128.1, 1.6997e-07
8130.1, 1.489e-07
8132.1, 1.5033e-07
8134.1, 1.5826e-07
8136.1, 1.3874e-07
8138.1, 1.8445e-07
8140.1, 1.3819e-07
8142.1, 1.5885e-07
8144.1, 1.5046e-07
8146.1, 2.1555e-07
8148.1, 1.7978e-07
8150.1, 1.7788e-07
8152.1, 2.0988e-07
8154.1, 1.7319e-07
8156.1, 1.4651e-07
8158.1, 1.3954e-07
8160.2, 1.7455e-07
8162.2, 1.9277e-07
8164.2, 1.6155e-07
8166.2, 1.5941e-07
8168.2, 1.7258e-07
8170.2, 1.9703e-07
8172.2, 1.5879e-07
8174.2, 2.0754e-07
8176.2, 1.7138e-07
8178.2, 1.9436e-07
8180.2, 1.6611e-07
8182.2, 1.9559e-07
8184.2, 1.7677e-07
8186.2, 1.8897e-07
8188.2, 1.5752e-07
8190.2, 2.0614e-07
8192.2, 1.668e-07
8194.2, 1.7562e-07
8196.2, 1.8807e-07
8198.2, 1.7871e-07
8200.2, 1.6919e-07
8202.2, 1.8717e-07
8204.2, 1.9787e-07
8206.2, 1.7612e-07
8208.2, 1.9379e-07
8210.2, 1.7316e-07
8212.2, 1.7727e-07
8214.2, 1.8181e-07
8216.2, 1.8914e-07
8218.2, 1.5563e-07
8220.2, 1.8647e-07
8222.2, 1.8653e-07
8224.2, 2.1732e-07
8226.2, 1.6723e-07
8228.2, 1.8681e-07
8230.2, 1.8239e-07
8232.2, 1.5233e-07
8234.2, 1.7619e-07
8236.2, 1.6756e-07
8238.2, 1.5391e-07
8240.2, 1.6609e-07
8242.2, 1.5883e-07
8244.2, 1.8228e-07
8246.2, 1.625e-07
8248.2, 1.8006e-07
8250.2, 2.0015e-07
8252.2, 1.6189e-07
8254.2, 1.6759e-07
8256.2, 1.9308e-07
8258.2, 1.8935e-07
8260.3, 1.6709e-07
8262.3, 1.7116e-07
8264.3, 1.5118e-07
8266.3, 1.6762e-07
8268.3, 1.9325e-07
8270.3, 2.0586e-07
8272.3, 1.8067e-07
8274.3, 1.807e-07
8276.3, 1.5834e-07
8278.3, 1.74e-07
8280.3, 1.6747e-07
8282.3, 1.5873e-07
8284.3, 1.5986e-07
8286.3, 1.6686e-07
8288.3, 1.9701e-07
8290.3, 1.9007e-07
8292.3, 1.6887e-07
8294.3, 1.8227e-07
8296.3, 2.1328e-07
8298.3, 1.6654e-07
8300.3, 1.8901e-07
8302.3, 1.8526e-07
8304.3, 1.7806e-07
8306.3, 2.101e-07
8308.3, 1.7519e-07
8310.3, 1.863e-07
8312.3, 1.6394e-07
8314.3, 1.7565e-07
8316.3, 1.9129e-07
8318.3, 1.7881e-07
8320.3, 2.0133e-07
8322.3, 1.8946e-07
8324.3, 1.9517e-07
8326.3, 1.5371e-07
8328.3, 1.8973e-07
8330.3, 1.9927e-07
8332.3, 2.0762e-07
8334.3, 1.6151e-07
8336.3, 1.4856e-07
8338.3, 1.9777e-07
8340.3, 1.7595e-07
8342.3, 1.6373e-07
8344.3, 1.6183e-07
8346.3, 1.9704e-07
8348.3, 2.1046e-07
8350.3, 1.785e-07
8352.3, 2.0369e-07
8354.3, 1.8249e-07
8356.3, 1.8418e-07
8358.3, 1.7125e-07
8360.4, 1.9167e-07
8362.4, 1.924e-07
8364.4, 1.6979e-07
8366.4, 1.6914e-07
8368.4, 2.1057e-07
8370.4, 1.739e-07
8372.4, 1.6771e-07
8374.4, 1.4156e-07
8376.4, 1.7672e-07
8378.4, 1.8607e-07
8380.4, 1.7535e-07
8382.4, 1.6615e-07
8384.4, 1.5671e-07
8386.4, 1.7899e-07
8388.4, 1.719e-07
8390.4, 1.9621e-07
8392.4, 1.8783e-07
8394.4, 1.601e-07
8396.4, 1.6931e-07
8398.4, 1.617e-07
8400.4, 1.7372e-07
8402.4, 2.1059e-07
8404.4, 1.6863e-07
8406.4, 1.706e-07
8408.4, 1.5512e-07
8410.4, 2.1232e-07
8412.4, 1.8694e-07
8414.4, 1.9514e-07
8416.4, 1.8169e-07
8418.4, 1.8718e-07
8420.4, 1.7545e-07
8422.4, 1.6215e-07
8424.4, 1.6582e-07
8426.4, 1.8103e-07
8428.4, 1.9043e-07
8430.4, 1.7555e-07
8432.4, 1.8085e-07
8434.4, 1.4973e-07
8436.4, 1.4832e-07
8438.4, 1.8752e-07
8440.4, 1.7011e-07
8442.4, 1.5311e-07
8444.4, 1.9897e-07
8446.4, 1.8757e-07
8448.4, 2.0134e-07
8450.4, 2.0231e-07
8452.4, 1.6817e-07
8454.4, 1.7004e-07
8456.4, 1.9139e-07
8458.4, 1.6613e-07
8460.5, 1.7241e-07
8462.5, 1.7959e-07
8464.5, 1.741e-07
8466.5, 1.8332e-07
8468.5, 1.8503e-07
8470.5, 1.9094e-07
8472.5, 1.8065e-07
8474.5, 1.7494e-07
8476.5, 1.9951e-07
8478.5, 2.004e-07
8480.5, 1.5587e-07
8482.5, 1.7315e-07
8484.5, 1.7394e-07
8486.5, 2.0092e-07
8488.5, 1.7104e-07
8490.5, 1.7035e-07
8492.5, 1.8807e-07
8494.5, 1.5245e-07
8496.5, 1.8586e-07
8498.5, 1.6888e-07
8500.5, 1.7515e-07
8502.5, 1.9137e-07
8504.5, 1.8577e-07
8506.5, 1.7963e-07
8508.5, 1.7683e-07
8510.5, 1.8574e-07
8512.5, 1.7106e-07
8514.5, 1.7392e-07
8516.5, 1.7451e-07
8518.5, 1.8644e-07
8520.5, 1.7642e-07
8522.5, 1.6426e-07
8524.5, 2.0555e-07
8526.5, 1.7916e-07
8528.5, 1.8451e-07
8530.5, 1.7994e-07
8532.5, 1.7837e-07
8534.5, 2.1905e-07
8536.5, 1.9585e-07
8538.5, 1.8094e-07
8540.5, 1.6766e-07
8542.5, 1.8215e-07
8544.5, 1.6231e-07
8546.5, 1.6755e-07
8548.5, 1.7901e-07
8550.5, 1.5573e-07
8552.5, 1.4916e-07
8554.5, 1.7238e-07
8556.5, 1.7611e-07
8558.5, 1.7684e-07
8560.6, 1.6263e-07
8562.6, 1.7352e-07
8564.6, 1.869e-07
8566.6, 1.8669e-07
8568.6, 1.9952e-07
8570.6, 1.6464e-07
8572.6, 1.9204e-07
8574.6, 2.1632e-07
8576.6, 2.1451e-07
8578.6, 1.9377e-07
8580.6, 1.6372e-07
8582.6, 1.8803e-07
8584.6, 2.0445e-07
8586.6, 2.0835e-07
8588.6, 1.8086e-07
8590.6, 1.8815e-07
8592.6, 2.0483e-07
8594.6, 1.8263e-07
8596.6, 1.8527e-07
8598.6, 1.9246e-07
8600.6, 1.9004e-07
8602.6, 2.355e-07
8604.6, 1.8979e-07
8606.6, 1.8271e-07
8608.6, 2.0891e-07
8610.6, 2.1968e-07
8612.6, 2.0703e-07
8614.6, 1.6606e-07
8616.6, 1.7201e-07
8618.6, 1.6967e-07
8620.6, 1.828e-07
8622.6, 1.9091e-07
8624.6, 1.8509e-07
8626.6, 1.8084e-07
8628.6, 1.5351e-07
8630.6, 1.4857e-07
8632.6, 1.5852e-07
8634.6, 1.6914e-07
8636.6, 1.8853e-07
8638.6, 1.9364e-07
8640.6, 2.1579e-07
8642.6, 1.6281e-07
8644.6, 1.4612e-07
8646.6, 1.8148e-07
8648.6, 1.9183e-07
8650.6, 1.7188e-07
8652.6, 2.1712e-07
8654.6, 1.789e-07
8656.6, 2.0225e-07
8658.6, 1.9393e-07
8660.7, 2.0064e-07
8662.7, 1.9368e-07
8664.7, 1.9674e-07
8666.7, 1.9181e-07
8668.7, 1.8823e-07
8670.7, 1.7139e-07
8672.7, 1.9777e-07
8674.7, 2.3014e-07
8676.7, 1.787e-07
8678.7, 1.8594e-07
8680.7, 1.6773e-07
8682.7, 1.7295e-07
8684.7, 1.7197e-07
8686.7, 1.9281e-07
8688.7, 1.8804e-07
8690.7, 1.9032e-07
8692.7, 1.805e-07
8694.7, 2.12e-07
8696.7, 2.0538e-07
8698.7, 2.0206e-07
8700.7, 1.997e-07
8702.7, 2.0254e-07
8704.7, 1.8632e-07
8706.7, 1.8747e-07
8708.7, 1.7519e-07
8710.7, 1.7634e-07
8712.7, 1.9118e-07
8714.7, 1.9344e-07
8716.7, 1.8643e-07
8718.7, 1.6502e-07
8720.7, 1.9082e-07
8722.7, 2.2099e-07
8724.7, 2.1027e-07
8726.7, 1.7793e-07
8728.7, 1.6641e-07
8730.7, 1.9694e-07
8732.7, 1.7942e-07
8734.7, 1.7943e-07
8736.7, 1.6572e-07
8738.7, 1.7734e-07
8740.7, 1.5508e-07
8742.7, 1.7795e-07
8744.7, 1.8277e-07
8746.7, 1.9678e-07
8748.7, 1.852e-07
8750.7, 1.8187e-07
8752.7, 1.9467e-07
8754.7, 2.1393e-07
8756.7, 1.988e-07
8758.7, 1.866e-07
8760.8, 1.6019e-07
8762.8, 1.8389e-07
8764.8, 1.9677e-07
8766.8, 1.9044e-07
8768.8, 2.0106e-07
8770.8, 1.8167e-07
8772.8, 2.2293e-07
8774.8, 1.9627e-07
8776.8, 1.8564e-07
8778.8, 1.6772e-07
8780.8, 1.7502e-07
8782.8, 2.0334e-07
8784.8, 1.6563e-07
8786.8, 1.7266e-07
8788.8, 1.8094e-07
8790.8, 1.8292e-07
8792.8, 1.7889e-07
8794.8, 1.8513e-07
8796.8, 2.1076e-07
8798.8, 1.6561e-07
8800.8, 1.549e-07
8802.8, 1.6407e-07
8804.8, 1.706e-07
8806.8, 1.408e-07
8808.8, 1.8866e-07
8810.8, 1.4965e-07
8812.8, 1.5609e-07
8814.8, 1.7888e-07
8816.8, 1.7767e-07
8818.8, 1.6965e-07
8820.8, 1.9194e-07
8822.8, 1.7351e-07
8824.8, 1.6267e-07
8826.8, 1.5539e-07
8828.8, 1.7964e-07
8830.8, 1.7141e-07
8832.8, 1.8687e-07
8834.8, 2.0937e-07
8836.8, 1.8511e-07
8838.8, 2.0304e-07
8840.8, 1.9821e-07
8842.8, 1.8908e-07
8844.8, 1.741e-07
8846.8, 1.6755e-07
8848.8, 1.931e-07
8850.8, 1.8551e-07
8852.8, 2.1025e-07
8854.8, 1.9892e-07
8856.8, 1.6513e-07
8858.8, 2.2153e-07
8860.9, 1.9143e-07
8862.9, 1.9873e-07
8864.9, 1.7404e-07
8866.9, 2.24e-07
8868.9, 1.9592e-07
8870.9, 1.7333e-07
8872.9, 1.6206e-07
8874.9, 1.6257e-07
8876.9, 1.9741e-07
8878.9, 1.7284e-07
8880.9, 1.8011e-07
8882.9, 1.7342e-07
8884.9, 1.6003e-07
8886.9, 1.9662e-07
8888.9, 1.9845e-07
8890.9, 1.8951e-07
8892.9, 1.6711e-07
8894.9, 1.7327e-07
8896.9, 2.0139e-07
8898.9, 1.8105e-07
8900.9, 1.8514e-07
8902.9, 1.8089e-07
8904.9, 1.9002e-07
8906.9, 1.756e-07
8908.9, 1.5088e-07
8910.9, 1.7845e-07
8912.9, 2.2141e-07
8914.9, 1.9745e-07
8916.9, 1.9869e-07
8918.9, 1.9452e-07
8920.9, 1.9299e-07
8922.9, 1.6671e-07
8924.9, 1.6828e-07
8926.9, 1.8702e-07
8928.9, 1.8075e-07
8930.9, 1.9876e-07
8932.9, 1.5673e-07
8934.9, 1.8584e-07
8936.9, 1.8971e-07
8938.9, 1.8884e-07
8940.9, 1.9828e-07
8942.9, 2.1649e-07
8944.9, 1.716e-07
8946.9, 1.9981e-07
8948.9, 1.6913e-07
8950.9, 1.8719e-07
8952.9, 1.8382e-07
8954.9, 1.393e-07
8956.9, -5.1e-10
8958.9, -3.171e-08
8961.0, -2.53e-08
8963.0, -2.871e-08
8965.0, -2.575e-08
8967.0, -2.568e-08
8969.0, -2.805e-08
8971.0, -2.771e-08
8973.0, -2.425e-08
8975.0, -2.9e-08
8977.0, -2.333e-08
8979.0, -2.588e-08
8981.0, -2.543e-08
8983.0, -2.893e-08
8985.0, -2.815e-08
8987.0, -2.48e-08
8989.0, -2.402e-08
8991.0, -2.479e-08
8993.0, -2.425e-08
8995.0, -1.881e-08
8997.0, -2.329e-08
8999.0, -2.567e-08
9001.0, -2.279e-08
9003.0, -2.325e-08
9005.0, -2.489e-08
9007.0, -2.226e-08
9009.0, -2.354e-08
9011.0, -2.495e-08
9013.0, -2.341e-08
9015.0, -2.264e-08
9017.0, -2.254e-08
9019.0, -2.26e-08
9021.0, -2.372e-08
9023.0, -2.072e-08
9025.0, -2.168e-08
9027.0, -2.254e-08
9029.0, -2.253e-08
9031.0, -2.331e-08
9033.0, -2.549e-08
9035.0, -2.34e-08
9037.0, -2.505e-08
9039.0, -2.458e-08
9041.0, -2.496e-08
9043.0, -2.42e-08
9045.0, -2.256e-08
9047.0, -2.027e-08
9049.0, -2.506e-08
9051.0, -2.011e-08
9053.0, -2.128e-08
9055.0, -2.261e-08
9057.0, -2.433e-08
9059.0, -2.198e-08
9061.1, -2.153e-08
9063.1, -2.419e-08
9065.1, -1.807e-08
9067.1, -2.357e-08
9069.1, -2.043e-08
9071.1, -2.252e-08
9073.1, -2.238e-08
9075.1, -2.064e-08
9077.1, -2.427e-08
9079.1, -2.28e-08
9081.1, -1.994e-08
9083.1, -1.862e-08
9085.1, -2.14e-08
9087.1, -1.83e-08
9089.1, -1.902e-08
9091.1, -2.156e-08
9093.1, -2.067e-08
9095.1, -1.677e-08
9097.1, -2.057e-08
9099.1, -2.197e-08
9101.1, -2.381e-08
9103.1, -2.235e-08
9105.1, -2.165e-08
9107.1, -2.119e-08
9109.1, -2.225e-08
9111.1, -2.187e-08
9113.1, -2.674e-08
9115.1, -2.657e-08
9117.1, -2.458e-08
9119.1, -2.855e-08
9121.1, -2.607e-08
9123.1, -2.078e-08
9125.1, -2.216e-08
9127.1, -2.226e-08
9129.1, -2.23e-08
9131.1, -2.208e-08
9133.1, -2.316e-08
9135.1, -2.223e-08
9137.1, -2.438e-08
9139.1, -2.329e-08
9141.1, -2.224e-08
9143.1, -2.252e-08
9145.1, -2.325e-08
9147.1, -2.171e-08
9149.1, -2.061e-08
9151.1, -2.243e-08
9153.1, -2.06e-08
9155.1, -1.941e-08
9157.1, -2.048e-08
9159.1, -2.224e-08
9161.2, -2.103e-08
9163.2, -2.302e-08
9165.2, -2.196e-08
9167.2, -2.564e-08
9169.2, -2.551e-08
9171.2, -2.471e-08
9173.2, -2.331e-08
9175.2, -1.967e-08
9177.2, -1.877e-08
9179.2, -2.136e-08
9181.2, -2.294e-08
9183.2, -2.248e-08
9185.2, -2.448e-08
9187.2, -2.218e-08
9189.2, -2.375e-08
9191.2, -2.895e-08
9193.2, -2.294e-08
9195.2, -2.609e-08
9197.2, -2.512e-08
9199.2, -2.681e-08
9201.2, -2.719e-08
9203.2, -2.005e-08
9205.2, -2.791e-08
9207.2, -2.962e-08
9209.2, -2.803e-08
9211.2, -2.736e-08
9213.2, -2.266e-08
9215.2, -2.797e-08
9217.2, -2.971e-08
9219.2, -2.631e-08
9221.2, -3.003e-08
9223.2, -2.839e-08
9225.2, -2.612e-08
9227.2, -2.966e-08
9229.2, -2.781e-08
9231.2, -2.855e-08
9233.2, -2.907e-08
9235.2, -2.935e-08
9237.2, -3.214e-08
9239.2, -2.992e-08
9241.2, -2.713e-08
9243.2, -2.767e-08
9245.2, -2.605e-08
9247.2, -2.724e-08
9249.2, -3.095e-08
9251.2, -2.795e-08
9253.2, -2.802e-08
9255.2, -2.871e-08
9257.2, -2.611e-08
9259.2, -3.083e-08
9261.3, -2.989e-08
9263.3, -2.911e-08
9265.3, -2.448e-08
9267.3, -2.724e-08
9269.3, -2.485e-08
9271.3, -2.817e-08
9273.3, -2.971e-08
9275.3, -2.918e-08
9277.3, -2.788e-08
9279.3, -3.094e-08
9281.3, -3.398e-08
9283.3, -2.893e-08
9285.3, -3.342e-08
9287.3, -2.512e-08
9289.3, -3.088e-08
9291.3, -2.989e-08
9293.3, -3.118e-08
9295.3, -2.804e-08
9297.3, -3.266e-08
9299.3, -2.384e-08
9301.3, -2.69e-08
9303.3, -2.624e-08
9305.3, -2.477e-08
9307.3, -2.844e-08
9309.3, -2.989e-08
9311.3, -2.945e-08
9313.3, -2.663e-08
9315.3, -2.858e-08
9317.3, -2.579e-08
9319.3, -2.886e-08
9321.3, -2.542e-08
9323.3, -2.863e-08
9325.3, -2.713e-08
9327.3, -2.84e-08
9329.3, -2.903e-08
9331.3, -2.886e-08
9333.3, -2.837e-08
9335.3, -2.404e-08
9337.3, -2.802e-08
9339.3, -2.642e-08
9341.3, -2.832e-08
9343.3, -2.815e-08
9345.3, -2.85e-08
9347.3, -3.08e-08
9349.3, -2.951e-08
9351.3, -2.978e-08
9353.3, -3.072e-08
9355.3, -2.95e-08
9357.3, -2.725e-08
9359.3, -2.999e-08
9361.4, -2.739e-08
9363.4, -2.603e-08
9365.4, -2.794e-08
9367.4, -2.858e-08
9369.4, -3.035e-08
9371.4, -3.236e-08
9373.4, -2.908e-08
9375.4, -2.85e-08
9377.4, -2.807e-08
9379.4, -3.056e-08
9381.4, -3.067e-08
9383.4, -2.681e-08
9385.4, -2.778e-08
9387.4, -3.188e-08
9389.4, -3.271e-08
9391.4, -2.951e-08
9393.4, -2.671e-08
9395.4, -2.582e-08
9397.4, -2.832e-08
9399.4, -3.367e-08
9401.4, -3.338e-08
9403.4, -3.005e-08
9405.4, -3.022e-08
9407.4, -2.927e-08
9409.4, -3.07e-08
9411.4, -2.87e-08
9413.4, -2.884e-08
9415.4, -2.878e-08
9417.4, -3.232e-08
9419.4, -3.045e-08
9421.4, -3.015e-08
9423.4, -2.953e-08
9425.4, -3.131e-08
9427.4, -2.906e-08
9429.4, -3.261e-08
9431.4, -3.114e-08
9433.4, -2.664e-08
9435.4, -2.573e-08
9437.4, -2.98e-08
9439.4, -2.863e-08
9441.4, -3.135e-08
9443.4, -2.681e-08
9445.4, -3.31e-08
9447.4, -3.003e-08
9449.4, -2.841e-08
9451.4, -3.021e-08
9453.4, -2.95e-08
9455.4, -2.697e-08
9457.4, -3.125e-08
9459.4, -3.095e-08
9461.5, -2.786e-08
9463.5, -2.796e-08
9465.5, -2.628e-08
9467.5, -2.658e-08
9469.5, -3.038e-08
9471.5, -2.844e-08
9473.5, -2.865e-08
9475.5, -2.979e-08
9477.5, -2.816e-08
9479.5, -2.473e-08
9481.5, -2.732e-08
9483.5, -2.715e-08
9485.5, -2.557e-08
9487.5, -2.814e-08
9489.5, -2.654e-08
9491.5, -2.965e-08
9493.5, -2.805e-08
9495.5, -2.615e-08
9497.5, -2.664e-08
9499.5, -2.685e-08
9501.5, -2.405e-08
9503.5, -2.294e-08
9505.5, -2.565e-08
9507.5, -2.55e-08
9509.5, -2.259e-08
9511.5, -2.847e-08
9513.5, -2.419e-08
9515.5, -2.648e-08
9517.5, -2.518e-08
9519.5, -2.253e-08
9521.5, -2.496e-08
9523.5, -2.509e-08
9525.5, -2.302e-08
9527.5, -2.789e-08
9529.5, -2.501e-08
9531.5, -3.195e-08
9533.5, -2.858e-08
9535.5, -2.249e-08
9537.5, -2.605e-08
9539.5, -2.852e-08
9541.5, -3.07e-08
9543.5, -2.903e-08
9545.5, -3.038e-08
9547.5, -3.278e-08
9549.5, -3.256e-08
9551.5, -2.837e-08
9553.5, -2.477e-08
9555.5, -2.335e-08
9557.5, -2.696e-08
9559.5, -2.879e-08
9561.6, -2.602e-08
9563.6, -1.898e-08
9565.6, -2.162e-08
9567.6, -2.383e-08
9569.6, -2.65e-08
9571.6, -2.407e-08
9573.6, -2.306e-08
9575.6, -2.373e-08
9577.6, -2.488e-08
9579.6, -2.439e-08
9581.6, -2.538e-08
9583.6, -2.225e-08
9585.6, -2.133e-08
9587.6, -2.64e-08
9589.6, -2.18e-08
9591.6, -2.567e-08
9593.6, -2.482e-08
9595.6, -1.974e-08
9597.6, -2.243e-08
9599.6, -2.301e-08
9601.6, -1.996e-08
9603.6, -2.131e-08
9605.6, -2.037e-08
9607.6, -2.081e-08
9609.6, -2.481e-08
9611.6, -2.512e-08
9613.6, -1.898e-08
9615.6, -2.359e-08
9617.6, -2.421e-08
9619.6, -2.312e-08
9621.6, -2.27e-08
9623.6, -2.336e-08
9625.6, -2.346e-08
9627.6, -1.949e-08
9629.6, -2.585e-08
9631.6, -2.295e-08
9633.6, -2.645e-08
9635.6, -2.602e-08
9637.6, -2.475e-08
9639.6, -2.548e-08
9641.6, -2.297e-08
9643.6, -2.356e-08
9645.6, -2.876e-08
9647.6, -2.698e-08
9649.6, -2.687e-08
9651.6, -2.365e-08
9653.6, -2.752e-08
9655.6, -2.669e-08
9657.6, -2.581e-08
9659.6, -2.195e-08
9661.7, -2.619e-08
9663.7, -2.476e-08
9665.7, -2.788e-08
9667.7, -2.519e-08
9669.7, -2.799e-08
9671.7, -2.511e-08
9673.7, -2.792e-08
9675.7, -2.633e-08
9677.7, -2.502e-08
9679.7, -2.323e-08
9681.7, -2.606e-08
9683.7, -2.645e-08
9685.7, -2.555e-08
9687.7, -2.658e-08
9689.7, -2.363e-08
9691.7, -2.801e-08
9693.7, -2.521e-08
9695.7, -2.184e-08
9697.7, -2.123e-08
9699.7, -2.224e-08
9701.7, -2.382e-08
9703.7, -2.306e-08
9705.7, -2.217e-08
9707.7, -2.467e-08
9709.7, -2.271e-08
9711.7, -2.324e-08
9713.7, -2.403e-08
9715.7, -2.453e-08
9717.7, -2.554e-08
9719.7, -2.409e-08
9721.7, -2.676e-08
9723.7, -2.317e-08
9725.7, -2.241e-08
9727.7, -2.336e-08
9729.7, -2.109e-08
9731.7, -1.884e-08
9733.7, -2.077e-08
9735.7, -2.388e-08
9737.7, -2.532e-08
9739.7, -2.529e-08
9741.7, -2.471e-08
9743.7, -2.577e-08
9745.7, -2.112e-08
9747.7, -2.224e-08
9749.7, -1.878e-08
9751.7, -2.063e-08
9753.7, -2.477e-08
9755.7, -2.318e-08
9757.7, -2.087e-08
9759.7, -1.918e-08
9761.8, -2.071e-08
9763.8, -2.23e-08
9765.8, -2.035e-08
9767.8, -2.478e-08
9769.8, -2.544e-08
9771.8, -2.332e-08
9773.8, -2.55e-08
9775.8, -2.656e-08
9777.8, -2.773e-08
9779.8, -2.404e-08
9781.8, -2.754e-08
9783.8, -2.464e-08
9785.8, -2.578e-08
9787.8, -2.351e-08
9789.8, -2.515e-08
9791.8, -2.011e-08
9793.8, -2.318e-08
9795.8, -2.114e-08
9797.8, -2.5e-08
9799.8, -2.675e-08
9801.8, -2.534e-08
9803.8, -2.64e-08
9805.8, -2.865e-08
9807.8, -2.683e-08
9809.8, -3.068e-08
9811.8, -2.664e-08
9813.8, -2.757e-08
9815.8, -2.497e-08
9817.8, -2.488e-08
9819.8, -2.537e-08
9821.8, -2.317e-08
9823.8, -2.156e-08
9825.8, -2.419e-08
9827.8, -2.747e-08
9829.8, -2.705e-08
9831.8, -2.763e-08
9833.8, -2.687e-08
9835.8, -2.894e-08
9837.8, -2.817e-08
9839.8, -2.803e-08
9841.8, -2.628e-08
9843.8, -2.555e-08
9845.8, -2.157e-08
9847.8, -2.219e-08
9849.8, -2.122e-08
9851.8, -2.495e-08
9853.8, -2.168e-08
9855.8, -1.763e-08
9857.8, -2.494e-08
9859.8, -2.701e-08
9861.9, -2.586e-08
9863.9, -2.766e-08
9865.9, -2.867e-08
9867.9, -2.797e-08
9869.9, -2.704e-08
9871.9, -2.888e-08
9873.9, -2.683e-08
9875.9, -2.584e-08
9877.9, -2.487e-08
9879.9, -2.393e-08
9881.9, -2.412e-08
9883.9, -2.285e-08
9885.9, -2.276e-08
9887.9, -2.393e-08
9889.9, -2.332e-08
9891.9, -2.222e-08
9893.9, -2.526e-08
9895.9, -2.736e-08
9897.9, -2.212e-08
9899.9, -2.557e-08
9901.9, -2.749e-08
9903.9, -2.665e-08
9905.9, -2.277e-08
9907.9, -2.494e-08
9909.9, -2.528e-08
9911.9, -2.58e-08
9913.9, -2.133e-08
9915.9, -2.509e-08
9917.9, -2.204e-08
9919.9, -2.363e-08
9921.9, -2.632e-08
9923.9, -2.434e-08
9925.9, -2.611e-08
9927.9, -2.354e-08
9929.9, -2.666e-08
9931.9, -2.264e-08
9933.9, -2.364e-08
9935.9, -2.229e-08
9937.9, -2.628e-08
9939.9, -2.125e-08
9941.9, -2.14e-08
9943.9, -2.099e-08
9945.9, -2.059e-08
9947.9, -1.976e-08
9949.9, -2.005e-08
9951.9, -2.404e-08
9953.9, -2.602e-08
9955.9, -2.581e-08
9957.9, -2.605e-08
9959.9, -2.538e-08
9962.0, -2.751e-08
9964.0, -2.804e-08
9966.0, -2.414e-08
9968.0, -2.637e-08
9970.0, -2.424e-08
9972.0, -2.552e-08
9974.0, -2.842e-08
9976.0, -2.652e-08
9978.0, -2.367e-08
9980.0, -2.534e-08
9982.0, -2.353e-08
9984.0, -2.017e-08
9986.0, -1.979e-08
9988.0, -2.472e-08
9990.0, -2.039e-08
9992.0, -2.034e-08
9994.0, -2.138e-08
9996.0, -1.9e-08
9998.0, -2.025e-08
10000.0, -1.809e-08
10002.0, -2.073e-08
10004.0, -2.207e-08
10006.0, -1.996e-08
10008.0, -2.34e-08
