Time sep (ms?), Current (A)
0.0, -2.152e-08
2.002, -2.221e-08
4.004, -2.133e-08
6.006, -2.526e-08
8.008, -2.173e-08
10.01, -2.03e-08
12.012, -2.172e-08
14.014, -2.666e-08
16.016, -2.417e-08
18.018, -2.278e-08
20.02, -2.463e-08
22.022, -2.688e-08
24.024, -2.262e-08
26.026, -2.417e-08
28.028, -2.079e-08
30.03, -2.054e-08
32.032, -2.475e-08
34.034, -2.199e-08
36.036, -2.217e-08
38.038, -2.278e-08
40.04, -2.093e-08
42.042, -2.318e-08
44.044, -2.267e-08
46.046, -2.487e-08
48.048, -2.273e-08
50.05, -2.167e-08
52.052, -2.48e-08
54.054, -2.482e-08
56.056, -2.539e-08
58.058, -2.484e-08
60.06, -2.055e-08
62.062, -2.69e-08
64.064, -2.273e-08
66.066, -2.363e-08
68.068, -2.209e-08
70.07, -2.091e-08
72.072, -2.612e-08
74.074, -2.507e-08
76.076, -2.476e-08
78.078, -2.345e-08
80.08, -2.498e-08
82.082, -2.451e-08
84.084, -2.888e-08
86.086, -2.485e-08
88.088, -2.441e-08
90.09, -2.559e-08
92.092, -2.591e-08
94.094, -2.344e-08
96.096, -2.685e-08
98.098, -2.448e-08
100.1, -2.629e-08
102.1, -2.949e-08
104.1, -3.06e-08
106.11, -2.094e-08
108.11, -2.284e-08
110.11, -2.354e-08
112.11, -2.1e-08
114.11, -2.105e-08
116.12, -2.405e-08
118.12, -2.551e-08
120.12, -2.551e-08
122.12, -2.482e-08
124.12, -2.145e-08
126.13, -1.95e-08
128.13, -1.98e-08
130.13, -2.094e-08
132.13, -2.202e-08
134.13, -2.252e-08
136.14, -2.091e-08
138.14, -2.132e-08
140.14, -2.093e-08
142.14, -2.224e-08
144.14, -2.126e-08
146.15, -2.133e-08
148.15, -1.921e-08
150.15, -1.996e-08
152.15, -2.191e-08
154.15, -2.277e-08
156.16, -2.641e-08
158.16, -2.164e-08
160.16, -2.418e-08
162.16, -2.257e-08
164.16, -2.058e-08
166.17, -2.19e-08
168.17, -2.333e-08
170.17, -2.282e-08
172.17, -1.992e-08
174.17, -2.174e-08
176.18, -2.226e-08
178.18, -2.518e-08
180.18, -2.51e-08
182.18, -2.72e-08
184.18, -2.419e-08
186.19, -2.682e-08
188.19, -2.308e-08
190.19, -2.486e-08
192.19, -2.4e-08
194.19, -2.784e-08
196.2, -2.714e-08
198.2, -2.415e-08
200.2, -2.535e-08
202.2, -2.528e-08
204.2, -2.446e-08
206.21, -2.511e-08
208.21, -2.519e-08
210.21, -2.726e-08
212.21, -2.759e-08
214.21, -2.381e-08
216.22, -2.075e-08
218.22, -2.155e-08
220.22, -2.341e-08
222.22, -2.33e-08
224.22, -1.756e-08
226.23, -2.265e-08
228.23, -2.24e-08
230.23, -2.083e-08
232.23, -1.989e-08
234.23, -2.459e-08
236.24, -2.138e-08
238.24, -2.09e-08
240.24, -2.543e-08
242.24, -2.108e-08
244.24, -1.952e-08
246.25, -2.398e-08
248.25, -2.228e-08
250.25, -2.385e-08
252.25, -2.282e-08
254.25, -2.162e-08
256.26, -1.972e-08
258.26, -1.959e-08
260.26, -2.191e-08
262.26, -2.159e-08
264.26, -2.201e-08
266.27, -1.853e-08
268.27, -2.023e-08
270.27, -1.915e-08
272.27, -2.073e-08
274.27, -2.275e-08
276.28, -2.151e-08
278.28, -2.459e-08
280.28, -1.932e-08
282.28, -1.853e-08
284.28, -2.136e-08
286.29, -2.129e-08
288.29, -2.05e-08
290.29, -1.752e-08
292.29, -2.029e-08
294.29, -2.779e-08
296.3, -2.363e-08
298.3, -2.142e-08
300.3, -2.384e-08
302.3, -1.906e-08
304.3, -2.12e-08
306.31, -2.091e-08
308.31, -2.1e-08
310.31, -2.374e-08
312.31, -2.148e-08
314.31, -2.212e-08
316.32, -1.808e-08
318.32, -1.934e-08
320.32, -1.74e-08
322.32, -2.012e-08
324.32, -2.26e-08
326.33, -1.858e-08
328.33, -2.371e-08
330.33, -2.453e-08
332.33, -2.282e-08
334.33, -2.523e-08
336.34, -2.449e-08
338.34, -2.231e-08
340.34, -2.444e-08
342.34, -2.259e-08
344.34, -2.141e-08
346.35, -2.147e-08
348.35, -1.849e-08
350.35, -2.195e-08
352.35, -2.112e-08
354.35, -2.606e-08
356.36, -2.317e-08
358.36, -1.681e-08
360.36, -2.049e-08
362.36, -1.776e-08
364.36, -2.196e-08
366.37, -2.373e-08
368.37, -2.075e-08
370.37, -2.126e-08
372.37, -2.349e-08
374.37, -2.275e-08
376.38, -2.331e-08
378.38, -2.324e-08
380.38, -2.556e-08
382.38, -2.324e-08
384.38, -2.658e-08
386.39, -2.533e-08
388.39, -2.075e-08
390.39, -2.257e-08
392.39, -2.216e-08
394.39, -2.491e-08
396.4, -2.606e-08
398.4, -2.298e-08
400.4, -2.586e-08
402.4, -2.241e-08
404.4, -2.167e-08
406.41, -2.316e-08
408.41, -2.38e-08
410.41, -2.358e-08
412.41, -2.31e-08
414.41, -2.619e-08
416.42, -2.557e-08
418.42, -2.259e-08
420.42, -2.168e-08
422.42, -2.049e-08
424.42, -1.968e-08
426.43, -1.699e-08
428.43, -1.901e-08
430.43, -1.85e-08
432.43, -2.243e-08
434.43, -2.145e-08
436.44, -1.896e-08
438.44, -1.829e-08
440.44, -2.136e-08
442.44, -2.354e-08
444.44, -2.185e-08
446.45, -2.223e-08
448.45, -2.191e-08
450.45, -1.948e-08
452.45, -1.862e-08
454.45, -2.037e-08
456.46, -1.527e-08
458.46, -1.791e-08
460.46, -1.545e-08
462.46, -1.592e-08
464.46, -1.803e-08
466.47, -2.17e-08
468.47, -1.938e-08
470.47, -1.823e-08
472.47, -1.736e-08
474.47, -2.145e-08
476.48, -2.009e-08
478.48, -2.17e-08
480.48, -2.086e-08
482.48, -2.146e-08
484.48, -2.047e-08
486.49, -2.473e-08
488.49, -2.267e-08
490.49, -2.2e-08
492.49, -2.051e-08
494.49, -2.324e-08
496.5, -2.118e-08
498.5, -2.185e-08
500.5, -2.132e-08
502.5, -1.821e-08
504.5, -2.204e-08
506.51, -1.766e-08
508.51, -1.819e-08
510.51, -2.055e-08
512.51, -1.547e-08
514.51, -1.75e-08
516.52, -1.97e-08
518.52, -2.454e-08
520.52, -2.292e-08
522.52, -1.923e-08
524.52, -1.481e-08
526.53, -1.647e-08
528.53, -2.029e-08
530.53, -2.021e-08
532.53, -1.887e-08
534.53, -2.116e-08
536.54, -1.801e-08
538.54, -1.85e-08
540.54, -1.672e-08
542.54, -1.633e-08
544.54, -1.714e-08
546.55, -1.484e-08
548.55, -1.665e-08
550.55, -2.184e-08
552.55, -2.278e-08
554.55, -2.281e-08
556.56, -1.919e-08
558.56, -2.472e-08
560.56, -2.234e-08
562.56, -2.157e-08
564.56, -1.667e-08
566.57, -1.735e-08
568.57, -1.637e-08
570.57, -1.701e-08
572.57, -1.938e-08
574.57, -1.943e-08
576.58, -2.272e-08
578.58, -1.703e-08
580.58, -1.818e-08
582.58, -1.94e-08
584.58, -1.72e-08
586.59, -2.166e-08
588.59, -1.961e-08
590.59, -1.91e-08
592.59, -1.581e-08
594.59, -1.722e-08
596.6, -1.732e-08
598.6, -1.927e-08
600.6, -1.847e-08
602.6, -1.642e-08
604.6, -1.678e-08
606.61, -1.767e-08
608.61, -1.802e-08
610.61, -2.16e-08
612.61, -2.118e-08
614.61, -1.967e-08
616.62, -2.143e-08
618.62, -2.339e-08
620.62, -2.404e-08
622.62, -1.728e-08
624.62, -2.075e-08
626.63, -2.505e-08
628.63, -2.257e-08
630.63, -2.846e-08
632.63, -2.488e-08
634.63, -2.705e-08
636.64, -2.584e-08
638.64, -2.64e-08
640.64, -2.497e-08
642.64, -2.597e-08
644.64, -2.472e-08
646.65, -2.739e-08
648.65, -2.871e-08
650.65, -2.734e-08
652.65, -2.632e-08
654.65, -3.053e-08
656.66, -2.468e-08
658.66, -2.56e-08
660.66, -2.751e-08
662.66, -2.597e-08
664.66, -2.76e-08
666.67, -3.087e-08
668.67, -2.783e-08
670.67, -2.694e-08
672.67, -2.119e-08
674.67, -2.574e-08
676.68, -2.519e-08
678.68, -2.822e-08
680.68, -2.509e-08
682.68, -2.187e-08
684.68, -2.51e-08
686.69, -2.566e-08
688.69, -2.644e-08
690.69, -2.924e-08
692.69, -2.389e-08
694.69, -2.269e-08
696.7, -2.443e-08
698.7, -2.517e-08
700.7, -2.634e-08
702.7, -2.652e-08
704.7, -2.634e-08
706.71, -2.568e-08
708.71, -2.32e-08
710.71, -2.349e-08
712.71, -2.56e-08
714.71, -2.602e-08
716.72, -2.422e-08
718.72, -2.531e-08
720.72, -3.012e-08
722.72, -2.717e-08
724.72, -2.729e-08
726.73, -2.263e-08
728.73, -2.342e-08
730.73, -2.635e-08
732.73, -2.27e-08
734.73, -2.421e-08
736.74, -2.368e-08
738.74, -2.188e-08
740.74, -2.204e-08
742.74, -2.167e-08
744.74, -2.459e-08
746.75, -2.261e-08
748.75, -2.633e-08
750.75, -2.676e-08
752.75, -2.585e-08
754.75, -2.45e-08
756.76, -2.378e-08
758.76, -2.559e-08
760.76, -2.372e-08
762.76, -2.996e-08
764.76, -2.643e-08
766.77, -2.637e-08
768.77, -2.604e-08
770.77, -2.606e-08
772.77, -2.56e-08
774.77, -2.553e-08
776.78, -2.845e-08
778.78, -2.593e-08
780.78, -2.823e-08
782.78, -2.272e-08
784.78, -2.592e-08
786.79, -2.479e-08
788.79, -2.703e-08
790.79, -2.673e-08
792.79, -2.903e-08
794.79, -2.931e-08
796.8, -3.185e-08
798.8, -2.885e-08
800.8, -2.78e-08
802.8, -2.937e-08
804.8, -2.814e-08
806.81, -2.834e-08
808.81, -2.674e-08
810.81, -2.979e-08
812.81, -2.642e-08
814.81, -2.856e-08
816.82, -2.756e-08
818.82, -2.431e-08
820.82, -2.309e-08
822.82, -3.055e-08
824.82, -2.851e-08
826.83, -2.53e-08
828.83, -3.045e-08
830.83, -3.002e-08
832.83, -2.498e-08
834.83, -2.624e-08
836.84, -2.358e-08
838.84, -2.497e-08
840.84, -2.648e-08
842.84, -2.784e-08
844.84, -2.866e-08
846.85, -2.926e-08
848.85, -2.717e-08
850.85, -2.348e-08
852.85, -2.536e-08
854.85, -2.861e-08
856.86, -2.972e-08
858.86, -2.649e-08
860.86, -2.852e-08
862.86, -2.529e-08
864.86, -2.677e-08
866.87, -2.717e-08
868.87, -2.723e-08
870.87, -2.363e-08
872.87, -2.503e-08
874.87, -2.535e-08
876.88, -2.776e-08
878.88, -2.57e-08
880.88, -2.673e-08
882.88, -2.693e-08
884.88, -2.79e-08
886.89, -2.689e-08
888.89, -2.569e-08
890.89, -2.665e-08
892.89, -2.53e-08
894.89, -2.764e-08
896.9, -2.451e-08
898.9, -2.53e-08
900.9, -2.334e-08
902.9, -2.938e-08
904.9, -2.463e-08
906.91, -2.755e-08
908.91, -2.54e-08
910.91, -2.615e-08
912.91, -2.674e-08
914.91, -2.973e-08
916.92, -2.702e-08
918.92, -2.864e-08
920.92, -2.778e-08
922.92, -3.038e-08
924.92, -2.58e-08
926.93, -2.778e-08
928.93, -2.836e-08
930.93, -3.15e-08
932.93, -2.748e-08
934.93, -2.807e-08
936.94, -2.982e-08
938.94, -2.687e-08
940.94, -2.341e-08
942.94, -2.277e-08
944.94, -2.367e-08
946.95, -2.407e-08
948.95, -2.568e-08
950.95, -2.893e-08
952.95, -2.95e-08
954.95, -2.925e-08
956.96, -2.9e-08
958.96, -2.656e-08
960.96, -2.806e-08
962.96, -2.493e-08
964.96, -2.728e-08
966.97, -2.822e-08
968.97, -2.485e-08
970.97, -2.373e-08
972.97, -2.995e-08
974.97, -2.331e-08
976.98, -2.549e-08
978.98, -2.429e-08
980.98, -2.483e-08
982.98, -2.686e-08
984.98, -2.982e-08
986.99, -2.818e-08
988.99, -2.541e-08
990.99, -2.81e-08
992.99, -2.142e-08
994.99, -2.571e-08
997.0, -2.799e-08
999.0, -2.521e-08
1001.0, -2.134e-08
1003.0, -2.567e-08
1005.0, -2.951e-08
1007.0, -3.047e-08
1009.0, -2.802e-08
1011.0, -2.541e-08
1013.0, -2.918e-08
1015.0, 2.1278e-07
1017.0, 1.7874e-07
1019.0, 1.5882e-07
1021.0, 1.8455e-07
1023.0, 2.1783e-07
1025.0, 1.4723e-07
1027.0, 1.8355e-07
1029.0, 2.3385e-07
1031.0, 1.5207e-07
1033.0, 1.7172e-07
1035.0, 1.9067e-07
1037.0, 2.1742e-07
1039.0, 1.7413e-07
1041.0, 1.8707e-07
1043.0, 1.6468e-07
1045.0, 2.1842e-07
1047.0, 1.7999e-07
1049.0, 1.7346e-07
1051.0, 1.8397e-07
1053.1, 1.92e-07
1055.1, 1.8176e-07
1057.1, 1.9598e-07
1059.1, 1.6439e-07
1061.1, 1.9271e-07
1063.1, 2.2665e-07
1065.1, 2.0835e-07
1067.1, 1.8348e-07
1069.1, 1.7492e-07
1071.1, 2.1799e-07
1073.1, 1.7893e-07
1075.1, 1.9664e-07
1077.1, 1.8979e-07
1079.1, 1.9557e-07
1081.1, 2.0319e-07
1083.1, 2.1109e-07
1085.1, 1.7521e-07
1087.1, 2.5806e-07
1089.1, 1.977e-07
1091.1, 1.7076e-07
1093.1, 1.8828e-07
1095.1, 1.8398e-07
1097.1, 2.1054e-07
1099.1, 2.1523e-07
1101.1, 1.964e-07
1103.1, 1.795e-07
1105.1, 1.4992e-07
1107.1, 2.0616e-07
1109.1, 2.4301e-07
1111.1, 1.7761e-07
1113.1, 2.1047e-07
1115.1, 1.9342e-07
1117.1, 1.851e-07
1119.1, 1.9795e-07
1121.1, 1.8127e-07
1123.1, 2.1844e-07
1125.1, 2.2899e-07
1127.1, 2.0776e-07
1129.1, 2.3653e-07
1131.1, 2.4762e-07
1133.1, 1.9335e-07
1135.1, 1.8815e-07
1137.1, 2.2084e-07
1139.1, 2.1756e-07
1141.1, 1.8562e-07
1143.1, 1.9487e-07
1145.1, 2.0886e-07
1147.1, 2.0033e-07
1149.1, 2.3538e-07
1151.1, 2.0043e-07
1153.2, 2.0883e-07
1155.2, 1.9244e-07
1157.2, 2.0139e-07
1159.2, 2.2979e-07
1161.2, 1.6812e-07
1163.2, 1.7659e-07
1165.2, 2.1323e-07
1167.2, 1.7226e-07
1169.2, 1.6102e-07
1171.2, 2.1521e-07
1173.2, 2.3427e-07
1175.2, 2.0825e-07
1177.2, 1.9909e-07
1179.2, 2.1564e-07
1181.2, 1.7956e-07
1183.2, 2.2805e-07
1185.2, 2.2027e-07
1187.2, 1.6402e-07
1189.2, 1.8637e-07
1191.2, 1.8749e-07
1193.2, 1.9045e-07
1195.2, 2.492e-07
1197.2, 1.9581e-07
1199.2, 1.7297e-07
1201.2, 1.9857e-07
1203.2, 2.3548e-07
1205.2, 2.2383e-07
1207.2, 2.1649e-07
1209.2, 2.0365e-07
1211.2, 1.8421e-07
1213.2, 2.1504e-07
1215.2, 2.4682e-07
1217.2, 2.0717e-07
1219.2, 2.1576e-07
1221.2, 2.0458e-07
1223.2, 2.2123e-07
1225.2, 2.3595e-07
1227.2, 2.3899e-07
1229.2, 1.8748e-07
1231.2, 2.3678e-07
1233.2, 2.135e-07
1235.2, 2.0848e-07
1237.2, 2.3837e-07
1239.2, 2.1085e-07
1241.2, 2.0121e-07
1243.2, 2.0595e-07
1245.2, 2.1299e-07
1247.2, 2.0961e-07
1249.2, 2.0384e-07
1251.2, 2.1501e-07
1253.3, 1.9581e-07
1255.3, 2.213e-07
1257.3, 1.9105e-07
1259.3, 1.8219e-07
1261.3, 2.077e-07
1263.3, 2.3e-07
1265.3, 1.6673e-07
1267.3, 1.81e-07
1269.3, 1.8209e-07
1271.3, 2.2956e-07
1273.3, 1.8964e-07
1275.3, 2.1437e-07
1277.3, 1.9285e-07
1279.3, 1.8619e-07
1281.3, 2.0403e-07
1283.3, 2.0281e-07
1285.3, 1.9492e-07
1287.3, 2.0709e-07
1289.3, 2.147e-07
1291.3, 2.2823e-07
1293.3, 2.2392e-07
1295.3, 2.2966e-07
1297.3, 2.3385e-07
1299.3, 2.0296e-07
1301.3, 2.4187e-07
1303.3, 2.1379e-07
1305.3, 1.6388e-07
1307.3, 2.0938e-07
1309.3, 2.1202e-07
1311.3, 2.0598e-07
1313.3, 2.0048e-07
1315.3, 2.5986e-07
1317.3, 2.2138e-07
1319.3, 2.0482e-07
1321.3, 2.1146e-07
1323.3, 1.874e-07
1325.3, 2.058e-07
1327.3, 2.0008e-07
1329.3, 2.1627e-07
1331.3, 2.1554e-07
1333.3, 2.4793e-07
1335.3, 2.2899e-07
1337.3, 2.2827e-07
1339.3, 2.1079e-07
1341.3, 1.961e-07
1343.3, 1.9231e-07
1345.3, 2.2741e-07
1347.3, 1.9046e-07
1349.3, 2.7293e-07
1351.3, 2.3495e-07
1353.4, 2.271e-07
1355.4, 2.062e-07
1357.4, 1.7177e-07
1359.4, 2.2146e-07
1361.4, 2.1495e-07
1363.4, 2.3938e-07
1365.4, 2.2272e-07
1367.4, 2.3876e-07
1369.4, 2.1287e-07
1371.4, 2.3653e-07
1373.4, 2.16e-07
1375.4, 2.4367e-07
1377.4, 2.0021e-07
1379.4, 2.1398e-07
1381.4, 2.0585e-07
1383.4, 2.083e-07
1385.4, 2.2427e-07
1387.4, 2.1328e-07
1389.4, 1.6562e-07
1391.4, 2.0651e-07
1393.4, 1.8771e-07
1395.4, 2.1441e-07
1397.4, 2.799e-07
1399.4, 2.0108e-07
1401.4, 2.236e-07
1403.4, 2.0013e-07
1405.4, 1.9977e-07
1407.4, 2.4151e-07
1409.4, 1.9338e-07
1411.4, 2.426e-07
1413.4, 2.192e-07
1415.4, 2.424e-07
1417.4, 2.1327e-07
1419.4, 2.1498e-07
1421.4, 2.275e-07
1423.4, 2.2447e-07
1425.4, 2.3225e-07
1427.4, 2.2346e-07
1429.4, 1.9729e-07
1431.4, 2.2207e-07
1433.4, 2.1554e-07
1435.4, 2.2514e-07
1437.4, 2.0367e-07
1439.4, 2.0595e-07
1441.4, 1.9372e-07
1443.4, 2.0132e-07
1445.4, 2.1589e-07
1447.4, 2.6292e-07
1449.4, 1.9758e-07
1451.4, 2.1436e-07
1453.5, 2.5986e-07
1455.5, 1.726e-07
1457.5, 2.2017e-07
1459.5, 2.3153e-07
1461.5, 2.6514e-07
1463.5, 2.0608e-07
1465.5, 2.1172e-07
1467.5, 1.935e-07
1469.5, 2.0418e-07
1471.5, 2.4048e-07
1473.5, 2.9696e-07
1475.5, 2.7229e-07
1477.5, 1.9231e-07
1479.5, 2.0844e-07
1481.5, 2.2453e-07
1483.5, 2.3157e-07
1485.5, 2.046e-07
1487.5, 2.3223e-07
1489.5, 2.1718e-07
1491.5, 2.3825e-07
1493.5, 2.6132e-07
1495.5, 2.131e-07
1497.5, 2.0573e-07
1499.5, 2.2381e-07
1501.5, 1.9062e-07
1503.5, 1.8483e-07
1505.5, 2.0984e-07
1507.5, 2.1199e-07
1509.5, 2.2993e-07
1511.5, 2.1282e-07
1513.5, 2.3412e-07
1515.5, 2.3697e-07
1517.5, 1.9591e-07
1519.5, 2.1396e-07
1521.5, 2.3318e-07
1523.5, 1.9924e-07
1525.5, 2.3717e-07
1527.5, 2.3383e-07
1529.5, 2.2083e-07
1531.5, 2.1416e-07
1533.5, 2.4228e-07
1535.5, 2.4391e-07
1537.5, 2.2249e-07
1539.5, 2.1848e-07
1541.5, 2.1496e-07
1543.5, 2.1342e-07
1545.5, 2.3987e-07
1547.5, 1.9496e-07
1549.5, 2.1133e-07
1551.5, 2.0974e-07
1553.6, 1.9914e-07
1555.6, 2.1242e-07
1557.6, 2.2345e-07
1559.6, 2.4502e-07
1561.6, 2.7267e-07
1563.6, 2.3117e-07
1565.6, 2.5615e-07
1567.6, 2.1033e-07
1569.6, 2.0091e-07
1571.6, 2.2254e-07
1573.6, 2.1604e-07
1575.6, 2.1413e-07
1577.6, 2.2923e-07
1579.6, 2.2061e-07
1581.6, 1.9227e-07
1583.6, 1.7498e-07
1585.6, 2.4971e-07
1587.6, 1.9658e-07
1589.6, 2.4232e-07
1591.6, 1.8357e-07
1593.6, 2.7603e-07
1595.6, 2.4543e-07
1597.6, 2.7062e-07
1599.6, 2.063e-07
1601.6, 2.1669e-07
1603.6, 1.9544e-07
1605.6, 2.1885e-07
1607.6, 2.204e-07
1609.6, 2.3322e-07
1611.6, 2.3046e-07
1613.6, 2.4002e-07
1615.6, 2.7174e-07
1617.6, 2.6081e-07
1619.6, 2.3673e-07
1621.6, 2.4043e-07
1623.6, 2.4678e-07
1625.6, 2.3288e-07
1627.6, 2.0672e-07
1629.6, 2.5126e-07
1631.6, 2.4192e-07
1633.6, 2.3408e-07
1635.6, 2.1238e-07
1637.6, 2.3471e-07
1639.6, 2.4829e-07
1641.6, 1.8028e-07
1643.6, 2.0465e-07
1645.6, 2.2828e-07
1647.6, 2.1616e-07
1649.6, 2.4454e-07
1651.6, 2.1866e-07
1653.7, 2.534e-07
1655.7, 2.2872e-07
1657.7, 2.1168e-07
1659.7, 2.0483e-07
1661.7, 2.2291e-07
1663.7, 2.3758e-07
1665.7, 2.3167e-07
1667.7, 2.2151e-07
1669.7, 2.2335e-07
1671.7, 2.4225e-07
1673.7, 2.0185e-07
1675.7, 2.3884e-07
1677.7, 2.5992e-07
1679.7, 2.3055e-07
1681.7, 1.9598e-07
1683.7, 2.0879e-07
1685.7, 2.1452e-07
1687.7, 2.3723e-07
1689.7, 2.3764e-07
1691.7, 2.196e-07
1693.7, 2.1206e-07
1695.7, 2.1932e-07
1697.7, 2.3174e-07
1699.7, 2.4358e-07
1701.7, 2.0955e-07
1703.7, 1.9467e-07
1705.7, 2.4499e-07
1707.7, 2.4774e-07
1709.7, 2.3306e-07
1711.7, 2.2395e-07
1713.7, 2.5799e-07
1715.7, 2.1913e-07
1717.7, 2.2179e-07
1719.7, 2.1677e-07
1721.7, 1.9949e-07
1723.7, 2.172e-07
1725.7, 2.0996e-07
1727.7, 2.4083e-07
1729.7, 2.5916e-07
1731.7, 2.0619e-07
1733.7, 2.1707e-07
1735.7, 2.4614e-07
1737.7, 2.204e-07
1739.7, 2.4563e-07
1741.7, 2.2132e-07
1743.7, 2.0185e-07
1745.7, 2.4106e-07
1747.7, 2.0991e-07
1749.7, 2.3966e-07
1751.7, 2.541e-07
1753.8, 2.1299e-07
1755.8, 2.0659e-07
1757.8, 2.0371e-07
1759.8, 2.2793e-07
1761.8, 2.7003e-07
1763.8, 2.3796e-07
1765.8, 2.4017e-07
1767.8, 2.1463e-07
1769.8, 2.5459e-07
1771.8, 2.3347e-07
1773.8, 2.3262e-07
1775.8, 2.2507e-07
1777.8, 2.2389e-07
1779.8, 2.2659e-07
1781.8, 2.24e-07
1783.8, 1.9411e-07
1785.8, 1.8831e-07
1787.8, 2.4903e-07
1789.8, 1.9926e-07
1791.8, 2.1925e-07
1793.8, 2.2893e-07
1795.8, 2.0488e-07
1797.8, 2.2061e-07
1799.8, 2.5982e-07
1801.8, 2.46e-07
1803.8, 2.3853e-07
1805.8, 1.9165e-07
1807.8, 1.8533e-07
1809.8, 2.0872e-07
1811.8, 2.1988e-07
1813.8, 2.8531e-07
1815.8, 2.2165e-07
1817.8, 2.7312e-07
1819.8, 2.4457e-07
1821.8, 2.3139e-07
1823.8, 2.3344e-07
1825.8, 2.3338e-07
1827.8, 2.519e-07
1829.8, 2.2426e-07
1831.8, 2.2348e-07
1833.8, 2.5581e-07
1835.8, 2.1257e-07
1837.8, 2.3831e-07
1839.8, 2.5006e-07
1841.8, 2.2511e-07
1843.8, 2.3102e-07
1845.8, 2.2012e-07
1847.8, 2.5212e-07
1849.8, 2.4805e-07
1851.8, 3.1529e-07
1853.9, 2.4164e-07
1855.9, 2.296e-07
1857.9, 2.091e-07
1859.9, 2.0033e-07
1861.9, 2.1743e-07
1863.9, 2.1887e-07
1865.9, 1.9672e-07
1867.9, 2.7937e-07
1869.9, 2.8755e-07
1871.9, 1.9965e-07
1873.9, 2.1618e-07
1875.9, 2.1882e-07
1877.9, 2.4441e-07
1879.9, 1.9652e-07
1881.9, 3.0542e-07
1883.9, 2.2465e-07
1885.9, 2.4228e-07
1887.9, 2.4018e-07
1889.9, 2.6019e-07
1891.9, 2.4864e-07
1893.9, 2.095e-07
1895.9, 2.3543e-07
1897.9, 2.4768e-07
1899.9, 2.5151e-07
1901.9, 2.3558e-07
1903.9, 2.2174e-07
1905.9, 2.438e-07
1907.9, 2.1045e-07
1909.9, 2.4536e-07
1911.9, 2.1454e-07
1913.9, 2.3624e-07
1915.9, 1.8647e-07
1917.9, 2.4346e-07
1919.9, 2.5066e-07
1921.9, 2.2075e-07
1923.9, 2.7017e-07
1925.9, 2.4496e-07
1927.9, 2.2969e-07
1929.9, 2.4394e-07
1931.9, 2.4065e-07
1933.9, 2.1152e-07
1935.9, 2.3701e-07
1937.9, 2.8321e-07
1939.9, 2.3358e-07
1941.9, 2.6098e-07
1943.9, 2.4068e-07
1945.9, 2.3806e-07
1947.9, 1.9105e-07
1949.9, 2.3868e-07
1951.9, 2.6005e-07
1954.0, 2.5948e-07
1956.0, 2.499e-07
1958.0, 2.4194e-07
1960.0, 2.441e-07
1962.0, 2.1653e-07
1964.0, 2.1872e-07
1966.0, 2.1738e-07
1968.0, 2.4626e-07
1970.0, 2.5806e-07
1972.0, 2.4997e-07
1974.0, 2.073e-07
1976.0, 2.1444e-07
1978.0, 2.2683e-07
1980.0, 2.1692e-07
1982.0, 2.8155e-07
1984.0, 2.5151e-07
1986.0, 2.22e-07
1988.0, 2.7454e-07
1990.0, 2.2863e-07
1992.0, 2.2758e-07
1994.0, 2.6389e-07
1996.0, 2.2086e-07
1998.0, 2.1134e-07
2000.0, 1.7789e-07
2002.0, 2.0696e-07
2004.0, 2.1397e-07
2006.0, 2.3249e-07
2008.0, 2.4691e-07
2010.0, 2.4806e-07
2012.0, 2.3869e-07
2014.0, 2.2513e-07
2016.0, -2.559e-08
2018.0, -2.504e-08
2020.0, -2.065e-08
2022.0, -2.593e-08
2024.0, -2.203e-08
2026.0, -2.195e-08
2028.0, -2.019e-08
2030.0, -2.193e-08
2032.0, -2.02e-08
2034.0, -2.352e-08
2036.0, -1.789e-08
2038.0, -2.027e-08
2040.0, -2.144e-08
2042.0, -2.375e-08
2044.0, -2.195e-08
2046.0, -2.069e-08
2048.0, -2.131e-08
2050.0, -2.214e-08
2052.0, -2.391e-08
2054.1, -2.264e-08
2056.1, -2.301e-08
2058.1, -2.676e-08
2060.1, -2.575e-08
2062.1, -2.643e-08
2064.1, -2.274e-08
2066.1, -2.201e-08
2068.1, -2.628e-08
2070.1, -2.567e-08
2072.1, -2.823e-08
2074.1, -2.361e-08
2076.1, -2.579e-08
2078.1, -2.089e-08
2080.1, -2.24e-08
2082.1, -1.986e-08
2084.1, -2.104e-08
2086.1, -2.269e-08
2088.1, -2.28e-08
2090.1, -2.361e-08
2092.1, -2.007e-08
2094.1, -2.469e-08
2096.1, -2.136e-08
2098.1, -2.216e-08
2100.1, -2.214e-08
2102.1, -1.999e-08
2104.1, -2.282e-08
2106.1, -2.159e-08
2108.1, -2.181e-08
2110.1, -2e-08
2112.1, -1.929e-08
2114.1, -1.87e-08
2116.1, -2.138e-08
2118.1, -2.447e-08
2120.1, -2.131e-08
2122.1, -2.062e-08
2124.1, -2.452e-08
2126.1, -1.949e-08
2128.1, -2.003e-08
2130.1, -2.02e-08
2132.1, -2.102e-08
2134.1, -2.431e-08
2136.1, -2.514e-08
2138.1, -2.395e-08
2140.1, -2.295e-08
2142.1, -1.906e-08
2144.1, -2.216e-08
2146.1, -2.44e-08
2148.1, -2.066e-08
2150.1, -2.396e-08
2152.1, -2.552e-08
2154.2, -2.418e-08
2156.2, -2.317e-08
2158.2, -2.498e-08
2160.2, -2.328e-08
2162.2, -1.965e-08
2164.2, -2.708e-08
2166.2, -2.246e-08
2168.2, -2.336e-08
2170.2, -2.367e-08
2172.2, -2.542e-08
2174.2, -2.039e-08
2176.2, -2.18e-08
2178.2, -2.069e-08
2180.2, -2.183e-08
2182.2, -2.098e-08
2184.2, -1.983e-08
2186.2, -2.433e-08
2188.2, -2.565e-08
2190.2, -2.224e-08
2192.2, -2.293e-08
2194.2, -1.942e-08
2196.2, -2.301e-08
2198.2, -2.438e-08
2200.2, -2.336e-08
2202.2, -2.291e-08
2204.2, -2.033e-08
2206.2, -1.942e-08
2208.2, -1.776e-08
2210.2, -2.162e-08
2212.2, -2.319e-08
2214.2, -2.402e-08
2216.2, -2.379e-08
2218.2, -2.582e-08
2220.2, -2.816e-08
2222.2, -2.363e-08
2224.2, -2.105e-08
2226.2, -2.746e-08
2228.2, -2.301e-08
2230.2, -2.118e-08
2232.2, -2.117e-08
2234.2, -2.46e-08
2236.2, -2.491e-08
2238.2, -2.322e-08
2240.2, -2.503e-08
2242.2, -2.042e-08
2244.2, -2.148e-08
2246.2, -2.378e-08
2248.2, -2.362e-08
2250.2, -1.994e-08
2252.2, -2.133e-08
2254.3, -2.097e-08
2256.3, -2.138e-08
2258.3, -2.269e-08
2260.3, -2.567e-08
2262.3, -2.373e-08
2264.3, -2.519e-08
2266.3, -2.739e-08
2268.3, -2.554e-08
2270.3, -2.262e-08
2272.3, -1.957e-08
2274.3, -2.157e-08
2276.3, -2.312e-08
2278.3, -1.795e-08
2280.3, -1.631e-08
2282.3, -1.981e-08
2284.3, -1.845e-08
2286.3, -2.378e-08
2288.3, -2.384e-08
2290.3, -2.412e-08
2292.3, -2.509e-08
2294.3, -1.961e-08
2296.3, -2.404e-08
2298.3, -2.216e-08
2300.3, -2.421e-08
2302.3, -2.422e-08
2304.3, -2.248e-08
2306.3, -2.16e-08
2308.3, -2.366e-08
2310.3, -2.505e-08
2312.3, -2.029e-08
2314.3, -2.568e-08
2316.3, -2.232e-08
2318.3, -2.346e-08
2320.3, -2.423e-08
2322.3, -2.234e-08
2324.3, -2.323e-08
2326.3, -2.379e-08
2328.3, -2.445e-08
2330.3, -2.493e-08
2332.3, -2.473e-08
2334.3, -2.371e-08
2336.3, -2.168e-08
2338.3, -2.17e-08
2340.3, -2.758e-08
2342.3, -2.547e-08
2344.3, -2.386e-08
2346.3, -2.51e-08
2348.3, -2.069e-08
2350.3, -2.62e-08
2352.3, -2.206e-08
2354.4, -2.472e-08
2356.4, -2.466e-08
2358.4, -2.904e-08
2360.4, -2.55e-08
2362.4, -2.543e-08
2364.4, -2.465e-08
2366.4, -2.862e-08
2368.4, -2.46e-08
2370.4, -2.135e-08
2372.4, -2.8e-08
2374.4, -2.497e-08
2376.4, -2.436e-08
2378.4, -2.855e-08
2380.4, -2.571e-08
2382.4, -2.676e-08
2384.4, -2.51e-08
2386.4, -2.468e-08
2388.4, -2.436e-08
2390.4, -2.54e-08
2392.4, -2.431e-08
2394.4, -2.249e-08
2396.4, -2.377e-08
2398.4, -2.216e-08
2400.4, -2.165e-08
2402.4, -2.158e-08
2404.4, -2.668e-08
2406.4, -2.688e-08
2408.4, -2.588e-08
2410.4, -2.564e-08
2412.4, -2.864e-08
2414.4, -2.566e-08
2416.4, -2.785e-08
2418.4, -2.846e-08
2420.4, -2.545e-08
2422.4, -2.748e-08
2424.4, -2.424e-08
2426.4, -2.895e-08
2428.4, -2.924e-08
2430.4, -2.374e-08
2432.4, -2.298e-08
2434.4, -2.487e-08
2436.4, -2.86e-08
2438.4, -2.464e-08
2440.4, -2.645e-08
2442.4, -2.501e-08
2444.4, -2.811e-08
2446.4, -2.474e-08
2448.4, -2.878e-08
2450.4, -2.841e-08
2452.4, -2.67e-08
2454.5, -2.703e-08
2456.5, -2.8e-08
2458.5, -2.661e-08
2460.5, -2.346e-08
2462.5, -2.054e-08
2464.5, -2.465e-08
2466.5, -2.483e-08
2468.5, -2.529e-08
2470.5, -2.309e-08
2472.5, -2.491e-08
2474.5, -2.447e-08
2476.5, -2.578e-08
2478.5, -2.61e-08
2480.5, -2.384e-08
2482.5, -2.63e-08
2484.5, -2.493e-08
2486.5, -2.53e-08
2488.5, -2.39e-08
2490.5, -2.294e-08
2492.5, -2.422e-08
2494.5, -2.074e-08
2496.5, -2.092e-08
2498.5, -2.118e-08
2500.5, -2.09e-08
2502.5, -2.191e-08
2504.5, -2.15e-08
2506.5, -1.975e-08
2508.5, -2.237e-08
2510.5, -2.246e-08
2512.5, -2.208e-08
2514.5, -2.342e-08
2516.5, -2.424e-08
2518.5, -2.396e-08
2520.5, -2.243e-08
2522.5, -2.113e-08
2524.5, -2.02e-08
2526.5, -2.183e-08
2528.5, -2.562e-08
2530.5, -2.369e-08
2532.5, -2.506e-08
2534.5, -2.324e-08
2536.5, -2.662e-08
2538.5, -2.332e-08
2540.5, -2.15e-08
2542.5, -2.587e-08
2544.5, -2.587e-08
2546.5, -2.411e-08
2548.5, -2.576e-08
2550.5, -2.348e-08
2552.5, -2.827e-08
2554.6, -3.053e-08
2556.6, -2.696e-08
2558.6, -2.962e-08
2560.6, -3.017e-08
2562.6, -3.198e-08
2564.6, -3.008e-08
2566.6, -2.968e-08
2568.6, -2.877e-08
2570.6, -2.872e-08
2572.6, -2.356e-08
2574.6, -2.599e-08
2576.6, -2.223e-08
2578.6, -2.22e-08
2580.6, -2.535e-08
2582.6, -2.308e-08
2584.6, -2.492e-08
2586.6, -2.484e-08
2588.6, -2.711e-08
2590.6, -2.529e-08
2592.6, -2.598e-08
2594.6, -2.129e-08
2596.6, -2.644e-08
2598.6, -2.648e-08
2600.6, -2.353e-08
2602.6, -2.571e-08
2604.6, -2.659e-08
2606.6, -3.017e-08
2608.6, -2.881e-08
2610.6, -2.851e-08
2612.6, -2.911e-08
2614.6, -2.716e-08
2616.6, -2.706e-08
2618.6, -2.665e-08
2620.6, -2.61e-08
2622.6, -3.072e-08
2624.6, -2.955e-08
2626.6, -2.634e-08
2628.6, -3.135e-08
2630.6, -2.798e-08
2632.6, -2.591e-08
2634.6, -2.485e-08
2636.6, -2.605e-08
2638.6, -2.44e-08
2640.6, -2.761e-08
2642.6, -2.598e-08
2644.6, -2.493e-08
2646.6, -2.352e-08
2648.6, -2.46e-08
2650.6, -2.413e-08
2652.6, -2.786e-08
2654.7, -2.545e-08
2656.7, -2.287e-08
2658.7, -2.745e-08
2660.7, -2.283e-08
2662.7, -2.898e-08
2664.7, -2.83e-08
2666.7, -2.863e-08
2668.7, -2.363e-08
2670.7, -2.499e-08
2672.7, -2.418e-08
2674.7, -3.043e-08
2676.7, -2.484e-08
2678.7, -2.975e-08
2680.7, -2.836e-08
2682.7, -2.384e-08
2684.7, -2.736e-08
2686.7, -2.624e-08
2688.7, -2.698e-08
2690.7, -2.189e-08
2692.7, -2.581e-08
2694.7, -2.344e-08
2696.7, -2.551e-08
2698.7, -2.724e-08
2700.7, -2.498e-08
2702.7, -2.77e-08
2704.7, -2.528e-08
2706.7, -2.859e-08
2708.7, -2.715e-08
2710.7, -2.892e-08
2712.7, -2.714e-08
2714.7, -2.872e-08
2716.7, -2.339e-08
2718.7, -2.605e-08
2720.7, -2.471e-08
2722.7, -2.757e-08
2724.7, -2.702e-08
2726.7, -2.58e-08
2728.7, -3.099e-08
2730.7, -2.676e-08
2732.7, -2.403e-08
2734.7, -2.546e-08
2736.7, -2.573e-08
2738.7, -2.539e-08
2740.7, -2.033e-08
2742.7, -2.235e-08
2744.7, -2.15e-08
2746.7, -2.422e-08
2748.7, -2.319e-08
2750.7, -2.619e-08
2752.7, -2.196e-08
2754.8, -2.721e-08
2756.8, -2.383e-08
2758.8, -2.53e-08
2760.8, -2.665e-08
2762.8, -2.389e-08
2764.8, -2.584e-08
2766.8, -2.63e-08
2768.8, -2.412e-08
2770.8, -2.261e-08
2772.8, -2.43e-08
2774.8, -2.461e-08
2776.8, -2.604e-08
2778.8, -2.311e-08
2780.8, -2.502e-08
2782.8, -2.387e-08
2784.8, -2.435e-08
2786.8, -2.571e-08
2788.8, -2.539e-08
2790.8, -2.616e-08
2792.8, -2.37e-08
2794.8, -2.351e-08
2796.8, -2.345e-08
2798.8, -2.328e-08
2800.8, -2.73e-08
2802.8, -2.142e-08
2804.8, -2.327e-08
2806.8, -2.306e-08
2808.8, -2.565e-08
2810.8, -2.585e-08
2812.8, -2.262e-08
2814.8, -2.327e-08
2816.8, -2.644e-08
2818.8, -2.541e-08
2820.8, -2.342e-08
2822.8, -2.05e-08
2824.8, -2.501e-08
2826.8, -2.256e-08
2828.8, -2.243e-08
2830.8, -2.589e-08
2832.8, -2.185e-08
2834.8, -2.298e-08
2836.8, -2.061e-08
2838.8, -2.437e-08
2840.8, -2.605e-08
2842.8, -2.534e-08
2844.8, -2.349e-08
2846.8, -2.223e-08
2848.8, -2.327e-08
2850.8, -2.597e-08
2852.8, -2.666e-08
2854.9, -2.634e-08
2856.9, -2.264e-08
2858.9, -2.613e-08
2860.9, -2.585e-08
2862.9, -2.289e-08
2864.9, -2.521e-08
2866.9, -2.038e-08
2868.9, -2.073e-08
2870.9, -2.251e-08
2872.9, -2.136e-08
2874.9, -2.258e-08
2876.9, -2.248e-08
2878.9, -3.032e-08
2880.9, -2.629e-08
2882.9, -2.255e-08
2884.9, -2.753e-08
2886.9, -2.463e-08
2888.9, -2.277e-08
2890.9, -2.593e-08
2892.9, -2.663e-08
2894.9, -2.471e-08
2896.9, -2.426e-08
2898.9, -2.484e-08
2900.9, -2.354e-08
2902.9, -2.205e-08
2904.9, -2.485e-08
2906.9, -2.298e-08
2908.9, -2.507e-08
2910.9, -2.777e-08
2912.9, -2.736e-08
2914.9, -2.521e-08
2916.9, -2.593e-08
2918.9, -2.561e-08
2920.9, -2.551e-08
2922.9, -2.268e-08
2924.9, -2.278e-08
2926.9, -2.519e-08
2928.9, -2.507e-08
2930.9, -2.382e-08
2932.9, -2.053e-08
2934.9, -2.235e-08
2936.9, -2.24e-08
2938.9, -2.45e-08
2940.9, -2.386e-08
2942.9, -2.434e-08
2944.9, -2.51e-08
2946.9, -2.182e-08
2948.9, -2.004e-08
2950.9, -2.337e-08
2952.9, -2.321e-08
2955.0, -2.21e-08
2957.0, -2.288e-08
2959.0, -2.528e-08
2961.0, -2.677e-08
2963.0, -2.267e-08
2965.0, -2.169e-08
2967.0, -2.439e-08
2969.0, -2.741e-08
2971.0, -2.411e-08
2973.0, -2.237e-08
2975.0, -2.668e-08
2977.0, -2.399e-08
2979.0, -2.374e-08
2981.0, -2.845e-08
2983.0, -2.755e-08
2985.0, -2.31e-08
2987.0, -2.563e-08
2989.0, -1.691e-08
2991.0, -2.086e-08
2993.0, -1.952e-08
2995.0, -2.147e-08
2997.0, -1.777e-08
2999.0, -2.126e-08
3001.0, -2.237e-08
3003.0, -2.41e-08
3005.0, -2.319e-08
3007.0, -2.15e-08
3009.0, -1.848e-08
3011.0, -2.228e-08
3013.0, -1.903e-08
3015.0, -2.147e-08
3017.0, -2.021e-08
3019.0, -2.261e-08
3021.0, -2.564e-08
3023.0, -2.427e-08
3025.0, -2.148e-08
3027.0, -2.279e-08
3029.0, -2.38e-08
3031.0, -2.198e-08
3033.0, -2.199e-08
3035.0, -2.319e-08
3037.0, -2.253e-08
3039.0, -2.104e-08
3041.0, -1.998e-08
3043.0, -2.16e-08
3045.0, -2.264e-08
3047.0, -2.255e-08
3049.0, -2.228e-08
3051.0, 1.2766e-07
3053.0, 1.9558e-07
3055.1, 1.7958e-07
3057.1, 1.5759e-07
3059.1, 1.403e-07
3061.1, 2.0505e-07
3063.1, 1.7878e-07
3065.1, 1.8961e-07
3067.1, 1.6392e-07
3069.1, 1.6654e-07
3071.1, 2.0444e-07
3073.1, 2.2103e-07
3075.1, 2.0769e-07
3077.1, 1.4778e-07
3079.1, 1.9664e-07
3081.1, 1.5559e-07
3083.1, 2.388e-07
3085.1, 1.9584e-07
3087.1, 1.7263e-07
3089.1, 1.9668e-07
3091.1, 2.0299e-07
3093.1, 2.191e-07
3095.1, 1.8212e-07
3097.1, 1.9922e-07
3099.1, 1.4881e-07
3101.1, 1.9607e-07
3103.1, 1.8431e-07
3105.1, 1.7967e-07
3107.1, 1.8342e-07
3109.1, 1.8992e-07
3111.1, 2.0005e-07
3113.1, 2.093e-07
3115.1, 1.9856e-07
3117.1, 2.2218e-07
3119.1, 1.6595e-07
3121.1, 1.8066e-07
3123.1, 1.8906e-07
3125.1, 1.8354e-07
3127.1, 2.0041e-07
3129.1, 2.3417e-07
3131.1, 2.3017e-07
3133.1, 1.9047e-07
3135.1, 2.0314e-07
3137.1, 2.0847e-07
3139.1, 1.9712e-07
3141.1, 2.0449e-07
3143.1, 2.0949e-07
3145.1, 2.0834e-07
3147.1, 2.0318e-07
3149.1, 1.8959e-07
3151.1, 1.936e-07
3153.1, 1.9753e-07
3155.2, 2.0248e-07
3157.2, 1.8315e-07
3159.2, 2.0969e-07
3161.2, 2.1129e-07
3163.2, 2.0673e-07
3165.2, 1.6999e-07
3167.2, 1.6776e-07
3169.2, 1.9026e-07
3171.2, 2.0415e-07
3173.2, 2.1538e-07
3175.2, 1.9159e-07
3177.2, 2.1925e-07
3179.2, 1.7708e-07
3181.2, 2.0594e-07
3183.2, 1.7508e-07
3185.2, 1.9344e-07
3187.2, 2.3094e-07
3189.2, 2.2696e-07
3191.2, 2.0952e-07
3193.2, 1.8589e-07
3195.2, 2.02e-07
3197.2, 2.1214e-07
3199.2, 2.0911e-07
3201.2, 2.3637e-07
3203.2, 2.1192e-07
3205.2, 1.7995e-07
3207.2, 1.9395e-07
3209.2, 1.7623e-07
3211.2, 1.9805e-07
3213.2, 2.0989e-07
3215.2, 2.3584e-07
3217.2, 2.081e-07
3219.2, 1.9008e-07
3221.2, 1.8822e-07
3223.2, 2.1799e-07
3225.2, 2.4227e-07
3227.2, 2.0648e-07
3229.2, 1.9225e-07
3231.2, 1.9209e-07
3233.2, 2.2847e-07
3235.2, 2.4297e-07
3237.2, 2.0419e-07
3239.2, 1.8638e-07
3241.2, 1.6238e-07
3243.2, 1.9992e-07
3245.2, 2.2475e-07
3247.2, 1.7812e-07
3249.2, 1.7062e-07
3251.2, 1.9217e-07
3253.2, 2.0415e-07
3255.3, 2.1179e-07
3257.3, 1.954e-07
3259.3, 2.2204e-07
3261.3, 2.1498e-07
3263.3, 2.1442e-07
3265.3, 2.169e-07
3267.3, 1.9482e-07
3269.3, 1.9708e-07
3271.3, 1.9452e-07
3273.3, 1.7536e-07
3275.3, 2.2249e-07
3277.3, 2.0069e-07
3279.3, 2.0226e-07
3281.3, 2.0812e-07
3283.3, 1.9247e-07
3285.3, 2.2138e-07
3287.3, 2.3888e-07
3289.3, 2.341e-07
3291.3, 2.2243e-07
3293.3, 2.095e-07
3295.3, 1.8875e-07
3297.3, 2.054e-07
3299.3, 1.9713e-07
3301.3, 1.953e-07
3303.3, 1.9203e-07
3305.3, 1.8823e-07
3307.3, 2.0656e-07
3309.3, 2.0009e-07
3311.3, 1.8222e-07
3313.3, 1.9879e-07
3315.3, 2.6112e-07
3317.3, 2.6297e-07
3319.3, 1.8344e-07
3321.3, 2.4526e-07
3323.3, 2.3103e-07
3325.3, 2.1471e-07
3327.3, 2.3026e-07
3329.3, 2.5742e-07
3331.3, 1.9402e-07
3333.3, 1.9568e-07
3335.3, 2.0662e-07
3337.3, 2.0592e-07
3339.3, 1.938e-07
3341.3, 2.2531e-07
3343.3, 2.4278e-07
3345.3, 1.9481e-07
3347.3, 2.2063e-07
3349.3, 2.2547e-07
3351.3, 2.5124e-07
3353.3, 2.2053e-07
3355.4, 2.0451e-07
3357.4, 2.4523e-07
3359.4, 2.1775e-07
3361.4, 1.8092e-07
3363.4, 2.2243e-07
3365.4, 1.8475e-07
3367.4, 2.3026e-07
3369.4, 2.1774e-07
3371.4, 2.0241e-07
3373.4, 1.751e-07
3375.4, 1.7747e-07
3377.4, 2.2811e-07
3379.4, 2.2927e-07
3381.4, 2.3478e-07
3383.4, 1.9189e-07
3385.4, 2.2345e-07
3387.4, 2.0686e-07
3389.4, 2.2606e-07
3391.4, 2.0292e-07
3393.4, 2.2888e-07
3395.4, 2.1677e-07
3397.4, 2.1686e-07
3399.4, 2.2623e-07
3401.4, 2.3724e-07
3403.4, 2.2494e-07
3405.4, 2.4074e-07
3407.4, 2.0843e-07
3409.4, 2.1577e-07
3411.4, 2.1509e-07
3413.4, 2.1317e-07
3415.4, 1.804e-07
3417.4, 2.2793e-07
3419.4, 2.3076e-07
3421.4, 2.2858e-07
3423.4, 2.5811e-07
3425.4, 2.5228e-07
3427.4, 2.4105e-07
3429.4, 1.9399e-07
3431.4, 2.1737e-07
3433.4, 2.1995e-07
3435.4, 2.1161e-07
3437.4, 2.2156e-07
3439.4, 1.9984e-07
3441.4, 2.2553e-07
3443.4, 2.1139e-07
3445.4, 2.0319e-07
3447.4, 2.1886e-07
3449.4, 2.1188e-07
3451.4, 2.2958e-07
3453.4, 2.0787e-07
3455.5, 1.9648e-07
3457.5, 2.3862e-07
3459.5, 2.2817e-07
3461.5, 2.241e-07
3463.5, 2.213e-07
3465.5, 2.2037e-07
3467.5, 1.9329e-07
3469.5, 2.3218e-07
3471.5, 2.1136e-07
3473.5, 2.3064e-07
3475.5, 2.2523e-07
3477.5, 2.1441e-07
3479.5, 1.8108e-07
3481.5, 2.2284e-07
3483.5, 2.084e-07
3485.5, 2.2976e-07
3487.5, 2.2109e-07
3489.5, 2.3883e-07
3491.5, 2.1275e-07
3493.5, 2.1526e-07
3495.5, 2.037e-07
3497.5, 2.1806e-07
3499.5, 2.2303e-07
3501.5, 2.0028e-07
3503.5, 2.18e-07
3505.5, 2.3812e-07
3507.5, 2.0957e-07
3509.5, 1.9505e-07
3511.5, 2.033e-07
3513.5, 2.0219e-07
3515.5, 2.1063e-07
3517.5, 2.1507e-07
3519.5, 2.4624e-07
3521.5, 2.6926e-07
3523.5, 2.2876e-07
3525.5, 2.2402e-07
3527.5, 2.4344e-07
3529.5, 2.508e-07
3531.5, 2.411e-07
3533.5, 2.1672e-07
3535.5, 2.0893e-07
3537.5, 2.3305e-07
3539.5, 2.3425e-07
3541.5, 2.1825e-07
3543.5, 1.9372e-07
3545.5, 2.1013e-07
3547.5, 2.323e-07
3549.5, 1.9884e-07
3551.5, 2.2353e-07
3553.5, 1.7373e-07
3555.6, 2.0119e-07
3557.6, 2.0263e-07
3559.6, 2.2209e-07
3561.6, 2.3173e-07
3563.6, 2.4349e-07
3565.6, 2.3727e-07
3567.6, 2.1431e-07
3569.6, 2.1073e-07
3571.6, 2.3412e-07
3573.6, 2.3472e-07
3575.6, 2.6542e-07
3577.6, 2.5207e-07
3579.6, 2.0688e-07
3581.6, 2.2039e-07
3583.6, 2.0202e-07
3585.6, 2.05e-07
3587.6, 2.1428e-07
3589.6, 2.3461e-07
3591.6, 2.384e-07
3593.6, 1.9777e-07
3595.6, 2.1655e-07
3597.6, 2.0997e-07
3599.6, 2.1326e-07
3601.6, 2.0386e-07
3603.6, 2.392e-07
3605.6, 2.1414e-07
3607.6, 2.358e-07
3609.6, 2.3745e-07
3611.6, 2.6494e-07
3613.6, 2.3369e-07
3615.6, 2.1491e-07
3617.6, 2.4617e-07
3619.6, 2.349e-07
3621.6, 2.7588e-07
3623.6, 2.3236e-07
3625.6, 1.806e-07
3627.6, 2.1121e-07
3629.6, 2.2011e-07
3631.6, 2.0724e-07
3633.6, 2.3753e-07
3635.6, 2.1051e-07
3637.6, 2.2659e-07
3639.6, 2.534e-07
3641.6, 2.2365e-07
3643.6, 1.7561e-07
3645.6, 2.3095e-07
3647.6, 2.4703e-07
3649.6, 2.4165e-07
3651.6, 2.1507e-07
3653.6, 1.9701e-07
3655.7, 2.4964e-07
3657.7, 2.1869e-07
3659.7, 2.1368e-07
3661.7, 2.0777e-07
3663.7, 1.989e-07
3665.7, 2.374e-07
3667.7, 2.4533e-07
3669.7, 2.6767e-07
3671.7, 2.219e-07
3673.7, 2.3211e-07
3675.7, 2.4407e-07
3677.7, 2.3197e-07
3679.7, 2.1911e-07
3681.7, 2.5023e-07
3683.7, 2.0056e-07
3685.7, 1.9337e-07
3687.7, 1.8404e-07
3689.7, 2.1172e-07
3691.7, 2.132e-07
3693.7, 2.2878e-07
3695.7, 2.5665e-07
3697.7, 2.5735e-07
3699.7, 2.1119e-07
3701.7, 2.0669e-07
3703.7, 2.2057e-07
3705.7, 2.0754e-07
3707.7, 2.436e-07
3709.7, 2.2097e-07
3711.7, 2.1072e-07
3713.7, 2.1266e-07
3715.7, 2.0789e-07
3717.7, 1.8831e-07
3719.7, 2.3041e-07
3721.7, 2.093e-07
3723.7, 2.0675e-07
3725.7, 2.1461e-07
3727.7, 2.2107e-07
3729.7, 2.2749e-07
3731.7, 2.3715e-07
3733.7, 2.4239e-07
3735.7, 1.9798e-07
3737.7, 2.5913e-07
3739.7, 2.2137e-07
3741.7, 1.9322e-07
3743.7, 2.085e-07
3745.7, 2.3921e-07
3747.7, 2.6497e-07
3749.7, 2.3811e-07
3751.7, 2.0805e-07
3753.7, 2.6626e-07
3755.8, 2.2404e-07
3757.8, 2.3994e-07
3759.8, 2.367e-07
3761.8, 2.1255e-07
3763.8, 2.2072e-07
3765.8, 2.4436e-07
3767.8, 2.2296e-07
3769.8, 2.2978e-07
3771.8, 2.0502e-07
3773.8, 2.2513e-07
3775.8, 2.4707e-07
3777.8, 2.6695e-07
3779.8, 1.9331e-07
3781.8, 2.2744e-07
3783.8, 2.1586e-07
3785.8, 2.4342e-07
3787.8, 2.3321e-07
3789.8, 2.0977e-07
3791.8, 2.3142e-07
3793.8, 2.3743e-07
3795.8, 2.4582e-07
3797.8, 2.4426e-07
3799.8, 2.426e-07
3801.8, 2.1907e-07
3803.8, 2.3515e-07
3805.8, 1.8729e-07
3807.8, 2.2987e-07
3809.8, 2.058e-07
3811.8, 2.3543e-07
3813.8, 2.6685e-07
3815.8, 2.3416e-07
3817.8, 2.2055e-07
3819.8, 2.2442e-07
3821.8, 2.2871e-07
3823.8, 2.5959e-07
3825.8, 2.1278e-07
3827.8, 2.3321e-07
3829.8, 1.9699e-07
3831.8, 2.2475e-07
3833.8, 2.2665e-07
3835.8, 2.2884e-07
3837.8, 2.1925e-07
3839.8, 2.0398e-07
3841.8, 2.2734e-07
3843.8, 2.3768e-07
3845.8, 2.4869e-07
3847.8, 2.0979e-07
3849.8, 2.0538e-07
3851.8, 2.3293e-07
3853.8, 2.5859e-07
3855.9, 1.9227e-07
3857.9, 2.2956e-07
3859.9, 2.3082e-07
3861.9, 2.3445e-07
3863.9, 2.3352e-07
3865.9, 2.2033e-07
3867.9, 2.1028e-07
3869.9, 2.5003e-07
3871.9, 2.3816e-07
3873.9, 2.5316e-07
3875.9, 2.4677e-07
3877.9, 2.4229e-07
3879.9, 2.3019e-07
3881.9, 2.5461e-07
3883.9, 2.1061e-07
3885.9, 1.9151e-07
3887.9, 2.6595e-07
3889.9, 2.2811e-07
3891.9, 2.4347e-07
3893.9, 2.0876e-07
3895.9, 2.2984e-07
3897.9, 2.1774e-07
3899.9, 2.1051e-07
3901.9, 2.2697e-07
3903.9, 2.4023e-07
3905.9, 2.77e-07
3907.9, 2.4932e-07
3909.9, 2.1672e-07
3911.9, 2.3377e-07
3913.9, 2.4893e-07
3915.9, 2.4478e-07
3917.9, 2.3809e-07
3919.9, 2.0778e-07
3921.9, 2.2714e-07
3923.9, 2.4418e-07
3925.9, 2.2224e-07
3927.9, 2.4505e-07
3929.9, 2.252e-07
3931.9, 2.4325e-07
3933.9, 2.5291e-07
3935.9, 2.5276e-07
3937.9, 2.1041e-07
3939.9, 2.0747e-07
3941.9, 2.4014e-07
3943.9, 2.1077e-07
3945.9, 2.3037e-07
3947.9, 2.0979e-07
3949.9, 2.2464e-07
3951.9, 2.2253e-07
3953.9, 2.72e-07
3956.0, 2.1477e-07
3958.0, 2.145e-07
3960.0, 2.1748e-07
3962.0, 1.8089e-07
3964.0, 2.4245e-07
3966.0, 2.3967e-07
3968.0, 2.2944e-07
3970.0, 2.1065e-07
3972.0, 2.3026e-07
3974.0, 2.5187e-07
3976.0, 2.2749e-07
3978.0, 2.4315e-07
3980.0, 2.4606e-07
3982.0, 2.3059e-07
3984.0, 2.4839e-07
3986.0, 2.0387e-07
3988.0, 1.9163e-07
3990.0, 2.1448e-07
3992.0, 2.3128e-07
3994.0, 2.3733e-07
3996.0, 2.26e-07
3998.0, 2.2281e-07
4000.0, 2.2228e-07
4002.0, 2.4906e-07
4004.0, 2.2514e-07
4006.0, 2.0375e-07
4008.0, 2.5416e-07
4010.0, 2.3282e-07
4012.0, 2.1472e-07
4014.0, 2.1897e-07
4016.0, 2.5116e-07
4018.0, 2.4042e-07
4020.0, 2.2118e-07
4022.0, 2.2231e-07
4024.0, 2.1422e-07
4026.0, 2.2586e-07
4028.0, 1.8665e-07
4030.0, 2.4734e-07
4032.0, 2.1317e-07
4034.0, 2.1991e-07
4036.0, 2.3557e-07
4038.0, 2.2935e-07
4040.0, 2.0197e-07
4042.0, 2.1952e-07
4044.0, 2.4202e-07
4046.0, 2.4151e-07
4048.0, 2.2758e-07
4050.0, 1.9053e-07
4052.0, -4.85e-09
4054.0, -2.091e-08
4056.1, -1.56e-08
4058.1, -1.887e-08
4060.1, -1.951e-08
4062.1, -1.847e-08
4064.1, -1.796e-08
4066.1, -1.811e-08
4068.1, -2.217e-08
4070.1, -1.952e-08
4072.1, -2.249e-08
4074.1, -1.759e-08
4076.1, -2.191e-08
4078.1, -2.033e-08
4080.1, -1.941e-08
4082.1, -2.02e-08
4084.1, -1.584e-08
4086.1, -1.242e-08
4088.1, -1.409e-08
4090.1, -1.722e-08
4092.1, -1.638e-08
4094.1, -2.017e-08
4096.1, -1.945e-08
4098.1, -1.746e-08
4100.1, -1.798e-08
4102.1, -1.459e-08
4104.1, -1.508e-08
4106.1, -1.781e-08
4108.1, -1.717e-08
4110.1, -1.893e-08
4112.1, -1.748e-08
4114.1, -1.746e-08
4116.1, -1.544e-08
4118.1, -1.816e-08
4120.1, -2.139e-08
4122.1, -1.911e-08
4124.1, -1.301e-08
4126.1, -1.838e-08
4128.1, -1.623e-08
4130.1, -1.202e-08
4132.1, -1.202e-08
4134.1, -1.564e-08
4136.1, -1.873e-08
4138.1, -1.399e-08
4140.1, -2.256e-08
4142.1, -1.9e-08
4144.1, -1.838e-08
4146.1, -1.708e-08
4148.1, -1.571e-08
4150.1, -1.827e-08
4152.1, -1.918e-08
4154.1, -2.013e-08
4156.2, -1.915e-08
4158.2, -1.862e-08
4160.2, -1.801e-08
4162.2, -2.052e-08
4164.2, -1.854e-08
4166.2, -1.73e-08
4168.2, -1.977e-08
4170.2, -2.276e-08
4172.2, -2.134e-08
4174.2, -2.212e-08
4176.2, -2.46e-08
4178.2, -2.03e-08
4180.2, -2.363e-08
4182.2, -2.635e-08
4184.2, -2.358e-08
4186.2, -2.293e-08
4188.2, -1.982e-08
4190.2, -2.247e-08
4192.2, -1.721e-08
4194.2, -1.656e-08
4196.2, -2.143e-08
4198.2, -2.236e-08
4200.2, -2.333e-08
4202.2, -1.987e-08
4204.2, -2.026e-08
4206.2, -2.032e-08
4208.2, -2.092e-08
4210.2, -1.749e-08
4212.2, -1.982e-08
4214.2, -1.924e-08
4216.2, -1.745e-08
4218.2, -1.84e-08
4220.2, -1.688e-08
4222.2, -1.891e-08
4224.2, -2.627e-08
4226.2, -1.852e-08
4228.2, -1.862e-08
4230.2, -1.928e-08
4232.2, -1.528e-08
4234.2, -1.992e-08
4236.2, -1.725e-08
4238.2, -2.15e-08
4240.2, -1.803e-08
4242.2, -1.894e-08
4244.2, -1.645e-08
4246.2, -1.799e-08
4248.2, -1.849e-08
4250.2, -1.953e-08
4252.2, -2.241e-08
4254.2, -2.338e-08
4256.3, -2.073e-08
4258.3, -1.731e-08
4260.3, -1.661e-08
4262.3, -1.957e-08
4264.3, -1.509e-08
4266.3, -1.638e-08
4268.3, -1.991e-08
4270.3, -1.891e-08
4272.3, -1.884e-08
4274.3, -2.197e-08
4276.3, -2.014e-08
4278.3, -2.143e-08
4280.3, -2.036e-08
4282.3, -2.573e-08
4284.3, -2.209e-08
4286.3, -2.216e-08
4288.3, -2.218e-08
4290.3, -2.24e-08
4292.3, -2.28e-08
4294.3, -1.895e-08
4296.3, -2.008e-08
4298.3, -1.441e-08
4300.3, -1.939e-08
4302.3, -2.054e-08
4304.3, -2.448e-08
4306.3, -2.323e-08
4308.3, -2.283e-08
4310.3, -2.041e-08
4312.3, -1.848e-08
4314.3, -1.878e-08
4316.3, -1.66e-08
4318.3, -1.601e-08
4320.3, -1.681e-08
4322.3, -1.538e-08
4324.3, -1.755e-08
4326.3, -1.672e-08
4328.3, -2.126e-08
4330.3, -1.856e-08
4332.3, -1.633e-08
4334.3, -1.703e-08
4336.3, -1.873e-08
4338.3, -1.764e-08
4340.3, -2.056e-08
4342.3, -1.601e-08
4344.3, -1.705e-08
4346.3, -1.575e-08
4348.3, -1.931e-08
4350.3, -1.715e-08
4352.3, -1.563e-08
4354.3, -1.526e-08
4356.4, -1.834e-08
4358.4, -1.638e-08
4360.4, -1.43e-08
4362.4, -1.864e-08
4364.4, -1.18e-08
4366.4, -1.501e-08
4368.4, -1.457e-08
4370.4, -8.86e-09
4372.4, -1.197e-08
4374.4, -1.445e-08
4376.4, -1.888e-08
4378.4, -1.949e-08
4380.4, -1.319e-08
4382.4, -1.856e-08
4384.4, -1.587e-08
4386.4, -1.499e-08
4388.4, -1.623e-08
4390.4, -1.75e-08
4392.4, -1.586e-08
4394.4, -1.37e-08
4396.4, -1.198e-08
4398.4, -1.266e-08
4400.4, -1.755e-08
4402.4, -1.451e-08
4404.4, -1.693e-08
4406.4, -1.446e-08
4408.4, -1.694e-08
4410.4, -1.564e-08
4412.4, -2.113e-08
4414.4, -1.854e-08
4416.4, -1.665e-08
4418.4, -1.492e-08
4420.4, -2.032e-08
4422.4, -1.922e-08
4424.4, -1.734e-08
4426.4, -1.474e-08
4428.4, -1.411e-08
4430.4, -1.215e-08
4432.4, -1.891e-08
4434.4, -1.894e-08
4436.4, -1.483e-08
4438.4, -1.858e-08
4440.4, -1.683e-08
4442.4, -1.778e-08
4444.4, -1.792e-08
4446.4, -1.99e-08
4448.4, -1.646e-08
4450.4, -2.064e-08
4452.4, -2.187e-08
4454.4, -2.165e-08
4456.5, -1.911e-08
4458.5, -1.856e-08
4460.5, -1.826e-08
4462.5, -1.972e-08
4464.5, -1.744e-08
4466.5, -2.1e-08
4468.5, -1.767e-08
4470.5, -1.729e-08
4472.5, -1.899e-08
4474.5, -1.727e-08
4476.5, -1.954e-08
4478.5, -1.342e-08
4480.5, -1.778e-08
4482.5, -1.603e-08
4484.5, -2.022e-08
4486.5, -1.68e-08
4488.5, -1.531e-08
4490.5, -1.897e-08
4492.5, -1.706e-08
4494.5, -2.005e-08
4496.5, -1.674e-08
4498.5, -1.55e-08
4500.5, -1.68e-08
4502.5, -1.821e-08
4504.5, -1.689e-08
4506.5, -1.624e-08
4508.5, -1.818e-08
4510.5, -1.633e-08
4512.5, -1.841e-08
4514.5, -1.933e-08
4516.5, -1.794e-08
4518.5, -2.189e-08
4520.5, -2.263e-08
4522.5, -1.813e-08
4524.5, -1.762e-08
4526.5, -2.047e-08
4528.5, -1.809e-08
4530.5, -1.929e-08
4532.5, -1.968e-08
4534.5, -1.637e-08
4536.5, -1.896e-08
4538.5, -2.108e-08
4540.5, -2.297e-08
4542.5, -1.691e-08
4544.5, -1.946e-08
4546.5, -2.061e-08
4548.5, -2.271e-08
4550.5, -2.126e-08
4552.5, -2.36e-08
4554.5, -2.168e-08
4556.6, -2.034e-08
4558.6, -2.345e-08
4560.6, -2.37e-08
4562.6, -2.162e-08
4564.6, -1.93e-08
4566.6, -2.324e-08
4568.6, -2.57e-08
4570.6, -2.199e-08
4572.6, -2.266e-08
4574.6, -2.26e-08
4576.6, -2.379e-08
4578.6, -2.259e-08
4580.6, -2.18e-08
4582.6, -2.202e-08
4584.6, -2.301e-08
4586.6, -2.25e-08
4588.6, -2.041e-08
4590.6, -2.197e-08
4592.6, -2.265e-08
4594.6, -2.724e-08
4596.6, -2.637e-08
4598.6, -2.391e-08
4600.6, -2.498e-08
4602.6, -2.2e-08
4604.6, -2.123e-08
4606.6, -1.502e-08
4608.6, -2.1e-08
4610.6, -1.898e-08
4612.6, -1.828e-08
4614.6, -1.687e-08
4616.6, -2.262e-08
4618.6, -2.138e-08
4620.6, -2.361e-08
4622.6, -2.119e-08
4624.6, -2.147e-08
4626.6, -1.679e-08
4628.6, -1.738e-08
4630.6, -1.763e-08
4632.6, -2.16e-08
4634.6, -1.958e-08
4636.6, -2.133e-08
4638.6, -2.047e-08
4640.6, -2.155e-08
4642.6, -2.106e-08
4644.6, -2.193e-08
4646.6, -2.236e-08
4648.6, -1.977e-08
4650.6, -1.978e-08
4652.6, -2.193e-08
4654.6, -1.967e-08
4656.7, -2.258e-08
4658.7, -2.015e-08
4660.7, -2.081e-08
4662.7, -2.177e-08
4664.7, -2.037e-08
4666.7, -2.167e-08
4668.7, -2.169e-08
4670.7, -2.248e-08
4672.7, -2.143e-08
4674.7, -1.821e-08
4676.7, -2.046e-08
4678.7, -2.229e-08
4680.7, -2.159e-08
4682.7, -2.308e-08
4684.7, -2.333e-08
4686.7, -1.988e-08
4688.7, -1.952e-08
4690.7, -2.641e-08
4692.7, -2.234e-08
4694.7, -2.242e-08
4696.7, -1.888e-08
4698.7, -2.114e-08
4700.7, -2.16e-08
4702.7, -1.997e-08
4704.7, -2.203e-08
4706.7, -1.621e-08
4708.7, -1.883e-08
4710.7, -1.965e-08
4712.7, -1.837e-08
4714.7, -1.87e-08
4716.7, -2.18e-08
4718.7, -1.789e-08
4720.7, -1.933e-08
4722.7, -1.691e-08
4724.7, -2.073e-08
4726.7, -1.864e-08
4728.7, -2.068e-08
4730.7, -1.98e-08
4732.7, -2.087e-08
4734.7, -1.748e-08
4736.7, -2.066e-08
4738.7, -1.998e-08
4740.7, -2.273e-08
4742.7, -2.306e-08
4744.7, -2.345e-08
4746.7, -2.175e-08
4748.7, -1.864e-08
4750.7, -2.042e-08
4752.7, -2.472e-08
4754.7, -2.041e-08
4756.8, -1.815e-08
4758.8, -1.941e-08
4760.8, -1.699e-08
4762.8, -1.815e-08
4764.8, -1.958e-08
4766.8, -1.99e-08
4768.8, -2.13e-08
4770.8, -1.989e-08
4772.8, -1.816e-08
4774.8, -2.358e-08
4776.8, -1.74e-08
4778.8, -2.097e-08
4780.8, -1.871e-08
4782.8, -2.001e-08
4784.8, -2.097e-08
4786.8, -2.088e-08
4788.8, -1.822e-08
4790.8, -2.072e-08
4792.8, -1.902e-08
4794.8, -2.097e-08
4796.8, -1.992e-08
4798.8, -1.825e-08
4800.8, -2.079e-08
4802.8, -1.891e-08
4804.8, -2.018e-08
4806.8, -2.165e-08
4808.8, -2.524e-08
4810.8, -2.39e-08
4812.8, -1.912e-08
4814.8, -1.998e-08
4816.8, -2.127e-08
4818.8, -2.071e-08
4820.8, -2.006e-08
4822.8, -1.907e-08
4824.8, -1.89e-08
4826.8, -2.052e-08
4828.8, -2.049e-08
4830.8, -2.265e-08
4832.8, -2.287e-08
4834.8, -2.112e-08
4836.8, -1.992e-08
4838.8, -2.049e-08
4840.8, -2.081e-08
4842.8, -1.83e-08
4844.8, -1.976e-08
4846.8, -2.102e-08
4848.8, -1.716e-08
4850.8, -2.423e-08
4852.8, -2.383e-08
4854.8, -2.649e-08
4856.9, -1.938e-08
4858.9, -1.928e-08
4860.9, -2.486e-08
4862.9, -2.289e-08
4864.9, -2.052e-08
4866.9, -1.994e-08
4868.9, -1.935e-08
4870.9, -2.291e-08
4872.9, -2.027e-08
4874.9, -2.037e-08
4876.9, -2.403e-08
4878.9, -2.076e-08
4880.9, -2.23e-08
4882.9, -2.119e-08
4884.9, -2.34e-08
4886.9, -2.227e-08
4888.9, -2.245e-08
4890.9, -1.76e-08
4892.9, -2.06e-08
4894.9, -1.739e-08
4896.9, -1.773e-08
4898.9, -2.076e-08
4900.9, -2.285e-08
4902.9, -2.429e-08
4904.9, -2.523e-08
4906.9, -2.266e-08
4908.9, -2.164e-08
4910.9, -2.188e-08
4912.9, -2.283e-08
4914.9, -1.84e-08
4916.9, -2.22e-08
4918.9, -1.79e-08
4920.9, -2.282e-08
4922.9, -1.832e-08
4924.9, -1.848e-08
4926.9, -1.894e-08
4928.9, -2.38e-08
4930.9, -1.698e-08
4932.9, -2.367e-08
4934.9, -1.987e-08
4936.9, -1.605e-08
4938.9, -2.157e-08
4940.9, -2.222e-08
4942.9, -2.04e-08
4944.9, -2.434e-08
4946.9, -2.401e-08
4948.9, -2.168e-08
4950.9, -2.351e-08
4952.9, -2.186e-08
4954.9, -2.018e-08
4957.0, -2.094e-08
4959.0, -1.821e-08
4961.0, -2.352e-08
4963.0, -2.435e-08
4965.0, -2.354e-08
4967.0, -2.335e-08
4969.0, -1.982e-08
4971.0, -1.931e-08
4973.0, -1.842e-08
4975.0, -2.301e-08
4977.0, -2.307e-08
4979.0, -1.905e-08
4981.0, -1.866e-08
4983.0, -2.104e-08
4985.0, -1.84e-08
4987.0, -2.038e-08
4989.0, -1.801e-08
4991.0, -1.901e-08
4993.0, -1.921e-08
4995.0, -1.761e-08
4997.0, -2.054e-08
4999.0, -1.762e-08
5001.0, -2.003e-08
5003.0, -2.403e-08
5005.0, -2.127e-08
5007.0, -2.302e-08
5009.0, -2.02e-08
5011.0, -2.204e-08
5013.0, -2.317e-08
5015.0, -1.936e-08
5017.0, -1.842e-08
5019.0, -2.135e-08
5021.0, -2.271e-08
5023.0, -2.541e-08
5025.0, -2.38e-08
5027.0, -2.227e-08
5029.0, -2.163e-08
5031.0, -1.998e-08
5033.0, -2.295e-08
5035.0, -1.834e-08
5037.0, -1.821e-08
5039.0, -2.2e-08
5041.0, -2.023e-08
5043.0, -2.259e-08
5045.0, -2.049e-08
5047.0, -2.239e-08
5049.0, -2.109e-08
5051.0, -2.122e-08
5053.0, -2.304e-08
5055.0, -2.214e-08
5057.1, -2e-08
5059.1, -2.307e-08
5061.1, -2.417e-08
5063.1, -2.58e-08
5065.1, -2.357e-08
5067.1, -2.298e-08
5069.1, -2.352e-08
5071.1, -1.649e-08
5073.1, -1.866e-08
5075.1, 9.763e-08
5077.1, 1.4722e-07
5079.1, 1.6959e-07
5081.1, 2.0202e-07
5083.1, 1.8441e-07
5085.1, 2.1548e-07
5087.1, 1.8157e-07
5089.1, 2.1121e-07
5091.1, 1.9171e-07
5093.1, 1.6474e-07
5095.1, 1.8401e-07
5097.1, 1.93e-07
5099.1, 1.778e-07
5101.1, 1.9053e-07
5103.1, 1.6523e-07
5105.1, 2.0286e-07
5107.1, 1.7372e-07
5109.1, 2.5569e-07
5111.1, 2.0043e-07
5113.1, 1.7727e-07
5115.1, 1.9597e-07
5117.1, 1.7505e-07
5119.1, 1.9836e-07
5121.1, 2.06e-07
5123.1, 1.7303e-07
5125.1, 2.2122e-07
5127.1, 1.725e-07
5129.1, 1.8394e-07
5131.1, 1.8729e-07
5133.1, 1.9367e-07
5135.1, 2.0072e-07
5137.1, 2.1356e-07
5139.1, 2.0997e-07
5141.1, 2.1157e-07
5143.1, 2.2671e-07
5145.1, 2.0935e-07
5147.1, 2.1973e-07
5149.1, 2.2396e-07
5151.1, 1.903e-07
5153.1, 2.0231e-07
5155.1, 2.0846e-07
5157.2, 1.7967e-07
5159.2, 2.0394e-07
5161.2, 2.178e-07
5163.2, 2.0873e-07
5165.2, 1.9265e-07
5167.2, 1.8475e-07
5169.2, 1.874e-07
5171.2, 1.7824e-07
5173.2, 2.0333e-07
5175.2, 2.1279e-07
5177.2, 2.4082e-07
5179.2, 2.1606e-07
5181.2, 2.2592e-07
5183.2, 1.9003e-07
5185.2, 2.0122e-07
5187.2, 1.9405e-07
5189.2, 2.1343e-07
5191.2, 2.1249e-07
5193.2, 2.1836e-07
5195.2, 2.2645e-07
5197.2, 2.4953e-07
5199.2, 2.0851e-07
5201.2, 2.1917e-07
5203.2, 1.8856e-07
5205.2, 1.9522e-07
5207.2, 1.9485e-07
5209.2, 2.2332e-07
5211.2, 1.9151e-07
5213.2, 2.0939e-07
5215.2, 2.3059e-07
5217.2, 1.9726e-07
5219.2, 2.3667e-07
5221.2, 2.0968e-07
5223.2, 2.3577e-07
5225.2, 2.48e-07
5227.2, 2.0233e-07
5229.2, 2.0822e-07
5231.2, 1.9248e-07
5233.2, 1.9048e-07
5235.2, 2.2608e-07
5237.2, 1.8692e-07
5239.2, 2.5919e-07
5241.2, 1.8449e-07
5243.2, 2.3405e-07
5245.2, 2.2154e-07
5247.2, 2.625e-07
5249.2, 1.9855e-07
5251.2, 2.2025e-07
5253.2, 2.0174e-07
5255.2, 2.1607e-07
5257.3, 1.9872e-07
5259.3, 2.0829e-07
5261.3, 2.1662e-07
5263.3, 1.6708e-07
5265.3, 2.1358e-07
5267.3, 1.9705e-07
5269.3, 2.1034e-07
5271.3, 1.8494e-07
5273.3, 1.9444e-07
5275.3, 2.3797e-07
5277.3, 2.1502e-07
5279.3, 2.0641e-07
5281.3, 2.2327e-07
5283.3, 2.1608e-07
5285.3, 2.2946e-07
5287.3, 2.4051e-07
5289.3, 1.891e-07
5291.3, 2.2732e-07
5293.3, 1.9082e-07
5295.3, 2.0903e-07
5297.3, 2.3298e-07
5299.3, 2.2134e-07
5301.3, 1.9255e-07
5303.3, 1.9525e-07
5305.3, 1.867e-07
5307.3, 2.3594e-07
5309.3, 1.7164e-07
5311.3, 2.3685e-07
5313.3, 2.2038e-07
5315.3, 2.3992e-07
5317.3, 1.9986e-07
5319.3, 2.1801e-07
5321.3, 2.286e-07
5323.3, 2.3273e-07
5325.3, 2.1391e-07
5327.3, 2.21e-07
5329.3, 1.8848e-07
5331.3, 2.6622e-07
5333.3, 2.1787e-07
5335.3, 2.1943e-07
5337.3, 2.5806e-07
5339.3, 1.801e-07
5341.3, 2.175e-07
5343.3, 2.2035e-07
5345.3, 2.1361e-07
5347.3, 2.2071e-07
5349.3, 2.4083e-07
5351.3, 1.9544e-07
5353.3, 2.8092e-07
5355.3, 2.2626e-07
5357.4, 2.3956e-07
5359.4, 2.2422e-07
5361.4, 2.0656e-07
5363.4, 1.9816e-07
5365.4, 2.4406e-07
5367.4, 2.1109e-07
5369.4, 2.1755e-07
5371.4, 2.3938e-07
5373.4, 2.4416e-07
5375.4, 2.252e-07
5377.4, 2.3929e-07
5379.4, 2.2803e-07
5381.4, 2.2612e-07
5383.4, 2.1502e-07
5385.4, 1.8782e-07
5387.4, 2.3262e-07
5389.4, 2.5096e-07
5391.4, 2.5636e-07
5393.4, 2.0736e-07
5395.4, 2.3015e-07
5397.4, 2.1612e-07
5399.4, 1.9181e-07
5401.4, 2.1323e-07
5403.4, 2.4868e-07
5405.4, 2.2795e-07
5407.4, 2.6297e-07
5409.4, 2.3763e-07
5411.4, 2.0373e-07
5413.4, 2.2798e-07
5415.4, 2.1417e-07
5417.4, 2.1176e-07
5419.4, 2.727e-07
5421.4, 2.3984e-07
5423.4, 2.2472e-07
5425.4, 2.408e-07
5427.4, 2.7144e-07
5429.4, 2.5464e-07
5431.4, 2.4717e-07
5433.4, 2.2496e-07
5435.4, 1.9877e-07
5437.4, 2.0042e-07
5439.4, 2.3954e-07
5441.4, 2.4431e-07
5443.4, 2.1334e-07
5445.4, 2.5678e-07
5447.4, 2.2727e-07
5449.4, 2.3354e-07
5451.4, 2.4758e-07
5453.4, 2.4628e-07
5455.4, 2.1147e-07
5457.5, 2.39e-07
5459.5, 2.409e-07
5461.5, 2.4689e-07
5463.5, 2.788e-07
5465.5, 2.749e-07
5467.5, 1.9858e-07
5469.5, 2.4178e-07
5471.5, 2.5889e-07
5473.5, 1.9812e-07
5475.5, 2.1882e-07
5477.5, 2.3066e-07
5479.5, 2.3102e-07
5481.5, 1.8516e-07
5483.5, 2.1936e-07
5485.5, 2.2416e-07
5487.5, 2.1522e-07
5489.5, 2.0438e-07
5491.5, 2.2185e-07
5493.5, 2.1797e-07
5495.5, 2.497e-07
5497.5, 2.4308e-07
5499.5, 2.7507e-07
5501.5, 2.2363e-07
5503.5, 2.2919e-07
5505.5, 2.2609e-07
5507.5, 2.2775e-07
5509.5, 2.1848e-07
5511.5, 2.3497e-07
5513.5, 2.1886e-07
5515.5, 2.6786e-07
5517.5, 1.7831e-07
5519.5, 2.5717e-07
5521.5, 2.1779e-07
5523.5, 1.9019e-07
5525.5, 2.3201e-07
5527.5, 1.9387e-07
5529.5, 2.3519e-07
5531.5, 1.8612e-07
5533.5, 1.9753e-07
5535.5, 2.4798e-07
5537.5, 2.2477e-07
5539.5, 2.1596e-07
5541.5, 2.3543e-07
5543.5, 2.2138e-07
5545.5, 2.2883e-07
5547.5, 1.7025e-07
5549.5, 2.0876e-07
5551.5, 1.9867e-07
5553.5, 2.5863e-07
5555.5, 2.0828e-07
5557.6, 2.3415e-07
5559.6, 2.2348e-07
5561.6, 2.2697e-07
5563.6, 2.2319e-07
5565.6, 2.2063e-07
5567.6, 2.3173e-07
5569.6, 2.3803e-07
5571.6, 2.1631e-07
5573.6, 2.6101e-07
5575.6, 2.4407e-07
5577.6, 2.0761e-07
5579.6, 2.3719e-07
5581.6, 2.3896e-07
5583.6, 2.3265e-07
5585.6, 2.4572e-07
5587.6, 2.3429e-07
5589.6, 2.5702e-07
5591.6, 2.2497e-07
5593.6, 2.1969e-07
5595.6, 2.5356e-07
5597.6, 2.5438e-07
5599.6, 2.2345e-07
5601.6, 2.6988e-07
5603.6, 2.3986e-07
5605.6, 2.3237e-07
5607.6, 3.0373e-07
5609.6, 2.0696e-07
5611.6, 2.842e-07
5613.6, 2.277e-07
5615.6, 2.1362e-07
5617.6, 2.6321e-07
5619.6, 2.5162e-07
5621.6, 2.5985e-07
5623.6, 2.0595e-07
5625.6, 1.7437e-07
5627.6, 2.4607e-07
5629.6, 2.9573e-07
5631.6, 2.4985e-07
5633.6, 2.4547e-07
5635.6, 2.7438e-07
5637.6, 2.3391e-07
5639.6, 2.1962e-07
5641.6, 2.1503e-07
5643.6, 1.9286e-07
5645.6, 1.9337e-07
5647.6, 2.0819e-07
5649.6, 2.4881e-07
5651.6, 2.1535e-07
5653.6, 2.3211e-07
5655.6, 2.459e-07
5657.7, 2.42e-07
5659.7, 2.4154e-07
5661.7, 2.4965e-07
5663.7, 2.4559e-07
5665.7, 2.0737e-07
5667.7, 2.5307e-07
5669.7, 2.1304e-07
5671.7, 2.0389e-07
5673.7, 2.2234e-07
5675.7, 2.5423e-07
5677.7, 2.0256e-07
5679.7, 2.5839e-07
5681.7, 2.2632e-07
5683.7, 2.5946e-07
5685.7, 3.1547e-07
5687.7, 2.5258e-07
5689.7, 2.3466e-07
5691.7, 2.6384e-07
5693.7, 2.6607e-07
5695.7, 2.1619e-07
5697.7, 2.5006e-07
5699.7, 2.2827e-07
5701.7, 2.2009e-07
5703.7, 2.4473e-07
5705.7, 2.1225e-07
5707.7, 2.2514e-07
5709.7, 2.1239e-07
5711.7, 2.4414e-07
5713.7, 2.2121e-07
5715.7, 2.4762e-07
5717.7, 2.4795e-07
5719.7, 2.4142e-07
5721.7, 2.3145e-07
5723.7, 1.9817e-07
5725.7, 2.7642e-07
5727.7, 2.3645e-07
5729.7, 2.6864e-07
5731.7, 2.3318e-07
5733.7, 2.4595e-07
5735.7, 2.1549e-07
5737.7, 2.5681e-07
5739.7, 2.2943e-07
5741.7, 2.1856e-07
5743.7, 2.3895e-07
5745.7, 2.173e-07
5747.7, 2.4917e-07
5749.7, 2.1884e-07
5751.7, 2.2766e-07
5753.7, 2.441e-07
5755.7, 2.0607e-07
5757.8, 2.1888e-07
5759.8, 2.1179e-07
5761.8, 2.4372e-07
5763.8, 2.2175e-07
5765.8, 3.0078e-07
5767.8, 2.0875e-07
5769.8, 2.0637e-07
5771.8, 2.3803e-07
5773.8, 2.1876e-07
5775.8, 2.3565e-07
5777.8, 2.3585e-07
5779.8, 2.6299e-07
5781.8, 2.5983e-07
5783.8, 2.5218e-07
5785.8, 2.2486e-07
5787.8, 2.4863e-07
5789.8, 1.9936e-07
5791.8, 2.4765e-07
5793.8, 2.6121e-07
5795.8, 2.0795e-07
5797.8, 2.2862e-07
5799.8, 2.1551e-07
5801.8, 2.4282e-07
5803.8, 2.3109e-07
5805.8, 2.2704e-07
5807.8, 2.3295e-07
5809.8, 2.8101e-07
5811.8, 2.1567e-07
5813.8, 2.3928e-07
5815.8, 2.4699e-07
5817.8, 1.8479e-07
5819.8, 2.3029e-07
5821.8, 2.5752e-07
5823.8, 2.4455e-07
5825.8, 2.4429e-07
5827.8, 2.489e-07
5829.8, 2.2433e-07
5831.8, 2.5193e-07
5833.8, 2.387e-07
5835.8, 2.1294e-07
5837.8, 2.0159e-07
5839.8, 1.8085e-07
5841.8, 2.4247e-07
5843.8, 1.8693e-07
5845.8, 2.2114e-07
5847.8, 2.439e-07
5849.8, 2.2536e-07
5851.8, 2.2974e-07
5853.8, 2.3311e-07
5855.8, 2.0756e-07
5857.9, 2.424e-07
5859.9, 2.2287e-07
5861.9, 2.4812e-07
5863.9, 1.9603e-07
5865.9, 2.038e-07
5867.9, 2.3456e-07
5869.9, 2.5145e-07
5871.9, 2.1454e-07
5873.9, 2.1462e-07
5875.9, 2.2797e-07
5877.9, 2.2471e-07
5879.9, 1.9168e-07
5881.9, 1.8298e-07
5883.9, 2.4212e-07
5885.9, 2.1849e-07
5887.9, 2.6738e-07
5889.9, 2.2123e-07
5891.9, 2.3562e-07
5893.9, 2.3318e-07
5895.9, 2.5363e-07
5897.9, 2.1131e-07
5899.9, 2.1119e-07
5901.9, 2.8029e-07
5903.9, 2.2391e-07
5905.9, 2.5685e-07
5907.9, 1.9186e-07
5909.9, 2.1169e-07
5911.9, 2.3874e-07
5913.9, 2.2259e-07
5915.9, 2.173e-07
5917.9, 2.3237e-07
5919.9, 2.6052e-07
5921.9, 2.053e-07
5923.9, 2.1102e-07
5925.9, 2.1222e-07
5927.9, 2.2336e-07
5929.9, 2.2408e-07
5931.9, 2.154e-07
5933.9, 2.4405e-07
5935.9, 2.7252e-07
5937.9, 2.1791e-07
5939.9, 2.0815e-07
5941.9, 2.3211e-07
5943.9, 2.3566e-07
5945.9, 2.3629e-07
5947.9, 2.0283e-07
5949.9, 2.6565e-07
5951.9, 2.2905e-07
5953.9, 2.1669e-07
5955.9, 2.2464e-07
5958.0, 1.9939e-07
5960.0, 2.3665e-07
5962.0, 2.2558e-07
5964.0, 2.4671e-07
5966.0, 2.1446e-07
5968.0, 1.8698e-07
5970.0, 2.0301e-07
5972.0, 2.4412e-07
5974.0, 2.2584e-07
5976.0, 2.3437e-07
5978.0, 2.3721e-07
5980.0, 2.3453e-07
5982.0, 2.2143e-07
5984.0, 2.0729e-07
5986.0, 2.3314e-07
5988.0, 2.3959e-07
5990.0, 2.0592e-07
5992.0, 2.0943e-07
5994.0, 2.0668e-07
5996.0, 2.0632e-07
5998.0, 2.1518e-07
6000.0, 1.9513e-07
6002.0, 2.3864e-07
6004.0, 2.4653e-07
6006.0, 2.4458e-07
6008.0, 2.6284e-07
6010.0, 2.5156e-07
6012.0, 2.5112e-07
6014.0, 2.4391e-07
6016.0, 1.7349e-07
6018.0, 1.9799e-07
6020.0, 2.7884e-07
6022.0, 2.0961e-07
6024.0, 2.2564e-07
6026.0, 2.0878e-07
6028.0, 2.3686e-07
6030.0, 2.1558e-07
6032.0, 2.2422e-07
6034.0, 2.6926e-07
6036.0, 2.4391e-07
6038.0, 2.1312e-07
6040.0, 2.3749e-07
6042.0, 2.22e-07
6044.0, 2.3328e-07
6046.0, 2.1634e-07
6048.0, 2.7515e-07
6050.0, 2.3468e-07
6052.0, 2.1264e-07
6054.0, 2.1702e-07
6056.0, 2.4621e-07
6058.1, 2.5833e-07
6060.1, 2.3982e-07
6062.1, 2.4418e-07
6064.1, 2.5174e-07
6066.1, 1.9699e-07
6068.1, 2.721e-07
6070.1, 2.1658e-07
6072.1, 2.3164e-07
6074.1, 2.4854e-07
6076.1, 1.1836e-07
6078.1, -1.985e-08
6080.1, -2.014e-08
6082.1, -2.146e-08
6084.1, -2.603e-08
6086.1, -2.525e-08
6088.1, -2.446e-08
6090.1, -2.546e-08
6092.1, -2.34e-08
6094.1, -2.206e-08
6096.1, -2.225e-08
6098.1, -2.099e-08
6100.1, -2.5e-08
6102.1, -2.472e-08
6104.1, -2.808e-08
6106.1, -2.676e-08
6108.1, -2.522e-08
6110.1, -2.73e-08
6112.1, -2.486e-08
6114.1, -2.665e-08
6116.1, -2.354e-08
6118.1, -2.893e-08
6120.1, -2.685e-08
6122.1, -2.577e-08
6124.1, -2.176e-08
6126.1, -2.333e-08
6128.1, -2.092e-08
6130.1, -2.401e-08
6132.1, -2.219e-08
6134.1, -2.67e-08
6136.1, -2.251e-08
6138.1, -2.655e-08
6140.1, -2.527e-08
6142.1, -2.888e-08
6144.1, -2.845e-08
6146.1, -3.033e-08
6148.1, -2.649e-08
6150.1, -2.568e-08
6152.1, -2.801e-08
6154.1, -2.459e-08
6156.1, -2.682e-08
6158.2, -2.7e-08
6160.2, -2.609e-08
6162.2, -2.388e-08
6164.2, -2.771e-08
6166.2, -2.509e-08
6168.2, -2.437e-08
6170.2, -2.807e-08
6172.2, -2.582e-08
6174.2, -2.831e-08
6176.2, -2.584e-08
6178.2, -2.511e-08
6180.2, -2.619e-08
6182.2, -2.461e-08
6184.2, -2.514e-08
6186.2, -2.356e-08
6188.2, -2.592e-08
6190.2, -2.364e-08
6192.2, -2.999e-08
6194.2, -2.922e-08
6196.2, -2.842e-08
6198.2, -2.381e-08
6200.2, -2.612e-08
6202.2, -2.701e-08
6204.2, -2.745e-08
6206.2, -2.763e-08
6208.2, -2.48e-08
6210.2, -2.505e-08
6212.2, -2.519e-08
6214.2, -3.093e-08
6216.2, -2.737e-08
6218.2, -2.989e-08
6220.2, -2.624e-08
6222.2, -2.767e-08
6224.2, -2.832e-08
6226.2, -2.988e-08
6228.2, -2.631e-08
6230.2, -2.41e-08
6232.2, -3.149e-08
6234.2, -2.414e-08
6236.2, -2.367e-08
6238.2, -2.697e-08
6240.2, -2.704e-08
6242.2, -2.745e-08
6244.2, -2.52e-08
6246.2, -2.434e-08
6248.2, -2.403e-08
6250.2, -2.186e-08
6252.2, -2.572e-08
6254.2, -2.646e-08
6256.2, -2.3e-08
6258.3, -2.301e-08
6260.3, -3.202e-08
6262.3, -2.615e-08
6264.3, -2.95e-08
6266.3, -2.642e-08
6268.3, -2.453e-08
6270.3, -2.015e-08
6272.3, -2.409e-08
6274.3, -2.348e-08
6276.3, -2.318e-08
6278.3, -2.772e-08
6280.3, -2.779e-08
6282.3, -2.697e-08
6284.3, -2.665e-08
6286.3, -2.437e-08
6288.3, -2.24e-08
6290.3, -2.274e-08
6292.3, -2.42e-08
6294.3, -2.781e-08
6296.3, -2.377e-08
6298.3, -2.496e-08
6300.3, -2.312e-08
6302.3, -2.455e-08
6304.3, -2.566e-08
6306.3, -2.347e-08
6308.3, -2.686e-08
6310.3, -2.443e-08
6312.3, -2.445e-08
6314.3, -2.244e-08
6316.3, -2.368e-08
6318.3, -2.665e-08
6320.3, -2.47e-08
6322.3, -2.742e-08
6324.3, -2.345e-08
6326.3, -2.352e-08
6328.3, -2.208e-08
6330.3, -2.107e-08
6332.3, -2.007e-08
6334.3, -2.031e-08
6336.3, -2.185e-08
6338.3, -1.996e-08
6340.3, -2.322e-08
6342.3, -1.981e-08
6344.3, -1.884e-08
6346.3, -1.916e-08
6348.3, -1.989e-08
6350.3, -2.078e-08
6352.3, -2.292e-08
6354.3, -2.147e-08
6356.3, -2.422e-08
6358.4, -2.085e-08
6360.4, -1.912e-08
6362.4, -2.26e-08
6364.4, -2.209e-08
6366.4, -2.522e-08
6368.4, -2.173e-08
6370.4, -2.382e-08
6372.4, -2.752e-08
6374.4, -2.184e-08
6376.4, -2.477e-08
6378.4, -1.665e-08
6380.4, -2.025e-08
6382.4, -2.084e-08
6384.4, -2.064e-08
6386.4, -1.929e-08
6388.4, -1.977e-08
6390.4, -1.967e-08
6392.4, -2.096e-08
6394.4, -2.358e-08
6396.4, -2.084e-08
6398.4, -2.172e-08
6400.4, -1.751e-08
6402.4, -2.173e-08
6404.4, -2.021e-08
6406.4, -2.131e-08
6408.4, -2.123e-08
6410.4, -1.826e-08
6412.4, -1.918e-08
6414.4, -2.002e-08
6416.4, -2.017e-08
6418.4, -2.001e-08
6420.4, -1.935e-08
6422.4, -2.153e-08
6424.4, -2.208e-08
6426.4, -2.453e-08
6428.4, -1.809e-08
6430.4, -2.239e-08
6432.4, -2.011e-08
6434.4, -2.096e-08
6436.4, -1.968e-08
6438.4, -1.902e-08
6440.4, -1.941e-08
6442.4, -2.163e-08
6444.4, -2.054e-08
6446.4, -1.956e-08
6448.4, -1.801e-08
6450.4, -1.581e-08
6452.4, -1.939e-08
6454.4, -1.747e-08
6456.4, -1.801e-08
6458.5, -2.209e-08
6460.5, -1.885e-08
6462.5, -1.792e-08
6464.5, -1.815e-08
6466.5, -1.991e-08
6468.5, -1.898e-08
6470.5, -1.673e-08
6472.5, -1.447e-08
6474.5, -1.618e-08
6476.5, -1.696e-08
6478.5, -1.412e-08
6480.5, -1.625e-08
6482.5, -1.529e-08
6484.5, -1.741e-08
6486.5, -1.513e-08
6488.5, -1.552e-08
6490.5, -1.676e-08
6492.5, -1.56e-08
6494.5, -1.76e-08
6496.5, -1.867e-08
6498.5, -1.605e-08
6500.5, -1.705e-08
6502.5, -1.618e-08
6504.5, -1.719e-08
6506.5, -1.623e-08
6508.5, -1.635e-08
6510.5, -1.462e-08
6512.5, -1.741e-08
6514.5, -1.783e-08
6516.5, -1.384e-08
6518.5, -2.127e-08
6520.5, -1.845e-08
6522.5, -1.785e-08
6524.5, -2.141e-08
6526.5, -1.582e-08
6528.5, -1.985e-08
6530.5, -1.693e-08
6532.5, -1.79e-08
6534.5, -1.907e-08
6536.5, -1.821e-08
6538.5, -1.761e-08
6540.5, -1.983e-08
6542.5, -1.926e-08
6544.5, -1.706e-08
6546.5, -2.017e-08
6548.5, -1.982e-08
6550.5, -1.972e-08
6552.5, -2.07e-08
6554.5, -2.13e-08
6556.5, -2.275e-08
6558.6, -2.123e-08
6560.6, -1.927e-08
6562.6, -2.13e-08
6564.6, -2.074e-08
6566.6, -1.768e-08
6568.6, -1.719e-08
6570.6, -2.056e-08
6572.6, -1.817e-08
6574.6, -1.684e-08
6576.6, -1.912e-08
6578.6, -1.986e-08
6580.6, -1.816e-08
6582.6, -2.208e-08
6584.6, -2.141e-08
6586.6, -2.075e-08
6588.6, -2.462e-08
6590.6, -2.209e-08
6592.6, -1.872e-08
6594.6, -1.622e-08
6596.6, -2.285e-08
6598.6, -1.788e-08
6600.6, -1.922e-08
6602.6, -1.668e-08
6604.6, -1.871e-08
6606.6, -2.036e-08
6608.6, -1.982e-08
6610.6, -1.906e-08
6612.6, -1.968e-08
6614.6, -2.045e-08
6616.6, -2.126e-08
6618.6, -2.055e-08
6620.6, -2.188e-08
6622.6, -2.356e-08
6624.6, -2.018e-08
6626.6, -2.37e-08
6628.6, -2.886e-08
6630.6, -1.839e-08
6632.6, -2.038e-08
6634.6, -2.161e-08
6636.6, -2.333e-08
6638.6, -2.067e-08
6640.6, -1.876e-08
6642.6, -2.197e-08
6644.6, -2.259e-08
6646.6, -2.133e-08
6648.6, -2.111e-08
6650.6, -1.927e-08
6652.6, -2.131e-08
6654.6, -2.1e-08
6656.6, -2.236e-08
6658.7, -1.881e-08
6660.7, -2.127e-08
6662.7, -1.974e-08
6664.7, -2.497e-08
6666.7, -2.248e-08
6668.7, -2.161e-08
6670.7, -1.777e-08
6672.7, -1.812e-08
6674.7, -1.674e-08
6676.7, -2.067e-08
6678.7, -2.094e-08
6680.7, -2.018e-08
6682.7, -2.095e-08
6684.7, -2.362e-08
6686.7, -2.501e-08
6688.7, -2.517e-08
6690.7, -2.083e-08
6692.7, -1.839e-08
6694.7, -1.963e-08
6696.7, -2.245e-08
6698.7, -2.266e-08
6700.7, -2.308e-08
6702.7, -1.859e-08
6704.7, -2.227e-08
6706.7, -2.458e-08
6708.7, -2.55e-08
6710.7, -2.137e-08
6712.7, -1.961e-08
6714.7, -2.176e-08
6716.7, -2.386e-08
6718.7, -2.256e-08
6720.7, -2.216e-08
6722.7, -2.302e-08
6724.7, -1.757e-08
6726.7, -2.028e-08
6728.7, -2.08e-08
6730.7, -2.297e-08
6732.7, -2.011e-08
6734.7, -1.925e-08
6736.7, -1.843e-08
6738.7, -2.292e-08
6740.7, -2.122e-08
6742.7, -2.407e-08
6744.7, -2.254e-08
6746.7, -2.455e-08
6748.7, -2.61e-08
6750.7, -2.191e-08
6752.7, -2.314e-08
6754.7, -2.456e-08
6756.7, -2.032e-08
6758.8, -2.324e-08
6760.8, -1.92e-08
6762.8, -1.937e-08
6764.8, -2.155e-08
6766.8, -2.3e-08
6768.8, -2.151e-08
6770.8, -2.075e-08
6772.8, -2.258e-08
6774.8, -2.036e-08
6776.8, -2.162e-08
6778.8, -2.253e-08
6780.8, -2.381e-08
6782.8, -2.16e-08
6784.8, -2.12e-08
6786.8, -1.922e-08
6788.8, -1.916e-08
6790.8, -1.848e-08
6792.8, -1.547e-08
6794.8, -1.694e-08
6796.8, -1.811e-08
6798.8, -1.737e-08
6800.8, -1.902e-08
6802.8, -1.851e-08
6804.8, -2.424e-08
6806.8, -1.969e-08
6808.8, -2.236e-08
6810.8, -1.992e-08
6812.8, -2.282e-08
6814.8, -2.31e-08
6816.8, -2.282e-08
6818.8, -2.293e-08
6820.8, -2.249e-08
6822.8, -2.352e-08
6824.8, -2.279e-08
6826.8, -2.696e-08
6828.8, -2.74e-08
6830.8, -2.512e-08
6832.8, -2.74e-08
6834.8, -2.27e-08
6836.8, -2.49e-08
6838.8, -2.684e-08
6840.8, -2.669e-08
6842.8, -2.116e-08
6844.8, -2.47e-08
6846.8, -2.45e-08
6848.8, -2.465e-08
6850.8, -2.447e-08
6852.8, -2.431e-08
6854.8, -2.31e-08
6856.8, -2.618e-08
6858.9, -2.39e-08
6860.9, -2.244e-08
6862.9, -2.154e-08
6864.9, -2.231e-08
6866.9, -2.118e-08
6868.9, -1.994e-08
6870.9, -2.353e-08
6872.9, -2.208e-08
6874.9, -2.44e-08
6876.9, -2.331e-08
6878.9, -2.409e-08
6880.9, -2.431e-08
6882.9, -2.364e-08
6884.9, -2.497e-08
6886.9, -2.65e-08
6888.9, -2.527e-08
6890.9, -2.48e-08
6892.9, -2.086e-08
6894.9, -2.17e-08
6896.9, -2.605e-08
6898.9, -2.521e-08
6900.9, -2.435e-08
6902.9, -2.17e-08
6904.9, -2.582e-08
6906.9, -2.743e-08
6908.9, -2.591e-08
6910.9, -2.066e-08
6912.9, -2.37e-08
6914.9, -2.005e-08
6916.9, -2.479e-08
6918.9, -2.65e-08
6920.9, -2.639e-08
6922.9, -2.835e-08
6924.9, -2.339e-08
6926.9, -2.524e-08
6928.9, -2.745e-08
6930.9, -2.353e-08
6932.9, -2.599e-08
6934.9, -2.615e-08
6936.9, -2.46e-08
6938.9, -2.18e-08
6940.9, -2.49e-08
6942.9, -2.261e-08
6944.9, -2.367e-08
6946.9, -2.674e-08
6948.9, -2.292e-08
6950.9, -2.302e-08
6952.9, -2.426e-08
6954.9, -2.426e-08
6956.9, -2.745e-08
6959.0, -2.786e-08
6961.0, -2.689e-08
6963.0, -2.523e-08
6965.0, -2.61e-08
6967.0, -3.185e-08
6969.0, -2.494e-08
6971.0, -2.463e-08
6973.0, -2.539e-08
6975.0, -2.517e-08
6977.0, -2.824e-08
6979.0, -2.684e-08
6981.0, -2.471e-08
6983.0, -2.426e-08
6985.0, -2.62e-08
6987.0, -2.314e-08
6989.0, -2.436e-08
6991.0, -2.211e-08
6993.0, -2.743e-08
6995.0, -2.5e-08
6997.0, -2.52e-08
6999.0, -2.289e-08
7001.0, -2.66e-08
7003.0, -2.704e-08
7005.0, -2.555e-08
7007.0, -2.587e-08
7009.0, -2.611e-08
7011.0, -2.382e-08
7013.0, -2.577e-08
7015.0, -2.49e-08
7017.0, -2.249e-08
7019.0, -2.448e-08
7021.0, -1.978e-08
7023.0, -2.046e-08
7025.0, -2.354e-08
7027.0, -1.908e-08
7029.0, -2.265e-08
7031.0, -2.035e-08
7033.0, -1.863e-08
7035.0, -2.076e-08
7037.0, -2.48e-08
7039.0, -2.452e-08
7041.0, -2.322e-08
7043.0, -2.723e-08
7045.0, -2.446e-08
7047.0, -2.065e-08
7049.0, -2.378e-08
7051.0, -2.371e-08
7053.0, -2.611e-08
7055.0, -2.636e-08
7057.0, -2.777e-08
7059.1, -2.748e-08
7061.1, -2.389e-08
7063.1, -2.573e-08
7065.1, -2.331e-08
7067.1, -2.521e-08
7069.1, -2.865e-08
7071.1, -2.902e-08
7073.1, -2.753e-08
7075.1, -2.21e-08
7077.1, -2.63e-08
7079.1, -2.488e-08
7081.1, -2.407e-08
7083.1, -2.397e-08
7085.1, -2.217e-08
7087.1, -2.532e-08
7089.1, -2.252e-08
7091.1, -2.09e-08
7093.1, -1.975e-08
7095.1, -2.41e-08
7097.1, -2.306e-08
7099.1, -2.188e-08
7101.1, -2.46e-08
7103.1, -2.392e-08
7105.1, -2.302e-08
7107.1, -2.499e-08
7109.1, -2.373e-08
7111.1, -2.506e-08
7113.1, -2.304e-08
7115.1, 1.5401e-07
7117.1, 1.625e-07
7119.1, 1.7985e-07
7121.1, 1.9303e-07
7123.1, 1.79e-07
7125.1, 2.186e-07
7127.1, 1.6764e-07
7129.1, 1.7878e-07
7131.1, 2.1094e-07
7133.1, 1.7338e-07
7135.1, 1.8589e-07
7137.1, 1.9637e-07
7139.1, 1.7089e-07
7141.1, 1.7439e-07
7143.1, 1.5646e-07
7145.1, 1.9126e-07
7147.1, 1.6042e-07
7149.1, 1.9911e-07
7151.1, 1.6392e-07
7153.1, 2.3666e-07
7155.1, 2.0944e-07
7157.1, 1.785e-07
7159.2, 1.9307e-07
7161.2, 2.0419e-07
7163.2, 2.1039e-07
7165.2, 1.4082e-07
7167.2, 2.2089e-07
7169.2, 1.9487e-07
7171.2, 1.8669e-07
7173.2, 2.1363e-07
7175.2, 2.025e-07
7177.2, 2.2103e-07
7179.2, 1.7792e-07
7181.2, 2.9141e-07
7183.2, 2.1207e-07
7185.2, 2.0668e-07
7187.2, 1.4613e-07
7189.2, 1.9532e-07
7191.2, 2.2448e-07
7193.2, 1.8346e-07
7195.2, 2.5539e-07
7197.2, 1.8523e-07
7199.2, 1.6358e-07
7201.2, 1.8781e-07
7203.2, 2.1274e-07
7205.2, 1.9685e-07
7207.2, 1.9412e-07
7209.2, 2.5896e-07
7211.2, 2.0826e-07
7213.2, 2.0254e-07
7215.2, 1.8254e-07
7217.2, 2.4738e-07
7219.2, 2.2604e-07
7221.2, 2.0158e-07
7223.2, 1.8878e-07
7225.2, 2.2902e-07
7227.2, 1.7098e-07
7229.2, 2.2849e-07
7231.2, 1.6256e-07
7233.2, 1.7147e-07
7235.2, 2.1612e-07
7237.2, 1.9902e-07
7239.2, 2.1617e-07
7241.2, 2.0783e-07
7243.2, 1.7952e-07
7245.2, 2.0074e-07
7247.2, 1.7125e-07
7249.2, 2.0513e-07
7251.2, 2.0926e-07
7253.2, 2.1612e-07
7255.2, 1.8866e-07
7257.2, 1.9494e-07
7259.3, 2.282e-07
7261.3, 2.0955e-07
7263.3, 1.8538e-07
7265.3, 1.9465e-07
7267.3, 2.2841e-07
7269.3, 2.0632e-07
7271.3, 2.1529e-07
7273.3, 1.9705e-07
7275.3, 2.2695e-07
7277.3, 2.2417e-07
7279.3, 2.4114e-07
7281.3, 1.9829e-07
7283.3, 2.1573e-07
7285.3, 2.1497e-07
7287.3, 2.2681e-07
7289.3, 1.9062e-07
7291.3, 2.1509e-07
7293.3, 2.1548e-07
7295.3, 1.9325e-07
7297.3, 2.3804e-07
7299.3, 2.0838e-07
7301.3, 2.3164e-07
7303.3, 2.473e-07
7305.3, 2.1761e-07
7307.3, 2.3327e-07
7309.3, 2.3813e-07
7311.3, 2.2792e-07
7313.3, 1.8453e-07
7315.3, 2.0884e-07
7317.3, 2.1216e-07
7319.3, 1.9175e-07
7321.3, 2.1164e-07
7323.3, 2.1765e-07
7325.3, 2.1147e-07
7327.3, 2.0459e-07
7329.3, 2.1704e-07
7331.3, 2.2036e-07
7333.3, 1.8633e-07
7335.3, 2.1251e-07
7337.3, 1.7086e-07
7339.3, 2.102e-07
7341.3, 2.28e-07
7343.3, 2.1814e-07
7345.3, 1.5169e-07
7347.3, 2.3763e-07
7349.3, 2.0498e-07
7351.3, 2.0308e-07
7353.3, 1.7243e-07
7355.3, 2.1713e-07
7357.3, 2.1423e-07
7359.4, 2.2777e-07
7361.4, 1.7227e-07
7363.4, 1.7541e-07
7365.4, 2.272e-07
7367.4, 2.2085e-07
7369.4, 2.2495e-07
7371.4, 2.0886e-07
7373.4, 2.2692e-07
7375.4, 2.0484e-07
7377.4, 2.5262e-07
7379.4, 2.3044e-07
7381.4, 2.3637e-07
7383.4, 2.3448e-07
7385.4, 2.4406e-07
7387.4, 1.9409e-07
7389.4, 2.2467e-07
7391.4, 2.0767e-07
7393.4, 2.3195e-07
7395.4, 2.4023e-07
7397.4, 2.0674e-07
7399.4, 1.9653e-07
7401.4, 1.5699e-07
7403.4, 2.1725e-07
7405.4, 2.3859e-07
7407.4, 2.3626e-07
7409.4, 2.2246e-07
7411.4, 2.016e-07
7413.4, 2.0537e-07
7415.4, 2.2595e-07
7417.4, 2.4806e-07
7419.4, 2.3104e-07
7421.4, 2.1677e-07
7423.4, 2.2545e-07
7425.4, 2.0655e-07
7427.4, 2.3638e-07
7429.4, 2.6993e-07
7431.4, 2.1327e-07
7433.4, 2.0415e-07
7435.4, 2.0851e-07
7437.4, 1.9649e-07
7439.4, 1.9506e-07
7441.4, 2.4689e-07
7443.4, 2.2751e-07
7445.4, 2.4277e-07
7447.4, 2.095e-07
7449.4, 2.3197e-07
7451.4, 2.0891e-07
7453.4, 2.0909e-07
7455.4, 2.0618e-07
7457.4, 2.1543e-07
7459.5, 2.1282e-07
7461.5, 2.2453e-07
7463.5, 1.9504e-07
7465.5, 1.9955e-07
7467.5, 2.315e-07
7469.5, 2.0392e-07
7471.5, 2.1092e-07
7473.5, 2.0972e-07
7475.5, 2.1317e-07
7477.5, 2.1389e-07
7479.5, 2.0587e-07
7481.5, 2.1278e-07
7483.5, 2.3043e-07
7485.5, 2.2309e-07
7487.5, 2.6136e-07
7489.5, 2.1928e-07
7491.5, 2.0594e-07
7493.5, 2.5354e-07
7495.5, 2.0876e-07
7497.5, 2.0735e-07
7499.5, 2.3765e-07
7501.5, 2.1e-07
7503.5, 2.1186e-07
7505.5, 2.2873e-07
7507.5, 2.4818e-07
7509.5, 2.1166e-07
7511.5, 1.964e-07
7513.5, 2.5964e-07
7515.5, 2.2303e-07
7517.5, 2.0688e-07
7519.5, 2.7564e-07
7521.5, 2.1254e-07
7523.5, 1.8294e-07
7525.5, 2.357e-07
7527.5, 1.7004e-07
7529.5, 2.2098e-07
7531.5, 2.3202e-07
7533.5, 2.2926e-07
7535.5, 2.0357e-07
7537.5, 2.3839e-07
7539.5, 2.3501e-07
7541.5, 2.139e-07
7543.5, 2.2416e-07
7545.5, 1.9814e-07
7547.5, 2.098e-07
7549.5, 1.71e-07
7551.5, 2.2917e-07
7553.5, 2.1558e-07
7555.5, 2.2003e-07
7557.5, 2.0104e-07
7559.6, 2.1609e-07
7561.6, 2.2013e-07
7563.6, 2.3158e-07
7565.6, 2.5176e-07
7567.6, 2.0271e-07
7569.6, 2.4165e-07
7571.6, 2.1493e-07
7573.6, 2.8581e-07
7575.6, 2.326e-07
7577.6, 2.1008e-07
7579.6, 2.3517e-07
7581.6, 2.4828e-07
7583.6, 2.4021e-07
7585.6, 2.1281e-07
7587.6, 2.2392e-07
7589.6, 2.174e-07
7591.6, 2.3563e-07
7593.6, 2.473e-07
7595.6, 2.2237e-07
7597.6, 2.1569e-07
7599.6, 2.2036e-07
7601.6, 2.3322e-07
7603.6, 2.6374e-07
7605.6, 2.3539e-07
7607.6, 2.1267e-07
7609.6, 2.1297e-07
7611.6, 2.197e-07
7613.6, 2.5198e-07
7615.6, 2.541e-07
7617.6, 2.2862e-07
7619.6, 2.5398e-07
7621.6, 2.3852e-07
7623.6, 2.4527e-07
7625.6, 2.5338e-07
7627.6, 2.1239e-07
7629.6, 2.2356e-07
7631.6, 2.5981e-07
7633.6, 2.0088e-07
7635.6, 2.3605e-07
7637.6, 2.1498e-07
7639.6, 1.9862e-07
7641.6, 2.4468e-07
7643.6, 1.6869e-07
7645.6, 2.5434e-07
7647.6, 1.8962e-07
7649.6, 2.4759e-07
7651.6, 2.1178e-07
7653.6, 2.827e-07
7655.6, 2.0532e-07
7657.6, 2.171e-07
7659.7, 2.2098e-07
7661.7, 2.4218e-07
7663.7, 2.28e-07
7665.7, 2.1616e-07
7667.7, 2.049e-07
7669.7, 2.2789e-07
7671.7, 2.2686e-07
7673.7, 2.286e-07
7675.7, 2.0384e-07
7677.7, 2.4058e-07
7679.7, 2.2343e-07
7681.7, 2.5498e-07
7683.7, 2.4269e-07
7685.7, 2.2841e-07
7687.7, 2.3426e-07
7689.7, 2.5709e-07
7691.7, 2.5663e-07
7693.7, 2.0512e-07
7695.7, 1.9356e-07
7697.7, 2.4689e-07
7699.7, 2.0795e-07
7701.7, 2.0481e-07
7703.7, 2.3638e-07
7705.7, 2.4991e-07
7707.7, 2.3506e-07
7709.7, 2.153e-07
7711.7, 2.1007e-07
7713.7, 2.4797e-07
7715.7, 2.947e-07
7717.7, 2.0667e-07
7719.7, 2.1457e-07
7721.7, 2.1182e-07
7723.7, 2.0421e-07
7725.7, 2.0868e-07
7727.7, 2.6928e-07
7729.7, 1.9735e-07
7731.7, 2.0646e-07
7733.7, 2.107e-07
7735.7, 2.1183e-07
7737.7, 2.0686e-07
7739.7, 2.2486e-07
7741.7, 1.9026e-07
7743.7, 2.5576e-07
7745.7, 2.3561e-07
7747.7, 2.0777e-07
7749.7, 2.0818e-07
7751.7, 2.2036e-07
7753.7, 2.3521e-07
7755.7, 1.9759e-07
7757.7, 2.2256e-07
7759.8, 2.1054e-07
7761.8, 2.4288e-07
7763.8, 2.211e-07
7765.8, 2.5029e-07
7767.8, 2.2927e-07
7769.8, 2.2997e-07
7771.8, 2.7416e-07
7773.8, 1.8655e-07
7775.8, 2.1426e-07
7777.8, 2.4226e-07
7779.8, 2.0844e-07
7781.8, 2.5089e-07
7783.8, 2.1478e-07
7785.8, 2.2281e-07
7787.8, 2.2537e-07
7789.8, 2.1019e-07
7791.8, 2.51e-07
7793.8, 1.7989e-07
7795.8, 2.5125e-07
7797.8, 2.5191e-07
7799.8, 2.2557e-07
7801.8, 2.0029e-07
7803.8, 2.2684e-07
7805.8, 2.15e-07
7807.8, 2.5997e-07
7809.8, 2.3401e-07
7811.8, 2.0888e-07
7813.8, 2.1489e-07
7815.8, 2.0301e-07
7817.8, 2.4533e-07
7819.8, 2.3152e-07
7821.8, 2.0039e-07
7823.8, 2.3957e-07
7825.8, 2.327e-07
7827.8, 2.4572e-07
7829.8, 2.0057e-07
7831.8, 2.1456e-07
7833.8, 2.5721e-07
7835.8, 2.2945e-07
7837.8, 2.1526e-07
7839.8, 1.9941e-07
7841.8, 2.002e-07
7843.8, 2.5614e-07
7845.8, 2.5817e-07
7847.8, 2.2634e-07
7849.8, 2.4404e-07
7851.8, 2.5652e-07
7853.8, 2.3621e-07
7855.8, 2.2807e-07
7857.8, 2.4277e-07
7859.9, 2.417e-07
7861.9, 2.3301e-07
7863.9, 2.5467e-07
7865.9, 1.5612e-07
7867.9, 2.0013e-07
7869.9, 1.9754e-07
7871.9, 2.4818e-07
7873.9, 2.3701e-07
7875.9, 2.4961e-07
7877.9, 2.5314e-07
7879.9, 2.3849e-07
7881.9, 1.8942e-07
7883.9, 2.3984e-07
7885.9, 2.2857e-07
7887.9, 1.7451e-07
7889.9, 2.1493e-07
7891.9, 2.1136e-07
7893.9, 2.245e-07
7895.9, 1.8372e-07
7897.9, 2.0764e-07
7899.9, 1.9848e-07
7901.9, 2.321e-07
7903.9, 2.2108e-07
7905.9, 2.3239e-07
7907.9, 2.3757e-07
7909.9, 2.4851e-07
7911.9, 2.6866e-07
7913.9, 2.3388e-07
7915.9, 2.5527e-07
7917.9, 1.9031e-07
7919.9, 2.4313e-07
7921.9, 1.9068e-07
7923.9, 2.2811e-07
7925.9, 2.1912e-07
7927.9, 2.4679e-07
7929.9, 2.2984e-07
7931.9, 2.3643e-07
7933.9, 2.2133e-07
7935.9, 2.2107e-07
7937.9, 2.5403e-07
7939.9, 2.0299e-07
7941.9, 2.102e-07
7943.9, 2.318e-07
7945.9, 2.2265e-07
7947.9, 2.015e-07
7949.9, 2.4893e-07
7951.9, 2.5289e-07
7953.9, 2.0635e-07
7955.9, 2.4221e-07
7957.9, 2.5735e-07
7960.0, 2.0966e-07
7962.0, 2.4342e-07
7964.0, 2.2426e-07
7966.0, 1.9408e-07
7968.0, 2.5297e-07
7970.0, 2.3715e-07
7972.0, 2.5822e-07
7974.0, 2.4724e-07
7976.0, 2.3379e-07
7978.0, 2.4531e-07
7980.0, 2.7108e-07
7982.0, 2.438e-07
7984.0, 2.2802e-07
7986.0, 2.1822e-07
7988.0, 2.5513e-07
7990.0, 2.4099e-07
7992.0, 1.9248e-07
7994.0, 2.5647e-07
7996.0, 2.1452e-07
7998.0, 2.0122e-07
8000.0, 2.2252e-07
8002.0, 2.1972e-07
8004.0, 2.5481e-07
8006.0, 2.2818e-07
8008.0, 2.1135e-07
8010.0, 2.5398e-07
8012.0, 1.8662e-07
8014.0, 2.1106e-07
8016.0, 2.6046e-07
8018.0, 2.295e-07
8020.0, 2.2034e-07
8022.0, 2.2922e-07
8024.0, 2.0647e-07
8026.0, 2.2676e-07
8028.0, 1.8497e-07
8030.0, 1.8554e-07
8032.0, 2.4505e-07
8034.0, 2.0546e-07
8036.0, 2.0442e-07
8038.0, 2.5852e-07
8040.0, 1.7941e-07
8042.0, 2.0737e-07
8044.0, 2.3021e-07
8046.0, 2.2845e-07
8048.0, 2.4165e-07
8050.0, 2.2067e-07
8052.0, 2.2675e-07
8054.0, 2.2825e-07
8056.0, 2.5937e-07
8058.0, 2.3723e-07
8060.1, 2.1829e-07
8062.1, 2.3841e-07
8064.1, 2.2568e-07
8066.1, 1.8499e-07
8068.1, 2.3964e-07
8070.1, 2.1429e-07
8072.1, 2.0794e-07
8074.1, 2.4317e-07
8076.1, 2.407e-07
8078.1, 2.1255e-07
8080.1, 2.3171e-07
8082.1, 2.6539e-07
8084.1, 2.2235e-07
8086.1, 2.5799e-07
8088.1, 2.3401e-07
8090.1, 2.1438e-07
8092.1, 2.2476e-07
8094.1, 2.3904e-07
8096.1, 2.0426e-07
8098.1, 2.3657e-07
8100.1, 1.9873e-07
8102.1, 2.2927e-07
8104.1, 2.4582e-07
8106.1, 2.0397e-07
8108.1, 2.1601e-07
8110.1, 2.6602e-07
8112.1, 2.3352e-07
8114.1, 2.527e-07
8116.1, -2.144e-08
8118.1, -2.083e-08
8120.1, -1.826e-08
8122.1, -2.021e-08
8124.1, -2.001e-08
8126.1, -2.184e-08
8128.1, -2.101e-08
8130.1, -2.43e-08
8132.1, -2.186e-08
8134.1, -2.352e-08
8136.1, -2.265e-08
8138.1, -2.066e-08
8140.1, -2.437e-08
8142.1, -2.607e-08
8144.1, -2.165e-08
8146.1, -2.195e-08
8148.1, -2.28e-08
8150.1, -2.22e-08
8152.1, -2.03e-08
8154.1, -2.465e-08
8156.1, -2.2e-08
8158.1, -1.905e-08
8160.2, -1.858e-08
8162.2, -1.964e-08
8164.2, -1.909e-08
8166.2, -1.82e-08
8168.2, -1.966e-08
8170.2, -1.751e-08
8172.2, -1.862e-08
8174.2, -1.601e-08
8176.2, -1.68e-08
8178.2, -1.853e-08
8180.2, -1.893e-08
8182.2, -1.671e-08
8184.2, -2.095e-08
8186.2, -2.113e-08
8188.2, -1.978e-08
8190.2, -2.336e-08
8192.2, -2.042e-08
8194.2, -2.251e-08
8196.2, -2.178e-08
8198.2, -1.736e-08
8200.2, -1.905e-08
8202.2, -1.926e-08
8204.2, -2.251e-08
8206.2, -2.172e-08
8208.2, -2.124e-08
8210.2, -2.099e-08
8212.2, -2.021e-08
8214.2, -1.897e-08
8216.2, -1.883e-08
8218.2, -2.158e-08
8220.2, -2.096e-08
8222.2, -2.207e-08
8224.2, -2.072e-08
8226.2, -2.111e-08
8228.2, -2.36e-08
8230.2, -2.09e-08
8232.2, -2.009e-08
8234.2, -2.282e-08
8236.2, -1.77e-08
8238.2, -1.914e-08
8240.2, -1.67e-08
8242.2, -1.666e-08
8244.2, -1.535e-08
8246.2, -1.436e-08
8248.2, -1.888e-08
8250.2, -2.201e-08
8252.2, -1.949e-08
8254.2, -1.907e-08
8256.2, -1.736e-08
8258.2, -2.039e-08
8260.3, -1.639e-08
8262.3, -1.937e-08
8264.3, -1.957e-08
8266.3, -1.775e-08
8268.3, -2.207e-08
8270.3, -1.768e-08
8272.3, -2.022e-08
8274.3, -1.961e-08
8276.3, -2.14e-08
8278.3, -1.899e-08
8280.3, -2.017e-08
8282.3, -1.725e-08
8284.3, -1.399e-08
8286.3, -1.755e-08
8288.3, -1.732e-08
8290.3, -2.012e-08
8292.3, -2.276e-08
8294.3, -1.692e-08
8296.3, -2.151e-08
8298.3, -2.152e-08
8300.3, -1.915e-08
8302.3, -2.031e-08
8304.3, -1.685e-08
8306.3, -1.714e-08
8308.3, -2.23e-08
8310.3, -2.222e-08
8312.3, -2.322e-08
8314.3, -2.198e-08
8316.3, -2.309e-08
8318.3, -2.177e-08
8320.3, -2.462e-08
8322.3, -2.181e-08
8324.3, -2.007e-08
8326.3, -2.127e-08
8328.3, -2.227e-08
8330.3, -2.292e-08
8332.3, -2.117e-08
8334.3, -1.797e-08
8336.3, -1.804e-08
8338.3, -1.646e-08
8340.3, -1.84e-08
8342.3, -1.802e-08
8344.3, -1.95e-08
8346.3, -1.894e-08
8348.3, -1.692e-08
8350.3, -1.544e-08
8352.3, -1.837e-08
8354.3, -1.597e-08
8356.3, -1.513e-08
8358.3, -1.628e-08
8360.4, -1.791e-08
8362.4, -1.53e-08
8364.4, -1.825e-08
8366.4, -1.683e-08
8368.4, -1.747e-08
8370.4, -2.069e-08
8372.4, -2.05e-08
8374.4, -2.175e-08
8376.4, -1.704e-08
8378.4, -1.893e-08
8380.4, -1.859e-08
8382.4, -1.86e-08
8384.4, -1.73e-08
8386.4, -2.075e-08
8388.4, -1.921e-08
8390.4, -1.788e-08
8392.4, -1.747e-08
8394.4, -1.49e-08
8396.4, -1.475e-08
8398.4, -1.881e-08
8400.4, -1.722e-08
8402.4, -1.854e-08
8404.4, -1.819e-08
8406.4, -1.765e-08
8408.4, -1.698e-08
8410.4, -1.959e-08
8412.4, -2.182e-08
8414.4, -1.761e-08
8416.4, -1.665e-08
8418.4, -1.844e-08
8420.4, -2.078e-08
8422.4, -1.832e-08
8424.4, -1.585e-08
8426.4, -1.82e-08
8428.4, -1.657e-08
8430.4, -1.691e-08
8432.4, -1.858e-08
8434.4, -1.742e-08
8436.4, -1.897e-08
8438.4, -1.84e-08
8440.4, -1.457e-08
8442.4, -1.771e-08
8444.4, -1.704e-08
8446.4, -1.697e-08
8448.4, -1.918e-08
8450.4, -1.53e-08
8452.4, -1.925e-08
8454.4, -1.922e-08
8456.4, -1.78e-08
8458.4, -1.705e-08
8460.5, -2.024e-08
8462.5, -1.769e-08
8464.5, -2.265e-08
8466.5, -2.237e-08
8468.5, -1.747e-08
8470.5, -2.115e-08
8472.5, -2.13e-08
8474.5, -1.975e-08
8476.5, -2.015e-08
8478.5, -1.847e-08
8480.5, -1.779e-08
8482.5, -1.816e-08
8484.5, -1.852e-08
8486.5, -1.604e-08
8488.5, -1.692e-08
8490.5, -1.597e-08
8492.5, -1.755e-08
8494.5, -1.783e-08
8496.5, -1.266e-08
8498.5, -1.646e-08
8500.5, -1.256e-08
8502.5, -1.709e-08
8504.5, -1.5e-08
8506.5, -1.535e-08
8508.5, -1.63e-08
8510.5, -1.576e-08
8512.5, -1.529e-08
8514.5, -1.516e-08
8516.5, -1.908e-08
8518.5, -1.557e-08
8520.5, -1.786e-08
8522.5, -1.766e-08
8524.5, -1.258e-08
8526.5, -1.849e-08
8528.5, -1.818e-08
8530.5, -1.617e-08
8532.5, -2.009e-08
8534.5, -1.987e-08
8536.5, -1.91e-08
8538.5, -1.943e-08
8540.5, -1.897e-08
8542.5, -1.815e-08
8544.5, -1.808e-08
8546.5, -1.744e-08
8548.5, -1.634e-08
8550.5, -1.725e-08
8552.5, -1.795e-08
8554.5, -1.572e-08
8556.5, -1.685e-08
8558.5, -1.823e-08
8560.6, -1.857e-08
8562.6, -1.759e-08
8564.6, -1.598e-08
8566.6, -1.314e-08
8568.6, -1.552e-08
8570.6, -1.399e-08
8572.6, -1.881e-08
8574.6, -2.05e-08
8576.6, -1.679e-08
8578.6, -1.865e-08
8580.6, -2.147e-08
8582.6, -1.822e-08
8584.6, -1.562e-08
8586.6, -1.534e-08
8588.6, -1.945e-08
8590.6, -1.947e-08
8592.6, -2.071e-08
8594.6, -1.961e-08
8596.6, -1.975e-08
8598.6, -1.914e-08
8600.6, -2.079e-08
8602.6, -2.152e-08
8604.6, -1.772e-08
8606.6, -1.969e-08
8608.6, -1.94e-08
8610.6, -2.167e-08
8612.6, -1.74e-08
8614.6, -1.808e-08
8616.6, -1.944e-08
8618.6, -2.149e-08
8620.6, -2.022e-08
8622.6, -2.126e-08
8624.6, -1.884e-08
8626.6, -1.567e-08
8628.6, -1.61e-08
8630.6, -1.392e-08
8632.6, -2.193e-08
8634.6, -2.099e-08
8636.6, -2.05e-08
8638.6, -2.108e-08
8640.6, -1.845e-08
8642.6, -2.252e-08
8644.6, -1.934e-08
8646.6, -2.226e-08
8648.6, -1.742e-08
8650.6, -1.643e-08
8652.6, -1.938e-08
8654.6, -2.046e-08
8656.6, -2.106e-08
8658.6, -2.254e-08
8660.7, -2.204e-08
8662.7, -1.906e-08
8664.7, -1.791e-08
8666.7, -1.908e-08
8668.7, -1.858e-08
8670.7, -1.941e-08
8672.7, -1.768e-08
8674.7, -1.869e-08
8676.7, -1.896e-08
8678.7, -2.149e-08
8680.7, -2.25e-08
8682.7, -1.81e-08
8684.7, -1.838e-08
8686.7, -2.268e-08
8688.7, -2.367e-08
8690.7, -2.665e-08
8692.7, -2.028e-08
8694.7, -2.037e-08
8696.7, -1.772e-08
8698.7, -2.291e-08
8700.7, -2.467e-08
8702.7, -2.223e-08
8704.7, -2.115e-08
8706.7, -2.334e-08
8708.7, -2.352e-08
8710.7, -2.06e-08
8712.7, -1.863e-08
8714.7, -1.721e-08
8716.7, -1.923e-08
8718.7, -2.047e-08
8720.7, -1.923e-08
8722.7, -1.753e-08
8724.7, -1.585e-08
8726.7, -1.901e-08
8728.7, -1.484e-08
8730.7, -2.04e-08
8732.7, -1.802e-08
8734.7, -1.93e-08
8736.7, -1.854e-08
8738.7, -2.108e-08
8740.7, -1.902e-08
8742.7, -2.244e-08
8744.7, -1.756e-08
8746.7, -1.72e-08
8748.7, -1.819e-08
8750.7, -1.889e-08
8752.7, -1.948e-08
8754.7, -1.815e-08
8756.7, -1.93e-08
8758.7, -1.983e-08
8760.8, -2.407e-08
8762.8, -2.005e-08
8764.8, -1.745e-08
8766.8, -2.213e-08
8768.8, -2.276e-08
8770.8, -2.517e-08
8772.8, -2.297e-08
8774.8, -2.096e-08
8776.8, -2.136e-08
8778.8, -1.953e-08
8780.8, -2.303e-08
8782.8, -1.768e-08
8784.8, -1.889e-08
8786.8, -2.121e-08
8788.8, -2.019e-08
8790.8, -1.788e-08
8792.8, -1.772e-08
8794.8, -1.682e-08
8796.8, -1.574e-08
8798.8, -2.279e-08
8800.8, -2.045e-08
8802.8, -1.637e-08
8804.8, -1.886e-08
8806.8, -2.066e-08
8808.8, -2.071e-08
8810.8, -2.157e-08
8812.8, -2.033e-08
8814.8, -2.165e-08
8816.8, -2.431e-08
8818.8, -2.684e-08
8820.8, -2.408e-08
8822.8, -2.399e-08
8824.8, -2.355e-08
8826.8, -2.674e-08
8828.8, -2.762e-08
8830.8, -2.939e-08
8832.8, -2.489e-08
8834.8, -2.26e-08
8836.8, -2.488e-08
8838.8, -2.624e-08
8840.8, -2.563e-08
8842.8, -2.327e-08
8844.8, -2.586e-08
8846.8, -2.999e-08
8848.8, -2.842e-08
8850.8, -2.744e-08
8852.8, -2.399e-08
8854.8, -2.483e-08
8856.8, -2.58e-08
8858.8, -2.602e-08
8860.9, -2.429e-08
8862.9, -2.281e-08
8864.9, -2.671e-08
8866.9, -3.196e-08
8868.9, -3.204e-08
8870.9, -3.03e-08
8872.9, -2.666e-08
8874.9, -2.571e-08
8876.9, -2.319e-08
8878.9, -2.044e-08
8880.9, -2.156e-08
8882.9, -2.03e-08
8884.9, -2.287e-08
8886.9, -2.198e-08
8888.9, -2.336e-08
8890.9, -2.67e-08
8892.9, -2.49e-08
8894.9, -2.233e-08
8896.9, -2.594e-08
8898.9, -2.459e-08
8900.9, -2.899e-08
8902.9, -2.533e-08
8904.9, -2.652e-08
8906.9, -2.404e-08
8908.9, -2.694e-08
8910.9, -2.538e-08
8912.9, -2.557e-08
8914.9, -2.866e-08
8916.9, -2.42e-08
8918.9, -2.166e-08
8920.9, -2.66e-08
8922.9, -2.572e-08
8924.9, -2.323e-08
8926.9, -2.329e-08
8928.9, -1.812e-08
8930.9, -2.508e-08
8932.9, -2.025e-08
8934.9, -2.718e-08
8936.9, -2.25e-08
8938.9, -2.242e-08
8940.9, -2.26e-08
8942.9, -2.28e-08
8944.9, -1.797e-08
8946.9, -1.979e-08
8948.9, -1.956e-08
8950.9, -1.914e-08
8952.9, -2.159e-08
8954.9, -2.105e-08
8956.9, -2.048e-08
8958.9, -2.212e-08
8961.0, -1.913e-08
8963.0, -2.299e-08
8965.0, -2.369e-08
8967.0, -2.067e-08
8969.0, -2.503e-08
8971.0, -2.377e-08
8973.0, -2.299e-08
8975.0, -2.342e-08
8977.0, -1.88e-08
8979.0, -2.315e-08
8981.0, -2.51e-08
8983.0, -2.266e-08
8985.0, -2.108e-08
8987.0, -2.395e-08
8989.0, -2.545e-08
8991.0, -2.346e-08
8993.0, -2.438e-08
8995.0, -2e-08
8997.0, -2.029e-08
8999.0, -1.931e-08
9001.0, -2.066e-08
9003.0, -2.151e-08
9005.0, -2.519e-08
9007.0, -2.067e-08
9009.0, -2.119e-08
9011.0, -2.12e-08
9013.0, -2.01e-08
9015.0, -2e-08
9017.0, -2.133e-08
9019.0, -2.161e-08
9021.0, -2.325e-08
9023.0, -2.018e-08
9025.0, -1.93e-08
9027.0, -2.055e-08
9029.0, -1.963e-08
9031.0, -2.253e-08
9033.0, -2.211e-08
9035.0, -2.225e-08
9037.0, -2.394e-08
9039.0, -2.5e-08
9041.0, -2.163e-08
9043.0, -2.205e-08
9045.0, -2.314e-08
9047.0, -2.202e-08
9049.0, -2.182e-08
9051.0, -2.192e-08
9053.0, -2.55e-08
9055.0, -1.992e-08
9057.0, -2.259e-08
9059.0, -2.306e-08
9061.1, -2.635e-08
9063.1, -2.839e-08
9065.1, -2.155e-08
9067.1, -2.126e-08
9069.1, -1.96e-08
9071.1, -2.194e-08
9073.1, -2.596e-08
9075.1, -2.054e-08
9077.1, -1.984e-08
9079.1, -2.129e-08
9081.1, -1.9e-08
9083.1, -2.026e-08
9085.1, -2.143e-08
9087.1, -2.078e-08
9089.1, -2.196e-08
9091.1, -2.36e-08
9093.1, -2.283e-08
9095.1, -2.064e-08
9097.1, -2.116e-08
9099.1, -2.535e-08
9101.1, -2.326e-08
9103.1, -2.831e-08
9105.1, -2.356e-08
9107.1, -2.569e-08
9109.1, -2.507e-08
9111.1, -2.482e-08
9113.1, -2.207e-08
9115.1, -2.349e-08
9117.1, -2.12e-08
9119.1, -2.034e-08
9121.1, -2.119e-08
9123.1, -2.481e-08
9125.1, -2.135e-08
9127.1, -2.323e-08
9129.1, -2.127e-08
9131.1, -2.136e-08
9133.1, -2.429e-08
9135.1, -2.745e-08
9137.1, -1.946e-08
9139.1, -2.54e-08
9141.1, -2.451e-08
9143.1, -2.692e-08
9145.1, -2.132e-08
9147.1, -2.217e-08
9149.1, -2.556e-08
9151.1, -2.705e-08
9153.1, -2.606e-08
9155.1, -2.539e-08
9157.1, -2.515e-08
9159.1, -1.795e-08
9161.2, -2.318e-08
9163.2, -2.269e-08
9165.2, -1.952e-08
9167.2, -2.214e-08
9169.2, -2.481e-08
9171.2, -2.184e-08
9173.2, -2.197e-08
9175.2, -2.501e-08
9177.2, -2.7e-08
9179.2, -2.714e-08
9181.2, -2.412e-08
9183.2, -2.285e-08
9185.2, -2.467e-08
9187.2, -2.411e-08
9189.2, -2.315e-08
9191.2, -2.67e-08
9193.2, -2.496e-08
9195.2, -2.228e-08
9197.2, -2.467e-08
9199.2, -2.127e-08
9201.2, -2.517e-08
9203.2, -2.334e-08
9205.2, -2.199e-08
9207.2, -2.367e-08
9209.2, -2.281e-08
9211.2, -2.507e-08
9213.2, -2.365e-08
9215.2, -2.309e-08
9217.2, -2.442e-08
9219.2, -2.582e-08
9221.2, -2.535e-08
9223.2, -2.404e-08
9225.2, -2.309e-08
9227.2, -2.496e-08
9229.2, -2.238e-08
9231.2, -2.367e-08
9233.2, -2.356e-08
9235.2, -2.622e-08
9237.2, -2.363e-08
9239.2, -2.736e-08
9241.2, -2.674e-08
9243.2, -2.547e-08
9245.2, -2.301e-08
9247.2, -2.668e-08
9249.2, -2.816e-08
9251.2, -2.943e-08
9253.2, -2.782e-08
9255.2, -2.95e-08
9257.2, -2.759e-08
9259.2, -2.898e-08
9261.3, -2.388e-08
9263.3, -2.747e-08
9265.3, -3.027e-08
9267.3, -2.535e-08
9269.3, -2.707e-08
9271.3, -2.305e-08
9273.3, -2.268e-08
9275.3, -2.153e-08
9277.3, -2.254e-08
9279.3, -2.479e-08
9281.3, -2.671e-08
9283.3, -2.548e-08
9285.3, -2.363e-08
9287.3, -2.501e-08
9289.3, -2.194e-08
9291.3, -1.855e-08
9293.3, -1.992e-08
9295.3, -2.083e-08
9297.3, -2.633e-08
9299.3, -2.365e-08
9301.3, -2.492e-08
9303.3, -2.652e-08
9305.3, -1.987e-08
9307.3, -2.171e-08
9309.3, -2.491e-08
9311.3, -2.464e-08
9313.3, -2.062e-08
9315.3, -2.497e-08
9317.3, -2.495e-08
9319.3, -2.184e-08
9321.3, -2.157e-08
9323.3, -2.67e-08
9325.3, -2.261e-08
9327.3, -2.383e-08
9329.3, -2.517e-08
9331.3, -2.085e-08
9333.3, -2.256e-08
9335.3, -1.926e-08
9337.3, -1.993e-08
9339.3, -2.555e-08
9341.3, -2.112e-08
9343.3, -2.373e-08
9345.3, -2.288e-08
9347.3, -2.114e-08
9349.3, -2.573e-08
9351.3, -2.702e-08
9353.3, -2.534e-08
9355.3, -2.476e-08
9357.3, -2.227e-08
9359.3, -2.851e-08
9361.4, -2.518e-08
9363.4, -2.331e-08
9365.4, -2.213e-08
9367.4, -1.956e-08
9369.4, -2.156e-08
9371.4, -2.208e-08
9373.4, -1.912e-08
9375.4, -2.197e-08
9377.4, -2.328e-08
9379.4, -2.225e-08
9381.4, -2.273e-08
9383.4, -2.022e-08
9385.4, -2.196e-08
9387.4, -2.24e-08
9389.4, -2.282e-08
9391.4, -2.105e-08
9393.4, -2.355e-08
9395.4, -2.16e-08
9397.4, -2.648e-08
9399.4, -2.465e-08
9401.4, -2.09e-08
9403.4, -2.621e-08
9405.4, -1.977e-08
9407.4, -1.92e-08
9409.4, -2.181e-08
9411.4, -2.649e-08
9413.4, -2.381e-08
9415.4, -1.866e-08
9417.4, -1.755e-08
9419.4, -2.093e-08
9421.4, -2.04e-08
9423.4, -2.114e-08
9425.4, -1.897e-08
9427.4, -2.027e-08
9429.4, -2.097e-08
9431.4, -2.48e-08
9433.4, -1.917e-08
9435.4, -1.814e-08
9437.4, -1.944e-08
9439.4, -2.107e-08
9441.4, -2.171e-08
9443.4, -2.344e-08
9445.4, -2.212e-08
9447.4, -2.431e-08
9449.4, -2.149e-08
9451.4, -2.248e-08
9453.4, -2.267e-08
9455.4, -2.307e-08
9457.4, -2.336e-08
9459.4, -2.286e-08
9461.5, -2.213e-08
9463.5, -2.732e-08
9465.5, -2.399e-08
9467.5, -2.446e-08
9469.5, -2.243e-08
9471.5, -2.331e-08
9473.5, -2.159e-08
9475.5, -2.451e-08
9477.5, -2.153e-08
9479.5, -2.007e-08
9481.5, -2.492e-08
9483.5, -1.95e-08
9485.5, -2.027e-08
9487.5, -1.889e-08
9489.5, -2.561e-08
9491.5, -1.891e-08
9493.5, -2.212e-08
9495.5, -1.923e-08
9497.5, -2.227e-08
9499.5, -2.36e-08
9501.5, -2.105e-08
9503.5, -2.15e-08
9505.5, -2.233e-08
9507.5, -2.221e-08
9509.5, -2.241e-08
9511.5, -2.101e-08
9513.5, -2.356e-08
9515.5, -1.969e-08
9517.5, -2.142e-08
9519.5, -2.128e-08
9521.5, -2.276e-08
9523.5, -2.172e-08
9525.5, -2.076e-08
9527.5, -2.038e-08
9529.5, -2.558e-08
9531.5, -2.586e-08
9533.5, -2.565e-08
9535.5, -2.299e-08
9537.5, -1.836e-08
9539.5, -2.099e-08
9541.5, -2.311e-08
9543.5, -2.482e-08
9545.5, -2.23e-08
9547.5, -2.32e-08
9549.5, -2.28e-08
9551.5, -2.502e-08
9553.5, -2.196e-08
9555.5, -2.279e-08
9557.5, -2.155e-08
9559.5, -2.133e-08
9561.6, -2.526e-08
9563.6, -2.562e-08
9565.6, -2.475e-08
9567.6, -2.548e-08
9569.6, -2.274e-08
9571.6, -2.418e-08
9573.6, -2.636e-08
9575.6, -2.547e-08
9577.6, -2.092e-08
9579.6, -2.176e-08
9581.6, -2.342e-08
9583.6, -2.256e-08
9585.6, -2.556e-08
9587.6, -2.043e-08
9589.6, -2.201e-08
9591.6, -2.316e-08
9593.6, -2.531e-08
9595.6, -2.367e-08
9597.6, -2.542e-08
9599.6, -2.631e-08
9601.6, -2.338e-08
9603.6, -2.465e-08
9605.6, -2.74e-08
9607.6, -2.574e-08
9609.6, -2.868e-08
9611.6, -2.463e-08
9613.6, -2.517e-08
9615.6, -2.077e-08
9617.6, -2.375e-08
9619.6, -2.273e-08
9621.6, -2.161e-08
9623.6, -2.414e-08
9625.6, -2.793e-08
9627.6, -2.193e-08
9629.6, -2.23e-08
9631.6, -2.313e-08
9633.6, -2.431e-08
9635.6, -2.516e-08
9637.6, -2.515e-08
9639.6, -2.526e-08
9641.6, -2.567e-08
9643.6, -2.636e-08
9645.6, -2.504e-08
9647.6, -2.65e-08
9649.6, -2.405e-08
9651.6, -2.327e-08
9653.6, -2.046e-08
9655.6, -2.133e-08
9657.6, -2.099e-08
9659.6, -2.066e-08
9661.7, -2.377e-08
9663.7, -2.179e-08
9665.7, -2.48e-08
9667.7, -2.471e-08
9669.7, -2.669e-08
9671.7, -2.739e-08
9673.7, -2.763e-08
9675.7, -2.413e-08
9677.7, -2.3e-08
9679.7, -2.443e-08
9681.7, -2.313e-08
9683.7, -2.47e-08
9685.7, -2.113e-08
9687.7, -2.184e-08
9689.7, -2.363e-08
9691.7, -2.255e-08
9693.7, -2.064e-08
9695.7, -2.583e-08
9697.7, -2.022e-08
9699.7, -2.163e-08
9701.7, -2.195e-08
9703.7, -2.252e-08
9705.7, -2.119e-08
9707.7, -2.064e-08
9709.7, -2.161e-08
9711.7, -2.681e-08
9713.7, -2.121e-08
9715.7, -2.47e-08
9717.7, -2.289e-08
9719.7, -2.226e-08
9721.7, -2.387e-08
9723.7, -2.245e-08
9725.7, -2.104e-08
9727.7, -2.423e-08
9729.7, -2.182e-08
9731.7, -2.02e-08
9733.7, -2.21e-08
9735.7, -2.147e-08
9737.7, -2.333e-08
9739.7, -2.096e-08
9741.7, -2.161e-08
9743.7, -2.274e-08
9745.7, -2.302e-08
9747.7, -2.164e-08
9749.7, -2.23e-08
9751.7, -2.051e-08
9753.7, -2.262e-08
9755.7, -1.83e-08
9757.7, -1.847e-08
9759.7, -2.181e-08
9761.8, -2.326e-08
9763.8, -2.044e-08
9765.8, -2.061e-08
9767.8, -2.182e-08
9769.8, -2.354e-08
9771.8, -2.12e-08
9773.8, -2.085e-08
9775.8, -2.067e-08
9777.8, -2.54e-08
9779.8, -2.462e-08
9781.8, -2.132e-08
9783.8, -2.346e-08
9785.8, -2.227e-08
9787.8, -2.197e-08
9789.8, -2.055e-08
9791.8, -2.271e-08
9793.8, -2.08e-08
9795.8, -2.008e-08
9797.8, -2.051e-08
9799.8, -1.89e-08
9801.8, -2.217e-08
9803.8, -2.238e-08
9805.8, -2.379e-08
9807.8, -2.356e-08
9809.8, -2.23e-08
9811.8, -2.244e-08
9813.8, -2.509e-08
9815.8, -2.217e-08
9817.8, -2.029e-08
9819.8, -2.098e-08
9821.8, -1.75e-08
9823.8, -2.174e-08
9825.8, -2.008e-08
9827.8, -2.018e-08
9829.8, -1.903e-08
9831.8, -2.23e-08
9833.8, -2.012e-08
9835.8, -1.691e-08
9837.8, -1.967e-08
9839.8, -1.957e-08
9841.8, -2.287e-08
9843.8, -2.176e-08
9845.8, -2.472e-08
9847.8, -2.225e-08
9849.8, -1.562e-08
9851.8, -2.136e-08
9853.8, -2.223e-08
9855.8, -2.08e-08
9857.8, -2.036e-08
9859.8, -1.998e-08
9861.9, -2.053e-08
9863.9, -1.843e-08
9865.9, -2.344e-08
9867.9, -2.018e-08
9869.9, -1.889e-08
9871.9, -1.939e-08
9873.9, -2.015e-08
9875.9, -1.844e-08
9877.9, -1.9e-08
9879.9, -2.223e-08
9881.9, -2.196e-08
9883.9, -2.269e-08
9885.9, -2.188e-08
9887.9, -2.552e-08
9889.9, -2.459e-08
9891.9, -2.633e-08
9893.9, -2.637e-08
9895.9, -2.419e-08
9897.9, -2.459e-08
9899.9, -2.332e-08
9901.9, -2.319e-08
9903.9, -2.375e-08
9905.9, -2.326e-08
9907.9, -2.034e-08
9909.9, -1.957e-08
9911.9, -1.991e-08
9913.9, -2.283e-08
9915.9, -2.115e-08
9917.9, -2.208e-08
9919.9, -2.255e-08
9921.9, -2.462e-08
9923.9, -1.794e-08
9925.9, -2.162e-08
9927.9, -2.354e-08
9929.9, -2.473e-08
9931.9, -2.66e-08
9933.9, -2.813e-08
9935.9, -2.497e-08
9937.9, -2.386e-08
9939.9, -1.991e-08
9941.9, -2.255e-08
9943.9, -2.28e-08
9945.9, -2.3e-08
9947.9, -2.623e-08
9949.9, -2.838e-08
9951.9, -3.185e-08
9953.9, -3.038e-08
9955.9, -2.443e-08
9957.9, -2.819e-08
9959.9, -2.651e-08
9962.0, -2.898e-08
9964.0, -2.536e-08
9966.0, -2.41e-08
9968.0, -2.141e-08
9970.0, -1.966e-08
9972.0, -2.428e-08
9974.0, -2.251e-08
9976.0, -2.446e-08
9978.0, -1.94e-08
9980.0, -2.204e-08
9982.0, -2.557e-08
9984.0, -2.448e-08
9986.0, -2.204e-08
9988.0, -2.436e-08
9990.0, -2.206e-08
9992.0, -2.069e-08
9994.0, -2.334e-08
9996.0, -2.192e-08
9998.0, -2.225e-08
10000.0, -2.313e-08
10002.0, -2.382e-08
10004.0, -2.404e-08
10006.0, -2.367e-08
10008.0, -2.548e-08
