Time sep (ms?), Current (A)
0.0, -2.251e-08
2.002, -2.554e-08
4.004, -2.127e-08
6.006, -2.133e-08
8.008, -2.241e-08
10.01, -2.467e-08
12.012, -2.394e-08
14.014, -2.519e-08
16.016, -2.484e-08
18.018, -2.241e-08
20.02, -2.316e-08
22.022, -2.213e-08
24.024, -2.326e-08
26.026, -2.154e-08
28.028, -2.223e-08
30.03, -2.396e-08
32.032, -2.412e-08
34.034, -2.202e-08
36.036, -2.274e-08
38.038, -2.456e-08
40.04, -2.098e-08
42.042, -2.433e-08
44.044, -2.445e-08
46.046, -2.823e-08
48.048, -2.291e-08
50.05, -2.646e-08
52.052, -2.467e-08
54.054, -2.582e-08
56.056, -2.244e-08
58.058, -2.39e-08
60.06, -2.422e-08
62.062, -2.248e-08
64.064, -2.282e-08
66.066, -2.227e-08
68.068, -1.754e-08
70.07, -2.115e-08
72.072, -2.336e-08
74.074, -2.155e-08
76.076, -2.764e-08
78.078, -2.358e-08
80.08, -2.556e-08
82.082, -2.542e-08
84.084, -2.23e-08
86.086, -2.465e-08
88.088, -2.494e-08
90.09, -2.281e-08
92.092, -2.384e-08
94.094, -2.49e-08
96.096, -2.287e-08
98.098, -1.884e-08
100.1, -2.367e-08
102.1, -1.958e-08
104.1, -2.198e-08
106.11, -2.346e-08
108.11, -2.271e-08
110.11, -2.52e-08
112.11, -2.076e-08
114.11, -1.812e-08
116.12, -1.9e-08
118.12, -1.874e-08
120.12, -1.964e-08
122.12, -2.349e-08
124.12, -2.261e-08
126.13, -2.079e-08
128.13, -2.062e-08
130.13, -1.912e-08
132.13, -2.383e-08
134.13, -2.113e-08
136.14, -2.12e-08
138.14, -2.045e-08
140.14, -2.165e-08
142.14, -2.481e-08
144.14, -2.442e-08
146.15, -2.516e-08
148.15, -2.166e-08
150.15, -2.217e-08
152.15, -1.977e-08
154.15, -2.48e-08
156.16, -2.165e-08
158.16, -2.239e-08
160.16, -1.895e-08
162.16, -2.618e-08
164.16, -2.183e-08
166.17, -2.302e-08
168.17, -2.039e-08
170.17, -2.366e-08
172.17, -2.78e-08
174.17, -2.261e-08
176.18, -2.308e-08
178.18, -2.31e-08
180.18, -2.421e-08
182.18, -2.309e-08
184.18, -2.766e-08
186.19, -2.053e-08
188.19, -1.912e-08
190.19, -1.776e-08
192.19, -1.97e-08
194.19, -1.929e-08
196.2, -2.009e-08
198.2, -2.202e-08
200.2, -2.411e-08
202.2, -1.967e-08
204.2, -2.211e-08
206.21, -2.244e-08
208.21, -2.283e-08
210.21, -2.141e-08
212.21, -2.27e-08
214.21, -2.765e-08
216.22, -2.69e-08
218.22, -2.291e-08
220.22, -2.213e-08
222.22, -2.114e-08
224.22, -2.364e-08
226.23, -2.146e-08
228.23, -2.071e-08
230.23, -2.166e-08
232.23, -2.166e-08
234.23, -2.329e-08
236.24, -1.87e-08
238.24, -2.004e-08
240.24, -2.04e-08
242.24, -2.014e-08
244.24, -2.405e-08
246.25, -1.991e-08
248.25, -2.048e-08
250.25, -2.178e-08
252.25, -2.224e-08
254.25, -2.077e-08
256.26, -2.234e-08
258.26, -2.118e-08
260.26, -2.08e-08
262.26, -2.019e-08
264.26, -2.202e-08
266.27, -2.28e-08
268.27, -2.137e-08
270.27, -1.96e-08
272.27, -2.096e-08
274.27, -2.21e-08
276.28, -1.975e-08
278.28, -2.004e-08
280.28, -1.579e-08
282.28, -1.949e-08
284.28, -1.905e-08
286.29, -1.682e-08
288.29, -1.745e-08
290.29, -1.792e-08
292.29, -1.738e-08
294.29, -1.955e-08
296.3, -1.979e-08
298.3, -1.943e-08
300.3, -1.989e-08
302.3, -2.016e-08
304.3, -2.033e-08
306.31, -2.223e-08
308.31, -2.215e-08
310.31, -2.296e-08
312.31, -2.227e-08
314.31, -2.095e-08
316.32, -1.495e-08
318.32, -1.733e-08
320.32, -1.818e-08
322.32, -2.027e-08
324.32, -2.141e-08
326.33, -1.911e-08
328.33, -2.007e-08
330.33, -2.305e-08
332.33, -2.027e-08
334.33, -2.272e-08
336.34, -2.52e-08
338.34, -2.455e-08
340.34, -2.384e-08
342.34, -2.303e-08
344.34, -2.544e-08
346.35, -2.35e-08
348.35, -2.034e-08
350.35, -2.24e-08
352.35, -2.632e-08
354.35, -2.2e-08
356.36, -2.405e-08
358.36, -2.143e-08
360.36, -2.055e-08
362.36, -2.536e-08
364.36, -2.331e-08
366.37, -2.379e-08
368.37, -2.725e-08
370.37, -2.544e-08
372.37, -2.427e-08
374.37, -2.619e-08
376.38, -2.316e-08
378.38, -2.31e-08
380.38, -2.258e-08
382.38, -2.131e-08
384.38, -2.519e-08
386.39, -2.263e-08
388.39, -2.075e-08
390.39, -2.698e-08
392.39, -2.543e-08
394.39, -2.736e-08
396.4, -2.154e-08
398.4, -2.123e-08
400.4, -2.496e-08
402.4, -2.199e-08
404.4, -2.439e-08
406.41, -2.296e-08
408.41, -2.416e-08
410.41, -2.149e-08
412.41, -2.541e-08
414.41, -2.478e-08
416.42, -2.301e-08
418.42, -2.542e-08
420.42, -2.579e-08
422.42, -2.541e-08
424.42, -2.587e-08
426.43, -2.403e-08
428.43, -2.077e-08
430.43, -2.324e-08
432.43, -2.397e-08
434.43, -2.453e-08
436.44, -2.276e-08
438.44, -2.41e-08
440.44, -2.442e-08
442.44, -2.333e-08
444.44, -2.584e-08
446.45, -2.554e-08
448.45, -2.311e-08
450.45, -1.924e-08
452.45, -2.122e-08
454.45, -2.317e-08
456.46, -2.065e-08
458.46, -2.178e-08
460.46, -2.492e-08
462.46, -2.59e-08
464.46, -2.186e-08
466.47, -1.784e-08
468.47, -2.133e-08
470.47, -2.258e-08
472.47, -2.25e-08
474.47, -3.039e-08
476.48, -2.549e-08
478.48, -2.55e-08
480.48, -2.355e-08
482.48, -2.464e-08
484.48, -2.653e-08
486.49, -2.511e-08
488.49, -2.329e-08
490.49, -2.571e-08
492.49, -2.395e-08
494.49, -2.197e-08
496.5, -2.35e-08
498.5, -2.154e-08
500.5, -2.411e-08
502.5, -2.3e-08
504.5, -2.504e-08
506.51, -2.256e-08
508.51, -2.169e-08
510.51, -2.625e-08
512.51, -2.87e-08
514.51, -2.128e-08
516.52, -2.401e-08
518.52, -2.916e-08
520.52, -2.484e-08
522.52, -2.598e-08
524.52, -2.529e-08
526.53, -2.701e-08
528.53, -2.34e-08
530.53, -2.11e-08
532.53, -2.065e-08
534.53, -2.079e-08
536.54, -2.272e-08
538.54, -2.444e-08
540.54, -1.986e-08
542.54, -2.249e-08
544.54, -2.678e-08
546.55, -2.53e-08
548.55, -2.249e-08
550.55, -2.3e-08
552.55, -2.437e-08
554.55, -2.748e-08
556.56, -2.807e-08
558.56, -2.48e-08
560.56, -2.474e-08
562.56, -1.909e-08
564.56, -2.668e-08
566.57, -2.271e-08
568.57, -2.092e-08
570.57, -2.628e-08
572.57, -2.401e-08
574.57, -2.676e-08
576.58, -2.206e-08
578.58, -2.587e-08
580.58, -2.577e-08
582.58, -2.283e-08
584.58, -2.466e-08
586.59, -2.353e-08
588.59, -2.687e-08
590.59, -2.323e-08
592.59, -2.509e-08
594.59, -2.392e-08
596.6, -2.303e-08
598.6, -2.247e-08
600.6, -2.423e-08
602.6, -2.263e-08
604.6, -2.695e-08
606.61, -2.587e-08
608.61, -2.723e-08
610.61, -2.549e-08
612.61, -2.219e-08
614.61, -2.47e-08
616.62, -2.443e-08
618.62, -2.368e-08
620.62, -2.445e-08
622.62, -1.829e-08
624.62, -2.51e-08
626.63, -2.595e-08
628.63, -2.637e-08
630.63, -2.377e-08
632.63, -2.539e-08
634.63, -2.454e-08
636.64, -2.52e-08
638.64, -2.783e-08
640.64, -2.829e-08
642.64, -3.139e-08
644.64, -3.036e-08
646.65, -2.885e-08
648.65, -2.583e-08
650.65, -2.711e-08
652.65, -2.801e-08
654.65, -2.613e-08
656.66, -3.008e-08
658.66, -2.813e-08
660.66, -2.65e-08
662.66, -2.448e-08
664.66, -2.615e-08
666.67, -2.606e-08
668.67, -2.705e-08
670.67, -2.747e-08
672.67, -2.364e-08
674.67, -2.316e-08
676.68, -2.555e-08
678.68, -2.546e-08
680.68, -2.53e-08
682.68, -2.918e-08
684.68, -2.337e-08
686.69, -3.089e-08
688.69, -2.82e-08
690.69, -2.345e-08
692.69, -2.692e-08
694.69, -2.385e-08
696.7, -2.365e-08
698.7, -2.419e-08
700.7, -2.476e-08
702.7, -2.62e-08
704.7, -2.326e-08
706.71, -2.648e-08
708.71, -2.668e-08
710.71, -2.58e-08
712.71, -2.535e-08
714.71, -2.22e-08
716.72, -2.102e-08
718.72, -2.236e-08
720.72, -2.283e-08
722.72, -1.511e-08
724.72, -1.784e-08
726.73, -2.433e-08
728.73, -2.305e-08
730.73, -1.887e-08
732.73, -2.506e-08
734.73, -2.23e-08
736.74, -2.243e-08
738.74, -2.356e-08
740.74, -2.594e-08
742.74, -1.999e-08
744.74, -2.339e-08
746.75, -2.44e-08
748.75, -2.462e-08
750.75, -2.019e-08
752.75, -1.895e-08
754.75, -2.356e-08
756.76, -2.08e-08
758.76, -2.02e-08
760.76, -2.127e-08
762.76, -1.836e-08
764.76, -1.605e-08
766.77, -2.413e-08
768.77, -2.56e-08
770.77, -2.507e-08
772.77, -2.257e-08
774.77, -2.382e-08
776.78, -2.303e-08
778.78, -1.996e-08
780.78, -1.922e-08
782.78, -2.276e-08
784.78, -2.441e-08
786.79, -2.635e-08
788.79, -2.523e-08
790.79, -2.349e-08
792.79, -2.529e-08
794.79, -2.516e-08
796.8, -2.355e-08
798.8, -2.302e-08
800.8, -2.465e-08
802.8, -2.365e-08
804.8, -2.411e-08
806.81, -2.376e-08
808.81, -2.511e-08
810.81, -2.426e-08
812.81, -2.081e-08
814.81, -2.005e-08
816.82, -2.116e-08
818.82, -2.011e-08
820.82, -2.373e-08
822.82, -2.233e-08
824.82, -2.177e-08
826.83, -2.106e-08
828.83, -2.127e-08
830.83, -2.387e-08
832.83, -2.423e-08
834.83, -2.27e-08
836.84, -2.219e-08
838.84, -2.31e-08
840.84, -2.344e-08
842.84, -2.101e-08
844.84, -2.419e-08
846.85, -2.358e-08
848.85, -2.571e-08
850.85, -2.517e-08
852.85, -2.396e-08
854.85, -2.443e-08
856.86, -2.752e-08
858.86, -2.141e-08
860.86, -2.184e-08
862.86, -2.236e-08
864.86, -2.433e-08
866.87, -2.414e-08
868.87, -2.027e-08
870.87, -2.246e-08
872.87, -2.426e-08
874.87, -2.619e-08
876.88, -2.679e-08
878.88, -2.365e-08
880.88, -2.747e-08
882.88, -2.783e-08
884.88, -2.847e-08
886.89, -2.949e-08
888.89, -2.483e-08
890.89, -2.929e-08
892.89, -2.57e-08
894.89, -2.935e-08
896.9, -2.812e-08
898.9, -2.624e-08
900.9, -2.727e-08
902.9, -2.379e-08
904.9, -2.784e-08
906.91, -2.475e-08
908.91, -2.626e-08
910.91, -2.305e-08
912.91, -2.186e-08
914.91, -1.98e-08
916.92, -2.506e-08
918.92, -2.541e-08
920.92, -2.566e-08
922.92, -2.49e-08
924.92, -2.52e-08
926.93, -2.779e-08
928.93, -2.555e-08
930.93, -2.424e-08
932.93, -2.62e-08
934.93, -2.422e-08
936.94, -2.578e-08
938.94, -2.111e-08
940.94, -2.175e-08
942.94, -2.322e-08
944.94, -2.561e-08
946.95, -2.615e-08
948.95, -2.451e-08
950.95, -2.263e-08
952.95, -2.536e-08
954.95, -2.543e-08
956.96, -2.255e-08
958.96, -2.508e-08
960.96, -1.825e-08
962.96, -2.606e-08
964.96, -2.644e-08
966.97, -2.624e-08
968.97, -2.494e-08
970.97, -2.633e-08
972.97, -2.335e-08
974.97, -2.559e-08
976.98, -2.076e-08
978.98, -2.042e-08
980.98, -2.075e-08
982.98, -1.926e-08
984.98, -2.22e-08
986.99, -2.053e-08
988.99, -2.165e-08
990.99, -2.159e-08
992.99, -2.214e-08
994.99, -2.26e-08
997.0, -2.436e-08
999.0, -2.344e-08
1001.0, -2.004e-08
1003.0, -2.527e-08
1005.0, -2.062e-08
1007.0, -1.943e-08
1009.0, -2.325e-08
1011.0, -2.246e-08
1013.0, -2.325e-08
1015.0, -2.36e-08
1017.0, -2.162e-08
1019.0, -2.113e-08
1021.0, -1.815e-08
1023.0, -1.889e-08
1025.0, -2.146e-08
1027.0, -1.759e-08
1029.0, -2.011e-08
1031.0, -1.634e-08
1033.0, -2.088e-08
1035.0, -2.058e-08
1037.0, -2.054e-08
1039.0, -2.074e-08
1041.0, -2.035e-08
1043.0, -2.153e-08
1045.0, -2.154e-08
1047.0, 1.3862e-07
1049.0, 1.4528e-07
1051.0, 1.2841e-07
1053.1, 1.457e-07
1055.1, 1.5928e-07
1057.1, 1.4362e-07
1059.1, 1.3218e-07
1061.1, 1.6312e-07
1063.1, 1.6368e-07
1065.1, 2.0544e-07
1067.1, 1.4773e-07
1069.1, 1.8034e-07
1071.1, 1.3357e-07
1073.1, 1.9252e-07
1075.1, 1.8346e-07
1077.1, 1.4371e-07
1079.1, 2.0095e-07
1081.1, 1.8227e-07
1083.1, 1.4895e-07
1085.1, 1.4625e-07
1087.1, 1.6436e-07
1089.1, 1.5382e-07
1091.1, 1.5658e-07
1093.1, 1.3548e-07
1095.1, 1.6111e-07
1097.1, 1.7608e-07
1099.1, 1.3696e-07
1101.1, 1.5788e-07
1103.1, 1.8217e-07
1105.1, 1.8512e-07
1107.1, 1.9785e-07
1109.1, 1.6207e-07
1111.1, 1.3313e-07
1113.1, 1.6756e-07
1115.1, 1.2237e-07
1117.1, 1.7126e-07
1119.1, 1.6052e-07
1121.1, 1.3868e-07
1123.1, 1.8415e-07
1125.1, 1.7294e-07
1127.1, 1.5191e-07
1129.1, 1.6296e-07
1131.1, 1.5512e-07
1133.1, 1.2894e-07
1135.1, 1.4932e-07
1137.1, 1.7275e-07
1139.1, 1.6928e-07
1141.1, 1.6239e-07
1143.1, 1.5737e-07
1145.1, 1.6662e-07
1147.1, 1.4784e-07
1149.1, 1.9945e-07
1151.1, 1.6544e-07
1153.2, 2.4093e-07
1155.2, 1.478e-07
1157.2, 1.6195e-07
1159.2, 1.4196e-07
1161.2, 1.4577e-07
1163.2, 1.6547e-07
1165.2, 1.5316e-07
1167.2, 1.6743e-07
1169.2, 1.6414e-07
1171.2, 1.8522e-07
1173.2, 1.491e-07
1175.2, 1.7082e-07
1177.2, 2.0519e-07
1179.2, 1.7543e-07
1181.2, 1.6699e-07
1183.2, 1.984e-07
1185.2, 1.6604e-07
1187.2, 1.6908e-07
1189.2, 1.5733e-07
1191.2, 1.6215e-07
1193.2, 1.4973e-07
1195.2, 2.0122e-07
1197.2, 1.8203e-07
1199.2, 1.5739e-07
1201.2, 1.5295e-07
1203.2, 1.7454e-07
1205.2, 1.7326e-07
1207.2, 1.5922e-07
1209.2, 1.8299e-07
1211.2, 1.7433e-07
1213.2, 1.4291e-07
1215.2, 1.907e-07
1217.2, 1.6866e-07
1219.2, 2.1744e-07
1221.2, 1.919e-07
1223.2, 1.749e-07
1225.2, 1.7381e-07
1227.2, 1.5402e-07
1229.2, 1.8615e-07
1231.2, 1.6597e-07
1233.2, 1.7919e-07
1235.2, 1.9348e-07
1237.2, 1.5839e-07
1239.2, 2.0244e-07
1241.2, 1.9383e-07
1243.2, 1.9152e-07
1245.2, 1.6773e-07
1247.2, 2.0061e-07
1249.2, 1.6429e-07
1251.2, 1.829e-07
1253.3, 1.7911e-07
1255.3, 1.6839e-07
1257.3, 2.0177e-07
1259.3, 1.6914e-07
1261.3, 1.6114e-07
1263.3, 1.8072e-07
1265.3, 1.5758e-07
1267.3, 1.6273e-07
1269.3, 1.5776e-07
1271.3, 1.7785e-07
1273.3, 1.8895e-07
1275.3, 1.7376e-07
1277.3, 1.6621e-07
1279.3, 2.0345e-07
1281.3, 2.1329e-07
1283.3, 1.6848e-07
1285.3, 1.7434e-07
1287.3, 1.6386e-07
1289.3, 1.7727e-07
1291.3, 1.5717e-07
1293.3, 1.9196e-07
1295.3, 2.0024e-07
1297.3, 1.828e-07
1299.3, 1.756e-07
1301.3, 2.2381e-07
1303.3, 1.7248e-07
1305.3, 1.4934e-07
1307.3, 1.7281e-07
1309.3, 2.0208e-07
1311.3, 1.9022e-07
1313.3, 1.9364e-07
1315.3, 1.9931e-07
1317.3, 2.0134e-07
1319.3, 1.9017e-07
1321.3, 1.8659e-07
1323.3, 1.8363e-07
1325.3, 1.8841e-07
1327.3, 1.6518e-07
1329.3, 1.5969e-07
1331.3, 2.1136e-07
1333.3, 2.1496e-07
1335.3, 2.0729e-07
1337.3, 1.742e-07
1339.3, 2.0689e-07
1341.3, 1.9683e-07
1343.3, 1.4364e-07
1345.3, 1.6539e-07
1347.3, 1.806e-07
1349.3, 2.1104e-07
1351.3, 2.0029e-07
1353.4, 2.0198e-07
1355.4, 2.0249e-07
1357.4, 2.1389e-07
1359.4, 1.9993e-07
1361.4, 2.1833e-07
1363.4, 1.5814e-07
1365.4, 1.9439e-07
1367.4, 1.8409e-07
1369.4, 1.9916e-07
1371.4, 1.6817e-07
1373.4, 2.0112e-07
1375.4, 1.9135e-07
1377.4, 1.7268e-07
1379.4, 1.7374e-07
1381.4, 2.4059e-07
1383.4, 1.8915e-07
1385.4, 1.9356e-07
1387.4, 1.7272e-07
1389.4, 2.0101e-07
1391.4, 1.9241e-07
1393.4, 2.0063e-07
1395.4, 2.0574e-07
1397.4, 1.9916e-07
1399.4, 1.7499e-07
1401.4, 1.9682e-07
1403.4, 1.3492e-07
1405.4, 1.8669e-07
1407.4, 1.9e-07
1409.4, 1.994e-07
1411.4, 2.0603e-07
1413.4, 1.5784e-07
1415.4, 1.7571e-07
1417.4, 1.8316e-07
1419.4, 1.7404e-07
1421.4, 1.9596e-07
1423.4, 1.6501e-07
1425.4, 2.0482e-07
1427.4, 1.6295e-07
1429.4, 1.666e-07
1431.4, 1.978e-07
1433.4, 1.6139e-07
1435.4, 1.8224e-07
1437.4, 2.1121e-07
1439.4, 2.0102e-07
1441.4, 2.0521e-07
1443.4, 2.0045e-07
1445.4, 1.9044e-07
1447.4, 1.9242e-07
1449.4, 2.0723e-07
1451.4, 2.0484e-07
1453.5, 1.681e-07
1455.5, 1.9843e-07
1457.5, 2.4081e-07
1459.5, 2.011e-07
1461.5, 1.8053e-07
1463.5, 2.1579e-07
1465.5, 1.9196e-07
1467.5, 1.9811e-07
1469.5, 2.3841e-07
1471.5, 1.8466e-07
1473.5, 2.0306e-07
1475.5, 1.8176e-07
1477.5, 1.7417e-07
1479.5, 2.1077e-07
1481.5, 2.016e-07
1483.5, 2.0414e-07
1485.5, 1.7713e-07
1487.5, 1.7806e-07
1489.5, 1.886e-07
1491.5, 1.7061e-07
1493.5, 1.9592e-07
1495.5, 1.773e-07
1497.5, 2.0676e-07
1499.5, 1.7952e-07
1501.5, 1.6065e-07
1503.5, 1.898e-07
1505.5, 1.589e-07
1507.5, 1.7701e-07
1509.5, 1.9545e-07
1511.5, 1.985e-07
1513.5, 1.7797e-07
1515.5, 1.7762e-07
1517.5, 2.067e-07
1519.5, 1.6538e-07
1521.5, 2.1938e-07
1523.5, 1.8312e-07
1525.5, 1.885e-07
1527.5, 1.946e-07
1529.5, 1.8283e-07
1531.5, 1.8234e-07
1533.5, 2.3005e-07
1535.5, 1.9228e-07
1537.5, 1.7847e-07
1539.5, 1.8027e-07
1541.5, 2.1311e-07
1543.5, 2.3869e-07
1545.5, 1.6863e-07
1547.5, 2.0574e-07
1549.5, 2.0524e-07
1551.5, 1.7078e-07
1553.6, 2.1418e-07
1555.6, 1.6995e-07
1557.6, 1.9568e-07
1559.6, 2.346e-07
1561.6, 1.9508e-07
1563.6, 2.0671e-07
1565.6, 2.1895e-07
1567.6, 2.255e-07
1569.6, 2.4291e-07
1571.6, 1.8754e-07
1573.6, 1.6047e-07
1575.6, 2.0618e-07
1577.6, 2.1923e-07
1579.6, 1.6932e-07
1581.6, 2.4671e-07
1583.6, 2.1419e-07
1585.6, 2.1765e-07
1587.6, 1.8376e-07
1589.6, 2.003e-07
1591.6, 1.7151e-07
1593.6, 1.8726e-07
1595.6, 2.2512e-07
1597.6, 2.3256e-07
1599.6, 2.121e-07
1601.6, 2.1785e-07
1603.6, 2.032e-07
1605.6, 1.9964e-07
1607.6, 2.1088e-07
1609.6, 2.5294e-07
1611.6, 1.8807e-07
1613.6, 2.124e-07
1615.6, 1.6872e-07
1617.6, 2.0413e-07
1619.6, 2.1237e-07
1621.6, 1.6227e-07
1623.6, 2.0995e-07
1625.6, 2.0143e-07
1627.6, 2.2403e-07
1629.6, 2.2143e-07
1631.6, 1.7272e-07
1633.6, 1.6487e-07
1635.6, 2.0097e-07
1637.6, 1.9457e-07
1639.6, 2.3066e-07
1641.6, 2.004e-07
1643.6, 1.9666e-07
1645.6, 1.9593e-07
1647.6, 1.8407e-07
1649.6, 1.8766e-07
1651.6, 1.769e-07
1653.7, 2.0515e-07
1655.7, 1.6801e-07
1657.7, 1.6134e-07
1659.7, 1.8981e-07
1661.7, 2.2223e-07
1663.7, 2.1097e-07
1665.7, 2.4479e-07
1667.7, 1.9694e-07
1669.7, 1.6719e-07
1671.7, 1.8104e-07
1673.7, 1.8674e-07
1675.7, 1.9752e-07
1677.7, 2.0233e-07
1679.7, 1.9327e-07
1681.7, 1.7672e-07
1683.7, 2.0867e-07
1685.7, 1.9059e-07
1687.7, 2.5815e-07
1689.7, 2.0297e-07
1691.7, 2.5114e-07
1693.7, 1.9487e-07
1695.7, 1.9346e-07
1697.7, 1.8985e-07
1699.7, 1.8145e-07
1701.7, 1.7936e-07
1703.7, 2.7143e-07
1705.7, 2.034e-07
1707.7, 1.6461e-07
1709.7, 1.5703e-07
1711.7, 2.0691e-07
1713.7, 2.1766e-07
1715.7, 2.4395e-07
1717.7, 1.6798e-07
1719.7, 2.062e-07
1721.7, 1.859e-07
1723.7, 1.5014e-07
1725.7, 2.1917e-07
1727.7, 1.6255e-07
1729.7, 2.0692e-07
1731.7, 2.4317e-07
1733.7, 2.0255e-07
1735.7, 2.1604e-07
1737.7, 2.2606e-07
1739.7, 1.8068e-07
1741.7, 1.9566e-07
1743.7, 2.3808e-07
1745.7, 2.0855e-07
1747.7, 1.9111e-07
1749.7, 2.2531e-07
1751.7, 1.8711e-07
1753.8, 1.9764e-07
1755.8, 1.8475e-07
1757.8, 2.0002e-07
1759.8, 1.6978e-07
1761.8, 1.7212e-07
1763.8, 2.2238e-07
1765.8, 2.0511e-07
1767.8, 1.857e-07
1769.8, 2.3175e-07
1771.8, 1.8418e-07
1773.8, 1.8454e-07
1775.8, 1.7804e-07
1777.8, 1.9315e-07
1779.8, 1.996e-07
1781.8, 1.9494e-07
1783.8, 1.6438e-07
1785.8, 2.2339e-07
1787.8, 1.6957e-07
1789.8, 2.0791e-07
1791.8, 1.7265e-07
1793.8, 1.5596e-07
1795.8, 2.059e-07
1797.8, 1.9984e-07
1799.8, 1.5119e-07
1801.8, 2.0741e-07
1803.8, 1.9674e-07
1805.8, 2.0103e-07
1807.8, 1.8945e-07
1809.8, 2.1325e-07
1811.8, 2.0206e-07
1813.8, 1.762e-07
1815.8, 2.4484e-07
1817.8, 1.789e-07
1819.8, 1.9208e-07
1821.8, 2.132e-07
1823.8, 2.0436e-07
1825.8, 2.3514e-07
1827.8, 2.0413e-07
1829.8, 1.8713e-07
1831.8, 1.8165e-07
1833.8, 2.2663e-07
1835.8, 1.951e-07
1837.8, 1.8063e-07
1839.8, 1.7163e-07
1841.8, 2.0182e-07
1843.8, 1.9769e-07
1845.8, 1.7946e-07
1847.8, 1.9589e-07
1849.8, 2.0575e-07
1851.8, 2.3411e-07
1853.9, 1.7074e-07
1855.9, 1.8676e-07
1857.9, 2.3549e-07
1859.9, 1.9309e-07
1861.9, 1.8892e-07
1863.9, 2.0329e-07
1865.9, 2.042e-07
1867.9, 2.188e-07
1869.9, 1.7097e-07
1871.9, 1.7376e-07
1873.9, 1.9412e-07
1875.9, 1.8232e-07
1877.9, 1.7096e-07
1879.9, 2.1334e-07
1881.9, 2.1088e-07
1883.9, 1.874e-07
1885.9, 2.0352e-07
1887.9, 1.8836e-07
1889.9, 1.7864e-07
1891.9, 2.1037e-07
1893.9, 2.2124e-07
1895.9, 2.1323e-07
1897.9, 1.7331e-07
1899.9, 2.1433e-07
1901.9, 2.2953e-07
1903.9, 1.7967e-07
1905.9, 1.7082e-07
1907.9, 1.6707e-07
1909.9, 1.8241e-07
1911.9, 2.1713e-07
1913.9, 1.9236e-07
1915.9, 1.9893e-07
1917.9, 1.8996e-07
1919.9, 2.228e-07
1921.9, 2.0373e-07
1923.9, 2.2655e-07
1925.9, 1.9763e-07
1927.9, 1.6146e-07
1929.9, 2.1496e-07
1931.9, 2.2037e-07
1933.9, 1.9103e-07
1935.9, 2.221e-07
1937.9, 2.0149e-07
1939.9, 1.8254e-07
1941.9, 1.795e-07
1943.9, 2.1353e-07
1945.9, 1.9138e-07
1947.9, 2.0115e-07
1949.9, 1.9822e-07
1951.9, 2.2491e-07
1954.0, 1.6024e-07
1956.0, 2.0159e-07
1958.0, 1.8385e-07
1960.0, 1.9881e-07
1962.0, 2.0668e-07
1964.0, 1.5052e-07
1966.0, 1.8838e-07
1968.0, 2.1589e-07
1970.0, 1.9361e-07
1972.0, 1.7426e-07
1974.0, 1.7635e-07
1976.0, 1.9124e-07
1978.0, 1.8332e-07
1980.0, 2.0625e-07
1982.0, 1.4691e-07
1984.0, 1.9816e-07
1986.0, 2.0935e-07
1988.0, 2.291e-07
1990.0, 1.9248e-07
1992.0, 1.9976e-07
1994.0, 1.9451e-07
1996.0, 2.1485e-07
1998.0, 1.9815e-07
2000.0, 2.0211e-07
2002.0, 1.9048e-07
2004.0, 2.0324e-07
2006.0, 1.9222e-07
2008.0, 1.8371e-07
2010.0, 1.8244e-07
2012.0, 2.1018e-07
2014.0, 1.8252e-07
2016.0, 1.6897e-07
2018.0, 1.8466e-07
2020.0, 2.1154e-07
2022.0, 1.6498e-07
2024.0, 1.8238e-07
2026.0, 1.9187e-07
2028.0, 2.011e-07
2030.0, 1.8694e-07
2032.0, 1.8834e-07
2034.0, 2.411e-07
2036.0, 2.5031e-07
2038.0, 1.9329e-07
2040.0, 2.1217e-07
2042.0, 1.716e-07
2044.0, 2.0061e-07
2046.0, 2.0793e-07
2048.0, -2.82e-08
2050.0, -2.388e-08
2052.0, -2.452e-08
2054.1, -2.808e-08
2056.1, -3.069e-08
2058.1, -2.804e-08
2060.1, -2.425e-08
2062.1, -2.651e-08
2064.1, -2.447e-08
2066.1, -2.189e-08
2068.1, -2.855e-08
2070.1, -2.567e-08
2072.1, -2.824e-08
2074.1, -2.833e-08
2076.1, -2.922e-08
2078.1, -3.223e-08
2080.1, -2.92e-08
2082.1, -2.986e-08
2084.1, -2.769e-08
2086.1, -2.923e-08
2088.1, -3.033e-08
2090.1, -2.826e-08
2092.1, -2.543e-08
2094.1, -2.619e-08
2096.1, -2.449e-08
2098.1, -2.638e-08
2100.1, -2.191e-08
2102.1, -2.574e-08
2104.1, -2.44e-08
2106.1, -2.435e-08
2108.1, -2.41e-08
2110.1, -2.791e-08
2112.1, -2.239e-08
2114.1, -2.523e-08
2116.1, -2.376e-08
2118.1, -2.155e-08
2120.1, -1.872e-08
2122.1, -2.078e-08
2124.1, -2.34e-08
2126.1, -2.612e-08
2128.1, -2.536e-08
2130.1, -2.589e-08
2132.1, -2.281e-08
2134.1, -2.376e-08
2136.1, -2.773e-08
2138.1, -2.548e-08
2140.1, -2.556e-08
2142.1, -2.517e-08
2144.1, -2.601e-08
2146.1, -2.38e-08
2148.1, -2.052e-08
2150.1, -2.484e-08
2152.1, -2.222e-08
2154.2, -2.452e-08
2156.2, -2.439e-08
2158.2, -2.285e-08
2160.2, -2.317e-08
2162.2, -2.317e-08
2164.2, -2.023e-08
2166.2, -1.915e-08
2168.2, -2.545e-08
2170.2, -2.569e-08
2172.2, -2.752e-08
2174.2, -2.883e-08
2176.2, -2.427e-08
2178.2, -2.359e-08
2180.2, -2.251e-08
2182.2, -2.44e-08
2184.2, -2.704e-08
2186.2, -2.802e-08
2188.2, -2.784e-08
2190.2, -2.301e-08
2192.2, -2.216e-08
2194.2, -2.136e-08
2196.2, -2.643e-08
2198.2, -2.568e-08
2200.2, -2.525e-08
2202.2, -2.308e-08
2204.2, -2.463e-08
2206.2, -2.581e-08
2208.2, -2.81e-08
2210.2, -2.571e-08
2212.2, -2.713e-08
2214.2, -2.644e-08
2216.2, -2.858e-08
2218.2, -2.619e-08
2220.2, -2.095e-08
2222.2, -2.183e-08
2224.2, -2.156e-08
2226.2, -2.432e-08
2228.2, -2.698e-08
2230.2, -2.268e-08
2232.2, -2.679e-08
2234.2, -2.733e-08
2236.2, -2.848e-08
2238.2, -2.857e-08
2240.2, -2.377e-08
2242.2, -2.728e-08
2244.2, -2.562e-08
2246.2, -2.404e-08
2248.2, -2.24e-08
2250.2, -2.567e-08
2252.2, -2.491e-08
2254.3, -2.837e-08
2256.3, -2.611e-08
2258.3, -2.838e-08
2260.3, -2.561e-08
2262.3, -2.537e-08
2264.3, -2.634e-08
2266.3, -2.653e-08
2268.3, -2.58e-08
2270.3, -2.484e-08
2272.3, -2.331e-08
2274.3, -2.501e-08
2276.3, -2.037e-08
2278.3, -2.3e-08
2280.3, -2.282e-08
2282.3, -2.484e-08
2284.3, -2.975e-08
2286.3, -2.53e-08
2288.3, -2.879e-08
2290.3, -2.257e-08
2292.3, -2.563e-08
2294.3, -2.283e-08
2296.3, -2.443e-08
2298.3, -2.295e-08
2300.3, -2.799e-08
2302.3, -2.346e-08
2304.3, -2.582e-08
2306.3, -2.401e-08
2308.3, -2.249e-08
2310.3, -2.66e-08
2312.3, -2.276e-08
2314.3, -2.414e-08
2316.3, -2.357e-08
2318.3, -2.223e-08
2320.3, -2.588e-08
2322.3, -2.159e-08
2324.3, -2.525e-08
2326.3, -2.662e-08
2328.3, -2.215e-08
2330.3, -1.969e-08
2332.3, -2.337e-08
2334.3, -2.108e-08
2336.3, -2.343e-08
2338.3, -2.314e-08
2340.3, -2.013e-08
2342.3, -2.182e-08
2344.3, -2.221e-08
2346.3, -2.376e-08
2348.3, -2.293e-08
2350.3, -2.014e-08
2352.3, -2.056e-08
2354.4, -2.383e-08
2356.4, -2.434e-08
2358.4, -2.459e-08
2360.4, -2.384e-08
2362.4, -2.662e-08
2364.4, -2.316e-08
2366.4, -2.089e-08
2368.4, -2.004e-08
2370.4, -2.231e-08
2372.4, -2.008e-08
2374.4, -2.45e-08
2376.4, -2.246e-08
2378.4, -2.238e-08
2380.4, -2.151e-08
2382.4, -2.375e-08
2384.4, -2.608e-08
2386.4, -2.223e-08
2388.4, -2.428e-08
2390.4, -2.698e-08
2392.4, -2.403e-08
2394.4, -2.787e-08
2396.4, -2.403e-08
2398.4, -2.341e-08
2400.4, -2.432e-08
2402.4, -2.496e-08
2404.4, -2.854e-08
2406.4, -2.467e-08
2408.4, -2.799e-08
2410.4, -2.411e-08
2412.4, -2.849e-08
2414.4, -2.552e-08
2416.4, -2.139e-08
2418.4, -2.233e-08
2420.4, -2.023e-08
2422.4, -1.994e-08
2424.4, -1.893e-08
2426.4, -2.154e-08
2428.4, -1.821e-08
2430.4, -1.98e-08
2432.4, -1.855e-08
2434.4, -2.204e-08
2436.4, -2.135e-08
2438.4, -2.436e-08
2440.4, -2.565e-08
2442.4, -2.169e-08
2444.4, -1.995e-08
2446.4, -2.153e-08
2448.4, -1.852e-08
2450.4, -1.955e-08
2452.4, -1.975e-08
2454.5, -1.688e-08
2456.5, -1.915e-08
2458.5, -1.926e-08
2460.5, -1.406e-08
2462.5, -1.744e-08
2464.5, -1.998e-08
2466.5, -2.021e-08
2468.5, -1.765e-08
2470.5, -2.111e-08
2472.5, -2.135e-08
2474.5, -2.153e-08
2476.5, -2.28e-08
2478.5, -2.124e-08
2480.5, -2.35e-08
2482.5, -2.103e-08
2484.5, -1.888e-08
2486.5, -1.97e-08
2488.5, -1.953e-08
2490.5, -2.317e-08
2492.5, -2.483e-08
2494.5, -2.312e-08
2496.5, -2.16e-08
2498.5, -2.179e-08
2500.5, -2.042e-08
2502.5, -2.348e-08
2504.5, -2.09e-08
2506.5, -2.328e-08
2508.5, -2.249e-08
2510.5, -2.458e-08
2512.5, -2.153e-08
2514.5, -2.48e-08
2516.5, -2.319e-08
2518.5, -2.161e-08
2520.5, -1.86e-08
2522.5, -2.019e-08
2524.5, -2.226e-08
2526.5, -2.219e-08
2528.5, -2.269e-08
2530.5, -2.44e-08
2532.5, -1.84e-08
2534.5, -2.239e-08
2536.5, -2.364e-08
2538.5, -1.959e-08
2540.5, -2.37e-08
2542.5, -2.405e-08
2544.5, -2.088e-08
2546.5, -2.559e-08
2548.5, -2.419e-08
2550.5, -2.172e-08
2552.5, -2.117e-08
2554.6, -2.453e-08
2556.6, -2.639e-08
2558.6, -2.605e-08
2560.6, -2.327e-08
2562.6, -2.543e-08
2564.6, -2.633e-08
2566.6, -2.838e-08
2568.6, -2.373e-08
2570.6, -2.353e-08
2572.6, -2.167e-08
2574.6, -2.306e-08
2576.6, -1.971e-08
2578.6, -2.229e-08
2580.6, -1.84e-08
2582.6, -1.644e-08
2584.6, -2.107e-08
2586.6, -2.276e-08
2588.6, -2.501e-08
2590.6, -1.927e-08
2592.6, -1.971e-08
2594.6, -1.732e-08
2596.6, -2.155e-08
2598.6, -2.262e-08
2600.6, -2.151e-08
2602.6, -1.91e-08
2604.6, -1.901e-08
2606.6, -2.103e-08
2608.6, -1.858e-08
2610.6, -2.143e-08
2612.6, -2.106e-08
2614.6, -2.663e-08
2616.6, -2.509e-08
2618.6, -1.937e-08
2620.6, -2.027e-08
2622.6, -1.858e-08
2624.6, -1.707e-08
2626.6, -1.865e-08
2628.6, -1.796e-08
2630.6, -2.096e-08
2632.6, -1.785e-08
2634.6, -2.014e-08
2636.6, -2.669e-08
2638.6, -2.026e-08
2640.6, -2.236e-08
2642.6, -2.398e-08
2644.6, -2.438e-08
2646.6, -2.65e-08
2648.6, -2.046e-08
2650.6, -2.352e-08
2652.6, -2.334e-08
2654.7, -2.055e-08
2656.7, -2.366e-08
2658.7, -2.072e-08
2660.7, -2.158e-08
2662.7, -2.069e-08
2664.7, -2.133e-08
2666.7, -2.532e-08
2668.7, -2.611e-08
2670.7, -2.108e-08
2672.7, -1.959e-08
2674.7, -1.818e-08
2676.7, -1.952e-08
2678.7, -2.268e-08
2680.7, -2.213e-08
2682.7, -1.928e-08
2684.7, -1.927e-08
2686.7, -2.071e-08
2688.7, -1.722e-08
2690.7, -1.663e-08
2692.7, -2.203e-08
2694.7, -2.165e-08
2696.7, -1.966e-08
2698.7, -1.961e-08
2700.7, -1.724e-08
2702.7, -1.827e-08
2704.7, -1.948e-08
2706.7, -1.732e-08
2708.7, -1.845e-08
2710.7, -2.024e-08
2712.7, -2.388e-08
2714.7, -2.32e-08
2716.7, -2.108e-08
2718.7, -2.231e-08
2720.7, -2.316e-08
2722.7, -2.09e-08
2724.7, -1.446e-08
2726.7, -2.333e-08
2728.7, -1.89e-08
2730.7, -1.846e-08
2732.7, -1.716e-08
2734.7, -1.783e-08
2736.7, -1.857e-08
2738.7, -2.031e-08
2740.7, -1.702e-08
2742.7, -1.629e-08
2744.7, -1.909e-08
2746.7, -2.114e-08
2748.7, -2.236e-08
2750.7, -2.06e-08
2752.7, -2.233e-08
2754.8, -1.807e-08
2756.8, -2.086e-08
2758.8, -1.934e-08
2760.8, -1.926e-08
2762.8, -2.154e-08
2764.8, -1.9e-08
2766.8, -2.093e-08
2768.8, -2.336e-08
2770.8, -2.24e-08
2772.8, -2.415e-08
2774.8, -2.083e-08
2776.8, -1.674e-08
2778.8, -1.881e-08
2780.8, -2.026e-08
2782.8, -2.17e-08
2784.8, -2.383e-08
2786.8, -2.089e-08
2788.8, -2.042e-08
2790.8, -2.004e-08
2792.8, -2.193e-08
2794.8, -1.872e-08
2796.8, -2.016e-08
2798.8, -2.118e-08
2800.8, -1.918e-08
2802.8, -2.099e-08
2804.8, -2.21e-08
2806.8, -2.18e-08
2808.8, -2.509e-08
2810.8, -2.248e-08
2812.8, -2.201e-08
2814.8, -2.513e-08
2816.8, -2.579e-08
2818.8, -2.458e-08
2820.8, -2.602e-08
2822.8, -2.385e-08
2824.8, -2.293e-08
2826.8, -2.46e-08
2828.8, -2.046e-08
2830.8, -2.174e-08
2832.8, -2.112e-08
2834.8, -2.302e-08
2836.8, -2.167e-08
2838.8, -2.224e-08
2840.8, -2.171e-08
2842.8, -2.421e-08
2844.8, -2.557e-08
2846.8, -2.64e-08
2848.8, -2.391e-08
2850.8, -2.444e-08
2852.8, -2.135e-08
2854.9, -2.422e-08
2856.9, -2.315e-08
2858.9, -2.578e-08
2860.9, -2.312e-08
2862.9, -2.095e-08
2864.9, -2.011e-08
2866.9, -2.128e-08
2868.9, -2.264e-08
2870.9, -2.125e-08
2872.9, -2.17e-08
2874.9, -1.956e-08
2876.9, -2.221e-08
2878.9, -2.49e-08
2880.9, -2.506e-08
2882.9, -2.157e-08
2884.9, -1.925e-08
2886.9, -2.375e-08
2888.9, -2.179e-08
2890.9, -2.217e-08
2892.9, -2.305e-08
2894.9, -2.35e-08
2896.9, -2.172e-08
2898.9, -1.727e-08
2900.9, -1.776e-08
2902.9, -2.065e-08
2904.9, -1.726e-08
2906.9, -1.712e-08
2908.9, -2.331e-08
2910.9, -2.225e-08
2912.9, -2.128e-08
2914.9, -2.028e-08
2916.9, -1.992e-08
2918.9, -2.178e-08
2920.9, -2.19e-08
2922.9, -1.877e-08
2924.9, -2.275e-08
2926.9, -2.248e-08
2928.9, -2.018e-08
2930.9, -2.238e-08
2932.9, -2.203e-08
2934.9, -2.271e-08
2936.9, -2.506e-08
2938.9, -2.229e-08
2940.9, -2.105e-08
2942.9, -2.362e-08
2944.9, -2.535e-08
2946.9, -2.271e-08
2948.9, -2.5e-08
2950.9, -2.39e-08
2952.9, -2.439e-08
2955.0, -2.33e-08
2957.0, -2.628e-08
2959.0, -2.731e-08
2961.0, -2.438e-08
2963.0, -2.653e-08
2965.0, -2.416e-08
2967.0, -2.569e-08
2969.0, -2.688e-08
2971.0, -2.478e-08
2973.0, -2.487e-08
2975.0, -2.422e-08
2977.0, -2.471e-08
2979.0, -2.081e-08
2981.0, -2.026e-08
2983.0, -2.38e-08
2985.0, -2.107e-08
2987.0, -2.262e-08
2989.0, -2.765e-08
2991.0, -2.542e-08
2993.0, -2.699e-08
2995.0, -2.555e-08
2997.0, -2.4e-08
2999.0, -2.166e-08
3001.0, -1.888e-08
3003.0, -1.911e-08
3005.0, -1.873e-08
3007.0, -1.761e-08
3009.0, -2.207e-08
3011.0, -2.118e-08
3013.0, -2.51e-08
3015.0, -2.644e-08
3017.0, -2.251e-08
3019.0, -2.433e-08
3021.0, -2.226e-08
3023.0, -2.35e-08
3025.0, -2.185e-08
3027.0, -2.332e-08
3029.0, -2.244e-08
3031.0, -2.65e-08
3033.0, -2.385e-08
3035.0, -2.606e-08
3037.0, -2.503e-08
3039.0, -2.176e-08
3041.0, -2.25e-08
3043.0, -2.46e-08
3045.0, -2.398e-08
3047.0, -2.261e-08
3049.0, -2.396e-08
3051.0, -2.491e-08
3053.0, -2.755e-08
3055.1, -2.694e-08
3057.1, -2.814e-08
3059.1, -2.866e-08
3061.1, -2.478e-08
3063.1, -2.441e-08
3065.1, -2.325e-08
3067.1, -2.302e-08
3069.1, -2.256e-08
3071.1, -2.151e-08
3073.1, -2.114e-08
3075.1, -2.343e-08
3077.1, -1.981e-08
3079.1, -2.16e-08
3081.1, -2.253e-08
3083.1, -2.247e-08
3085.1, -2.563e-08
3087.1, -2.498e-08
3089.1, -2.863e-08
3091.1, -2.469e-08
3093.1, 8.256e-08
3095.1, 1.4369e-07
3097.1, 1.278e-07
3099.1, 1.6513e-07
3101.1, 1.6322e-07
3103.1, 1.5341e-07
3105.1, 1.7297e-07
3107.1, 1.8937e-07
3109.1, 1.9597e-07
3111.1, 1.6213e-07
3113.1, 1.5126e-07
3115.1, 1.4185e-07
3117.1, 1.4563e-07
3119.1, 1.6896e-07
3121.1, 1.4855e-07
3123.1, 1.7871e-07
3125.1, 1.548e-07
3127.1, 1.6846e-07
3129.1, 1.6866e-07
3131.1, 1.463e-07
3133.1, 1.2005e-07
3135.1, 1.4109e-07
3137.1, 1.3237e-07
3139.1, 1.4126e-07
3141.1, 1.4794e-07
3143.1, 1.4513e-07
3145.1, 1.4595e-07
3147.1, 1.4758e-07
3149.1, 1.747e-07
3151.1, 1.815e-07
3153.1, 1.9459e-07
3155.2, 1.3858e-07
3157.2, 1.7519e-07
3159.2, 1.6298e-07
3161.2, 1.6768e-07
3163.2, 1.5115e-07
3165.2, 1.5837e-07
3167.2, 1.3822e-07
3169.2, 1.4854e-07
3171.2, 1.7237e-07
3173.2, 1.4366e-07
3175.2, 1.6336e-07
3177.2, 1.5353e-07
3179.2, 1.516e-07
3181.2, 1.4493e-07
3183.2, 1.5111e-07
3185.2, 1.8652e-07
3187.2, 1.4227e-07
3189.2, 1.8712e-07
3191.2, 1.8117e-07
3193.2, 1.9133e-07
3195.2, 1.8365e-07
3197.2, 1.7328e-07
3199.2, 1.3717e-07
3201.2, 1.4996e-07
3203.2, 1.7163e-07
3205.2, 1.7972e-07
3207.2, 1.3534e-07
3209.2, 1.6165e-07
3211.2, 1.423e-07
3213.2, 1.5403e-07
3215.2, 1.6041e-07
3217.2, 1.4523e-07
3219.2, 1.7804e-07
3221.2, 1.7879e-07
3223.2, 1.4797e-07
3225.2, 2.0821e-07
3227.2, 1.6785e-07
3229.2, 1.67e-07
3231.2, 2.2388e-07
3233.2, 1.4546e-07
3235.2, 1.7207e-07
3237.2, 1.4504e-07
3239.2, 1.6132e-07
3241.2, 1.9278e-07
3243.2, 1.7625e-07
3245.2, 1.6572e-07
3247.2, 1.4321e-07
3249.2, 1.6374e-07
3251.2, 1.8403e-07
3253.2, 1.6303e-07
3255.3, 1.8148e-07
3257.3, 1.5467e-07
3259.3, 2.0036e-07
3261.3, 1.8852e-07
3263.3, 1.8803e-07
3265.3, 1.8153e-07
3267.3, 1.9079e-07
3269.3, 1.6312e-07
3271.3, 1.5231e-07
3273.3, 1.4597e-07
3275.3, 1.3771e-07
3277.3, 1.5345e-07
3279.3, 1.8439e-07
3281.3, 1.6727e-07
3283.3, 1.9994e-07
3285.3, 2.1715e-07
3287.3, 1.7746e-07
3289.3, 1.7495e-07
3291.3, 1.9547e-07
3293.3, 2.0169e-07
3295.3, 2.4512e-07
3297.3, 1.4462e-07
3299.3, 1.7061e-07
3301.3, 1.7353e-07
3303.3, 1.6225e-07
3305.3, 1.8333e-07
3307.3, 1.5737e-07
3309.3, 1.6598e-07
3311.3, 1.4472e-07
3313.3, 1.7057e-07
3315.3, 1.6696e-07
3317.3, 1.6595e-07
3319.3, 1.8773e-07
3321.3, 2.1877e-07
3323.3, 1.8248e-07
3325.3, 1.837e-07
3327.3, 1.4467e-07
3329.3, 1.3974e-07
3331.3, 1.9263e-07
3333.3, 1.8684e-07
3335.3, 2.0624e-07
3337.3, 1.5753e-07
3339.3, 1.3638e-07
3341.3, 1.5185e-07
3343.3, 1.6061e-07
3345.3, 1.9563e-07
3347.3, 2.4297e-07
3349.3, 2.0131e-07
3351.3, 1.7922e-07
3353.3, 2.3551e-07
3355.4, 1.7399e-07
3357.4, 2.0746e-07
3359.4, 1.9426e-07
3361.4, 1.6938e-07
3363.4, 1.9348e-07
3365.4, 1.7473e-07
3367.4, 1.6937e-07
3369.4, 1.6252e-07
3371.4, 1.6372e-07
3373.4, 1.9646e-07
3375.4, 1.5126e-07
3377.4, 1.6224e-07
3379.4, 1.6834e-07
3381.4, 1.6098e-07
3383.4, 1.8135e-07
3385.4, 1.7633e-07
3387.4, 2.0143e-07
3389.4, 2.1068e-07
3391.4, 1.6928e-07
3393.4, 2.0038e-07
3395.4, 1.9929e-07
3397.4, 1.4876e-07
3399.4, 1.6553e-07
3401.4, 1.6698e-07
3403.4, 2.0318e-07
3405.4, 1.8589e-07
3407.4, 2.0003e-07
3409.4, 1.8938e-07
3411.4, 1.7668e-07
3413.4, 1.9217e-07
3415.4, 1.8454e-07
3417.4, 2.0124e-07
3419.4, 1.7617e-07
3421.4, 1.7674e-07
3423.4, 1.5698e-07
3425.4, 1.7721e-07
3427.4, 1.8601e-07
3429.4, 2.1868e-07
3431.4, 1.8498e-07
3433.4, 1.7167e-07
3435.4, 2.0753e-07
3437.4, 1.8987e-07
3439.4, 1.5098e-07
3441.4, 1.8694e-07
3443.4, 1.5425e-07
3445.4, 1.6059e-07
3447.4, 1.8582e-07
3449.4, 1.7926e-07
3451.4, 1.7564e-07
3453.4, 2.0625e-07
3455.5, 1.8657e-07
3457.5, 1.8952e-07
3459.5, 2.0311e-07
3461.5, 1.9286e-07
3463.5, 1.62e-07
3465.5, 1.9016e-07
3467.5, 1.7208e-07
3469.5, 1.6455e-07
3471.5, 1.5279e-07
3473.5, 1.451e-07
3475.5, 1.7144e-07
3477.5, 2.076e-07
3479.5, 1.5625e-07
3481.5, 1.9173e-07
3483.5, 2.0662e-07
3485.5, 1.6683e-07
3487.5, 1.6162e-07
3489.5, 1.9451e-07
3491.5, 1.9532e-07
3493.5, 1.8632e-07
3495.5, 1.6603e-07
3497.5, 2.0914e-07
3499.5, 1.949e-07
3501.5, 1.6172e-07
3503.5, 1.8155e-07
3505.5, 2.0177e-07
3507.5, 1.7444e-07
3509.5, 1.8942e-07
3511.5, 1.9809e-07
3513.5, 1.5299e-07
3515.5, 2.2625e-07
3517.5, 1.6983e-07
3519.5, 2.0727e-07
3521.5, 1.5312e-07
3523.5, 1.6551e-07
3525.5, 1.8792e-07
3527.5, 2.1208e-07
3529.5, 1.8815e-07
3531.5, 1.6781e-07
3533.5, 1.9266e-07
3535.5, 1.9851e-07
3537.5, 1.6875e-07
3539.5, 1.8532e-07
3541.5, 1.7612e-07
3543.5, 2.0948e-07
3545.5, 2.5684e-07
3547.5, 1.6338e-07
3549.5, 1.9335e-07
3551.5, 1.7805e-07
3553.5, 1.8825e-07
3555.6, 1.6069e-07
3557.6, 1.9636e-07
3559.6, 1.7466e-07
3561.6, 1.9231e-07
3563.6, 1.7064e-07
3565.6, 1.929e-07
3567.6, 2.1293e-07
3569.6, 2.3429e-07
3571.6, 1.9064e-07
3573.6, 2.0542e-07
3575.6, 1.756e-07
3577.6, 1.779e-07
3579.6, 1.8595e-07
3581.6, 1.8865e-07
3583.6, 1.7643e-07
3585.6, 1.6037e-07
3587.6, 1.5004e-07
3589.6, 1.6996e-07
3591.6, 2.5532e-07
3593.6, 2.1184e-07
3595.6, 1.7252e-07
3597.6, 2.0136e-07
3599.6, 2.1198e-07
3601.6, 1.8084e-07
3603.6, 1.9361e-07
3605.6, 1.7866e-07
3607.6, 2.0425e-07
3609.6, 2.0349e-07
3611.6, 1.6554e-07
3613.6, 2.0886e-07
3615.6, 1.9574e-07
3617.6, 1.5875e-07
3619.6, 1.95e-07
3621.6, 1.7925e-07
3623.6, 2.0076e-07
3625.6, 1.6546e-07
3627.6, 1.8564e-07
3629.6, 1.7747e-07
3631.6, 1.9562e-07
3633.6, 1.9132e-07
3635.6, 1.8966e-07
3637.6, 1.6726e-07
3639.6, 1.8803e-07
3641.6, 1.8271e-07
3643.6, 1.9643e-07
3645.6, 1.6787e-07
3647.6, 2.0782e-07
3649.6, 1.6242e-07
3651.6, 1.9349e-07
3653.6, 2.0051e-07
3655.7, 1.934e-07
3657.7, 1.4565e-07
3659.7, 1.8276e-07
3661.7, 1.771e-07
3663.7, 1.6497e-07
3665.7, 2.0033e-07
3667.7, 1.5463e-07
3669.7, 2.0329e-07
3671.7, 1.7951e-07
3673.7, 2.3351e-07
3675.7, 2.343e-07
3677.7, 1.8523e-07
3679.7, 1.931e-07
3681.7, 2.7161e-07
3683.7, 1.7111e-07
3685.7, 2.1615e-07
3687.7, 2.1849e-07
3689.7, 1.6174e-07
3691.7, 1.7844e-07
3693.7, 2.2305e-07
3695.7, 1.931e-07
3697.7, 1.7636e-07
3699.7, 1.5432e-07
3701.7, 1.7871e-07
3703.7, 1.9009e-07
3705.7, 1.7544e-07
3707.7, 1.5214e-07
3709.7, 2.089e-07
3711.7, 1.896e-07
3713.7, 1.7823e-07
3715.7, 1.7764e-07
3717.7, 2.0909e-07
3719.7, 1.7104e-07
3721.7, 2.0783e-07
3723.7, 1.8588e-07
3725.7, 1.9507e-07
3727.7, 2.1272e-07
3729.7, 1.871e-07
3731.7, 1.7152e-07
3733.7, 2.1258e-07
3735.7, 1.8752e-07
3737.7, 1.9835e-07
3739.7, 2.5806e-07
3741.7, 1.593e-07
3743.7, 1.7125e-07
3745.7, 1.7734e-07
3747.7, 2.5167e-07
3749.7, 1.8943e-07
3751.7, 2.0276e-07
3753.7, 1.6476e-07
3755.8, 1.7879e-07
3757.8, 1.7857e-07
3759.8, 1.6474e-07
3761.8, 1.8636e-07
3763.8, 2.1973e-07
3765.8, 1.8584e-07
3767.8, 1.8815e-07
3769.8, 1.6757e-07
3771.8, 1.9905e-07
3773.8, 1.8259e-07
3775.8, 1.9649e-07
3777.8, 1.8131e-07
3779.8, 2.3281e-07
3781.8, 1.9102e-07
3783.8, 1.6854e-07
3785.8, 1.9924e-07
3787.8, 1.8814e-07
3789.8, 2.0376e-07
3791.8, 1.5851e-07
3793.8, 1.9036e-07
3795.8, 1.7819e-07
3797.8, 1.8814e-07
3799.8, 1.8987e-07
3801.8, 2.2231e-07
3803.8, 2.0721e-07
3805.8, 2.4155e-07
3807.8, 1.6931e-07
3809.8, 1.5077e-07
3811.8, 1.7266e-07
3813.8, 1.7732e-07
3815.8, 1.7948e-07
3817.8, 1.917e-07
3819.8, 1.6475e-07
3821.8, 1.7667e-07
3823.8, 2.1465e-07
3825.8, 2.0868e-07
3827.8, 1.9379e-07
3829.8, 1.8218e-07
3831.8, 1.7081e-07
3833.8, 2.1662e-07
3835.8, 1.7708e-07
3837.8, 2.2198e-07
3839.8, 1.8779e-07
3841.8, 1.9499e-07
3843.8, 2.0184e-07
3845.8, 1.9462e-07
3847.8, 1.4806e-07
3849.8, 1.5779e-07
3851.8, 1.998e-07
3853.8, 1.7779e-07
3855.9, 1.8552e-07
3857.9, 1.426e-07
3859.9, 1.7182e-07
3861.9, 2.2173e-07
3863.9, 2.2307e-07
3865.9, 1.7115e-07
3867.9, 1.9899e-07
3869.9, 2.0744e-07
3871.9, 2.5548e-07
3873.9, 2.5119e-07
3875.9, 1.7417e-07
3877.9, 1.7533e-07
3879.9, 2.147e-07
3881.9, 2.037e-07
3883.9, 1.9232e-07
3885.9, 1.6146e-07
3887.9, 1.7838e-07
3889.9, 1.8741e-07
3891.9, 1.9104e-07
3893.9, 1.8302e-07
3895.9, 1.9327e-07
3897.9, 1.7985e-07
3899.9, 1.7823e-07
3901.9, 2.1752e-07
3903.9, 1.9895e-07
3905.9, 2.1123e-07
3907.9, 1.936e-07
3909.9, 1.9957e-07
3911.9, 1.899e-07
3913.9, 1.9285e-07
3915.9, 1.8603e-07
3917.9, 2.1131e-07
3919.9, 1.617e-07
3921.9, 1.9953e-07
3923.9, 1.8968e-07
3925.9, 2.0116e-07
3927.9, 2.4527e-07
3929.9, 1.5593e-07
3931.9, 1.8317e-07
3933.9, 2.1006e-07
3935.9, 1.793e-07
3937.9, 2.0692e-07
3939.9, 1.8453e-07
3941.9, 2.422e-07
3943.9, 2.0655e-07
3945.9, 1.9156e-07
3947.9, 1.6321e-07
3949.9, 1.8471e-07
3951.9, 1.7925e-07
3953.9, 1.6961e-07
3956.0, 1.4649e-07
3958.0, 1.8097e-07
3960.0, 1.9601e-07
3962.0, 1.6873e-07
3964.0, 2.3938e-07
3966.0, 2.3571e-07
3968.0, 2.1274e-07
3970.0, 1.7755e-07
3972.0, 1.904e-07
3974.0, 2.2273e-07
3976.0, 1.7851e-07
3978.0, 1.9643e-07
3980.0, 1.8551e-07
3982.0, 1.8383e-07
3984.0, 1.6011e-07
3986.0, 2.0163e-07
3988.0, 2.1355e-07
3990.0, 1.8833e-07
3992.0, 2.2076e-07
3994.0, 1.8721e-07
3996.0, 1.9589e-07
3998.0, 1.7908e-07
4000.0, 2.5422e-07
4002.0, 1.9266e-07
4004.0, 1.9722e-07
4006.0, 1.8056e-07
4008.0, 1.9935e-07
4010.0, 1.9113e-07
4012.0, 2.001e-07
4014.0, 2.113e-07
4016.0, 2.0223e-07
4018.0, 1.9493e-07
4020.0, 1.5722e-07
4022.0, 2.0962e-07
4024.0, 2.102e-07
4026.0, 1.6245e-07
4028.0, 1.9177e-07
4030.0, 1.7197e-07
4032.0, 2.1065e-07
4034.0, 1.7436e-07
4036.0, 1.911e-07
4038.0, 2.1369e-07
4040.0, 1.6904e-07
4042.0, 2.03e-07
4044.0, 1.9048e-07
4046.0, 1.8239e-07
4048.0, 2.3446e-07
4050.0, 1.7739e-07
4052.0, 1.8996e-07
4054.0, 1.8138e-07
4056.1, 1.9703e-07
4058.1, 2.1372e-07
4060.1, 1.7823e-07
4062.1, 1.8039e-07
4064.1, 1.646e-07
4066.1, 1.6619e-07
4068.1, 1.8058e-07
4070.1, 1.8193e-07
4072.1, 2.0608e-07
4074.1, 1.8847e-07
4076.1, 2.3373e-07
4078.1, 2.3019e-07
4080.1, 1.8861e-07
4082.1, 1.8287e-07
4084.1, 1.8532e-07
4086.1, 1.5511e-07
4088.1, 1.8169e-07
4090.1, 2.1197e-07
4092.1, 1.9784e-07
4094.1, 1.223e-07
4096.1, -1.858e-08
4098.1, -2.106e-08
4100.1, -2.333e-08
4102.1, -1.929e-08
4104.1, -2.01e-08
4106.1, -1.868e-08
4108.1, -2.053e-08
4110.1, -1.894e-08
4112.1, -2.237e-08
4114.1, -2.404e-08
4116.1, -2.361e-08
4118.1, -2.339e-08
4120.1, -2.513e-08
4122.1, -2.571e-08
4124.1, -2.672e-08
4126.1, -2.313e-08
4128.1, -2.434e-08
4130.1, -2.53e-08
4132.1, -2.342e-08
4134.1, -2.349e-08
4136.1, -2.254e-08
4138.1, -2.344e-08
4140.1, -1.931e-08
4142.1, -2.259e-08
4144.1, -2.577e-08
4146.1, -2.222e-08
4148.1, -2.268e-08
4150.1, -2.269e-08
4152.1, -1.999e-08
4154.1, -2.289e-08
4156.2, -2.083e-08
4158.2, -2.006e-08
4160.2, -2.285e-08
4162.2, -2.021e-08
4164.2, -2.06e-08
4166.2, -1.884e-08
4168.2, -2.375e-08
4170.2, -2.247e-08
4172.2, -1.986e-08
4174.2, -1.831e-08
4176.2, -1.982e-08
4178.2, -1.928e-08
4180.2, -1.704e-08
4182.2, -2.093e-08
4184.2, -2.25e-08
4186.2, -1.876e-08
4188.2, -2.297e-08
4190.2, -2.113e-08
4192.2, -1.938e-08
4194.2, -1.819e-08
4196.2, -2.191e-08
4198.2, -2.312e-08
4200.2, -2.057e-08
4202.2, -1.97e-08
4204.2, -2.345e-08
4206.2, -2.283e-08
4208.2, -2.456e-08
4210.2, -2.369e-08
4212.2, -2.256e-08
4214.2, -2.171e-08
4216.2, -2.379e-08
4218.2, -2.421e-08
4220.2, -2.213e-08
4222.2, -1.664e-08
4224.2, -2.202e-08
4226.2, -2.354e-08
4228.2, -2.465e-08
4230.2, -2.448e-08
4232.2, -2.156e-08
4234.2, -2.652e-08
4236.2, -2.307e-08
4238.2, -2.372e-08
4240.2, -2.555e-08
4242.2, -2.051e-08
4244.2, -2.448e-08
4246.2, -2.863e-08
4248.2, -2.587e-08
4250.2, -2.368e-08
4252.2, -2.152e-08
4254.2, -2.54e-08
4256.3, -2.456e-08
4258.3, -2.438e-08
4260.3, -2.615e-08
4262.3, -2.932e-08
4264.3, -2.694e-08
4266.3, -2.484e-08
4268.3, -2.652e-08
4270.3, -2.775e-08
4272.3, -2.679e-08
4274.3, -2.662e-08
4276.3, -2.743e-08
4278.3, -2.309e-08
4280.3, -2.653e-08
4282.3, -1.929e-08
4284.3, -2.298e-08
4286.3, -2.519e-08
4288.3, -2.796e-08
4290.3, -2.925e-08
4292.3, -2.667e-08
4294.3, -2.288e-08
4296.3, -2.661e-08
4298.3, -2.513e-08
4300.3, -2.327e-08
4302.3, -2.12e-08
4304.3, -2.552e-08
4306.3, -2.848e-08
4308.3, -2.711e-08
4310.3, -2.686e-08
4312.3, -2.297e-08
4314.3, -2.64e-08
4316.3, -2.488e-08
4318.3, -2.587e-08
4320.3, -2.568e-08
4322.3, -2.623e-08
4324.3, -2.298e-08
4326.3, -2.253e-08
4328.3, -2.675e-08
4330.3, -2.423e-08
4332.3, -2.512e-08
4334.3, -2.192e-08
4336.3, -2.241e-08
4338.3, -2.563e-08
4340.3, -2.736e-08
4342.3, -3.065e-08
4344.3, -2.883e-08
4346.3, -3.123e-08
4348.3, -2.707e-08
4350.3, -2.624e-08
4352.3, -2.648e-08
4354.3, -2.643e-08
4356.4, -2.624e-08
4358.4, -2.466e-08
4360.4, -2.595e-08
4362.4, -2.842e-08
4364.4, -2.451e-08
4366.4, -2.353e-08
4368.4, -2.467e-08
4370.4, -2.121e-08
4372.4, -2.238e-08
4374.4, -2.318e-08
4376.4, -1.809e-08
4378.4, -2.423e-08
4380.4, -2.116e-08
4382.4, -1.959e-08
4384.4, -1.775e-08
4386.4, -2.069e-08
4388.4, -2.374e-08
4390.4, -2.414e-08
4392.4, -2.296e-08
4394.4, -2.008e-08
4396.4, -2.113e-08
4398.4, -2.236e-08
4400.4, -2.116e-08
4402.4, -2.11e-08
4404.4, -2.284e-08
4406.4, -2.516e-08
4408.4, -1.935e-08
4410.4, -2.483e-08
4412.4, -2.585e-08
4414.4, -2.164e-08
4416.4, -2.148e-08
4418.4, -2.374e-08
4420.4, -2.535e-08
4422.4, -2.344e-08
4424.4, -2.43e-08
4426.4, -2.284e-08
4428.4, -2.144e-08
4430.4, -2.339e-08
4432.4, -2.344e-08
4434.4, -2.268e-08
4436.4, -2.547e-08
4438.4, -2.028e-08
4440.4, -2.471e-08
4442.4, -2.361e-08
4444.4, -2.553e-08
4446.4, -2.304e-08
4448.4, -2.335e-08
4450.4, -2.384e-08
4452.4, -2.557e-08
4454.4, -1.937e-08
4456.5, -2.397e-08
4458.5, -2.267e-08
4460.5, -2.307e-08
4462.5, -2.237e-08
4464.5, -2.235e-08
4466.5, -2.217e-08
4468.5, -2.071e-08
4470.5, -2.175e-08
4472.5, -1.838e-08
4474.5, -2.132e-08
4476.5, -2.02e-08
4478.5, -2.12e-08
4480.5, -2.252e-08
4482.5, -2.696e-08
4484.5, -2.306e-08
4486.5, -2.426e-08
4488.5, -2.459e-08
4490.5, -2.185e-08
4492.5, -2.264e-08
4494.5, -2.215e-08
4496.5, -1.741e-08
4498.5, -2.223e-08
4500.5, -2.139e-08
4502.5, -1.865e-08
4504.5, -2.339e-08
4506.5, -2.561e-08
4508.5, -2.359e-08
4510.5, -2.678e-08
4512.5, -2.715e-08
4514.5, -2.551e-08
4516.5, -2.474e-08
4518.5, -2.63e-08
4520.5, -2.535e-08
4522.5, -2.646e-08
4524.5, -2.409e-08
4526.5, -2.289e-08
4528.5, -2.093e-08
4530.5, -2.647e-08
4532.5, -2.162e-08
4534.5, -2.263e-08
4536.5, -2.4e-08
4538.5, -2.23e-08
4540.5, -2.322e-08
4542.5, -2.549e-08
4544.5, -2.531e-08
4546.5, -2.611e-08
4548.5, -2.601e-08
4550.5, -2.336e-08
4552.5, -2.6e-08
4554.5, -2.182e-08
4556.6, -2.318e-08
4558.6, -2.64e-08
4560.6, -2.376e-08
4562.6, -2.622e-08
4564.6, -2.573e-08
4566.6, -2.854e-08
4568.6, -2.549e-08
4570.6, -2.461e-08
4572.6, -2.698e-08
4574.6, -2.574e-08
4576.6, -2.865e-08
4578.6, -2.56e-08
4580.6, -2.358e-08
4582.6, -2.743e-08
4584.6, -2.442e-08
4586.6, -2.757e-08
4588.6, -2.411e-08
4590.6, -2.685e-08
4592.6, -2.707e-08
4594.6, -2.282e-08
4596.6, -2.246e-08
4598.6, -2.5e-08
4600.6, -2.874e-08
4602.6, -2.487e-08
4604.6, -2.618e-08
4606.6, -2.309e-08
4608.6, -2.897e-08
4610.6, -2.585e-08
4612.6, -2.003e-08
4614.6, -2.329e-08
4616.6, -2.467e-08
4618.6, -2.151e-08
4620.6, -2.5e-08
4622.6, -2.279e-08
4624.6, -2.048e-08
4626.6, -2.613e-08
4628.6, -2.492e-08
4630.6, -2.527e-08
4632.6, -2.123e-08
4634.6, -2.324e-08
4636.6, -2.288e-08
4638.6, -2.192e-08
4640.6, -2.173e-08
4642.6, -2.068e-08
4644.6, -2.078e-08
4646.6, -2.193e-08
4648.6, -2.441e-08
4650.6, -2.558e-08
4652.6, -2.51e-08
4654.6, -2.46e-08
4656.7, -2.446e-08
4658.7, -2.146e-08
4660.7, -2.562e-08
4662.7, -2.447e-08
4664.7, -2.194e-08
4666.7, -2.245e-08
4668.7, -2.295e-08
4670.7, -2.608e-08
4672.7, -2.396e-08
4674.7, -2.484e-08
4676.7, -2.319e-08
4678.7, -2.415e-08
4680.7, -2.549e-08
4682.7, -2.889e-08
4684.7, -2.828e-08
4686.7, -2.872e-08
4688.7, -2.178e-08
4690.7, -2.61e-08
4692.7, -2.682e-08
4694.7, -1.866e-08
4696.7, -2.25e-08
4698.7, -2.258e-08
4700.7, -2.184e-08
4702.7, -2.494e-08
4704.7, -2.152e-08
4706.7, -2.152e-08
4708.7, -2.268e-08
4710.7, -2.21e-08
4712.7, -2.127e-08
4714.7, -1.925e-08
4716.7, -2.411e-08
4718.7, -2.13e-08
4720.7, -2.216e-08
4722.7, -2.623e-08
4724.7, -2.267e-08
4726.7, -2.409e-08
4728.7, -2.191e-08
4730.7, -2.26e-08
4732.7, -2.186e-08
4734.7, -2.369e-08
4736.7, -2.119e-08
4738.7, -2.291e-08
4740.7, -2.043e-08
4742.7, -2.234e-08
4744.7, -1.951e-08
4746.7, -2.422e-08
4748.7, -2.411e-08
4750.7, -2.407e-08
4752.7, -2.474e-08
4754.7, -2.404e-08
4756.8, -2.187e-08
4758.8, -2.446e-08
4760.8, -2.415e-08
4762.8, -2.64e-08
4764.8, -2.332e-08
4766.8, -2.616e-08
4768.8, -2.406e-08
4770.8, -2.863e-08
4772.8, -2.753e-08
4774.8, -2.821e-08
4776.8, -2.74e-08
4778.8, -2.605e-08
4780.8, -2.342e-08
4782.8, -2.463e-08
4784.8, -2.355e-08
4786.8, -2.566e-08
4788.8, -2.28e-08
4790.8, -2.636e-08
4792.8, -2.26e-08
4794.8, -2.549e-08
4796.8, -2.553e-08
4798.8, -2.882e-08
4800.8, -2.341e-08
4802.8, -2.825e-08
4804.8, -2.636e-08
4806.8, -2.614e-08
4808.8, -2.814e-08
4810.8, -2.906e-08
4812.8, -2.529e-08
4814.8, -2.557e-08
4816.8, -2.313e-08
4818.8, -2.501e-08
4820.8, -2.112e-08
4822.8, -2.35e-08
4824.8, -2.786e-08
4826.8, -2.997e-08
4828.8, -2.983e-08
4830.8, -2.469e-08
4832.8, -2.724e-08
4834.8, -2.608e-08
4836.8, -2.319e-08
4838.8, -2.188e-08
4840.8, -2.407e-08
4842.8, -2.653e-08
4844.8, -2.008e-08
4846.8, -2.527e-08
4848.8, -2.547e-08
4850.8, -2.534e-08
4852.8, -2.669e-08
4854.8, -2.37e-08
4856.9, -2.71e-08
4858.9, -2.839e-08
4860.9, -2.664e-08
4862.9, -2.415e-08
4864.9, -2.628e-08
4866.9, -3.015e-08
4868.9, -2.781e-08
4870.9, -3.103e-08
4872.9, -2.613e-08
4874.9, -2.511e-08
4876.9, -2.494e-08
4878.9, -2.592e-08
4880.9, -2.356e-08
4882.9, -2.55e-08
4884.9, -2.435e-08
4886.9, -2.776e-08
4888.9, -2.578e-08
4890.9, -2.573e-08
4892.9, -2.637e-08
4894.9, -2.517e-08
4896.9, -2.519e-08
4898.9, -2.637e-08
4900.9, -3.024e-08
4902.9, -2.762e-08
4904.9, -2.119e-08
4906.9, -2.4e-08
4908.9, -2.712e-08
4910.9, -2.211e-08
4912.9, -2.407e-08
4914.9, -2.231e-08
4916.9, -2.734e-08
4918.9, -2.499e-08
4920.9, -2.511e-08
4922.9, -2.526e-08
4924.9, -2.563e-08
4926.9, -2.334e-08
4928.9, -2.344e-08
4930.9, -2.55e-08
4932.9, -2.624e-08
4934.9, -2.066e-08
4936.9, -2.476e-08
4938.9, -2.004e-08
4940.9, -2.734e-08
4942.9, -2.081e-08
4944.9, -2.102e-08
4946.9, -2.254e-08
4948.9, -2.289e-08
4950.9, -2.243e-08
4952.9, -1.926e-08
4954.9, -2.178e-08
4957.0, -2.351e-08
4959.0, -2.38e-08
4961.0, -2.51e-08
4963.0, -2.098e-08
4965.0, -2.449e-08
4967.0, -2.444e-08
4969.0, -2.534e-08
4971.0, -2.191e-08
4973.0, -1.89e-08
4975.0, -1.937e-08
4977.0, -2.456e-08
4979.0, -2.27e-08
4981.0, -2.357e-08
4983.0, -2.162e-08
4985.0, -2.112e-08
4987.0, -2.243e-08
4989.0, -2.604e-08
4991.0, -2.488e-08
4993.0, -2.451e-08
4995.0, -2.455e-08
4997.0, -2.017e-08
4999.0, -2.172e-08
5001.0, -2.235e-08
5003.0, -2.133e-08
5005.0, -2.044e-08
5007.0, -2.277e-08
5009.0, -2.4e-08
5011.0, -2.503e-08
5013.0, -2.155e-08
5015.0, -1.985e-08
5017.0, -2.542e-08
5019.0, -2.282e-08
5021.0, -2.378e-08
5023.0, -2.296e-08
5025.0, -2.556e-08
5027.0, -2.423e-08
5029.0, -2.18e-08
5031.0, -2.262e-08
5033.0, -2.299e-08
5035.0, -2.179e-08
5037.0, -2.222e-08
5039.0, -2.427e-08
5041.0, -2.357e-08
5043.0, -2.145e-08
5045.0, -2.336e-08
5047.0, -2.285e-08
5049.0, -2.421e-08
5051.0, -2.41e-08
5053.0, -2.528e-08
5055.0, -2.259e-08
5057.1, -2.883e-08
5059.1, -2.438e-08
5061.1, -2.326e-08
5063.1, -2.172e-08
5065.1, -2.238e-08
5067.1, -2.269e-08
5069.1, -2.296e-08
5071.1, -2.297e-08
5073.1, -2.146e-08
5075.1, -2.222e-08
5077.1, -2.091e-08
5079.1, -2.147e-08
5081.1, -2.24e-08
5083.1, -2.371e-08
5085.1, -2.683e-08
5087.1, -2.327e-08
5089.1, -2.248e-08
5091.1, -2.202e-08
5093.1, -2.456e-08
5095.1, -2.086e-08
5097.1, -2.024e-08
5099.1, -2.436e-08
5101.1, -2.247e-08
5103.1, -2.096e-08
5105.1, -2.421e-08
5107.1, -2.404e-08
5109.1, -2.687e-08
5111.1, -2.363e-08
5113.1, -2.306e-08
5115.1, -2.573e-08
5117.1, -2.805e-08
5119.1, -2.611e-08
5121.1, -2.694e-08
5123.1, -2.769e-08
5125.1, -2.855e-08
5127.1, -2.732e-08
5129.1, -2.288e-08
5131.1, -2.716e-08
5133.1, -2.485e-08
5135.1, -2.525e-08
5137.1, -2.703e-08
5139.1, -2.569e-08
5141.1, -2.523e-08
5143.1, -2.454e-08
5145.1, -2.445e-08
5147.1, -2.648e-08
5149.1, -2.678e-08
5151.1, -2.86e-08
5153.1, -2.675e-08
5155.1, -2.566e-08
5157.2, -2.735e-08
5159.2, -2.464e-08
5161.2, -2.54e-08
5163.2, -2.23e-08
5165.2, -2.5e-08
5167.2, -2.846e-08
5169.2, -2.281e-08
5171.2, -2.773e-08
5173.2, -2.676e-08
5175.2, -2.614e-08
5177.2, -2.265e-08
5179.2, -2.465e-08
5181.2, -2.612e-08
5183.2, -2.418e-08
5185.2, -2.471e-08
5187.2, -2.604e-08
5189.2, -2.702e-08
5191.2, -2.642e-08
5193.2, -2.956e-08
5195.2, -2.638e-08
5197.2, -2.831e-08
5199.2, -2.711e-08
5201.2, -2.848e-08
5203.2, -2.644e-08
5205.2, -3.112e-08
5207.2, -3.074e-08
5209.2, -2.924e-08
5211.2, -2.591e-08
5213.2, -2.74e-08
5215.2, -2.511e-08
5217.2, -2.671e-08
5219.2, -2.762e-08
5221.2, -2.539e-08
5223.2, -2.689e-08
5225.2, -2.245e-08
5227.2, -2.136e-08
5229.2, -2.209e-08
5231.2, -2.51e-08
5233.2, -2.447e-08
5235.2, -2.398e-08
5237.2, -2.461e-08
5239.2, -2.553e-08
5241.2, -2.645e-08
5243.2, -2.399e-08
5245.2, -2.518e-08
5247.2, -2.449e-08
5249.2, -2.598e-08
5251.2, -2.032e-08
5253.2, -1.953e-08
5255.2, -2.303e-08
5257.3, -2.051e-08
5259.3, -2.407e-08
5261.3, -2.161e-08
5263.3, -2.332e-08
5265.3, -2.456e-08
5267.3, -2.403e-08
5269.3, -2.363e-08
5271.3, -2.108e-08
5273.3, -2.107e-08
5275.3, -2.509e-08
5277.3, -2.47e-08
5279.3, -2.433e-08
5281.3, -2.195e-08
5283.3, -2.581e-08
5285.3, -2.622e-08
5287.3, -2.715e-08
5289.3, -2.49e-08
5291.3, -2.346e-08
5293.3, -2.242e-08
5295.3, -2.289e-08
5297.3, -2.302e-08
5299.3, -2.619e-08
5301.3, -2.634e-08
5303.3, -2.732e-08
5305.3, -2.4e-08
5307.3, -3.025e-08
5309.3, -2.968e-08
5311.3, -2.638e-08
5313.3, -3.126e-08
5315.3, -2.748e-08
5317.3, -2.864e-08
5319.3, -2.965e-08
5321.3, -2.546e-08
5323.3, -2.56e-08
5325.3, -2.752e-08
5327.3, -2.592e-08
5329.3, -1.998e-08
5331.3, -2.219e-08
5333.3, -2.313e-08
5335.3, -2.436e-08
5337.3, -2.381e-08
5339.3, -2.759e-08
5341.3, -2.577e-08
5343.3, -2.45e-08
5345.3, -2.553e-08
5347.3, -2.521e-08
5349.3, -2.452e-08
5351.3, -2.76e-08
5353.3, -2.337e-08
5355.3, -2.341e-08
5357.4, -2.351e-08
5359.4, -2.419e-08
5361.4, -2.28e-08
5363.4, -2.108e-08
5365.4, -2.064e-08
5367.4, -2.325e-08
5369.4, -2.33e-08
5371.4, -2.379e-08
5373.4, -2.13e-08
5375.4, -2.022e-08
5377.4, -2.419e-08
5379.4, -2.391e-08
5381.4, -2.23e-08
5383.4, -1.976e-08
5385.4, -2.466e-08
5387.4, -2.057e-08
5389.4, -2.38e-08
5391.4, -2.663e-08
5393.4, -2.334e-08
5395.4, -2.361e-08
5397.4, -2.346e-08
5399.4, -2.427e-08
5401.4, -1.993e-08
5403.4, -2.429e-08
5405.4, -2.46e-08
5407.4, -2.651e-08
5409.4, -2.792e-08
5411.4, -2.559e-08
5413.4, -2.727e-08
5415.4, -2.509e-08
5417.4, -2.671e-08
5419.4, -2.492e-08
5421.4, -2.792e-08
5423.4, -2.537e-08
5425.4, -2.397e-08
5427.4, -2.339e-08
5429.4, -2.379e-08
5431.4, -2.295e-08
5433.4, -2.848e-08
5435.4, 6.507e-08
5437.4, 1.8131e-07
5439.4, 1.0233e-07
5441.4, 1.553e-07
5443.4, 1.934e-07
5445.4, 1.2945e-07
5447.4, 1.4809e-07
5449.4, 1.6693e-07
5451.4, 1.7707e-07
5453.4, 1.792e-07
5455.4, 1.6913e-07
5457.5, 1.6899e-07
5459.5, 1.2643e-07
5461.5, 1.8646e-07
5463.5, 1.4349e-07
5465.5, 1.4118e-07
5467.5, 1.4103e-07
5469.5, 1.9157e-07
5471.5, 1.5324e-07
5473.5, 1.3658e-07
5475.5, 1.5022e-07
5477.5, 1.2914e-07
5479.5, 1.526e-07
5481.5, 1.7927e-07
5483.5, 1.9077e-07
5485.5, 1.659e-07
5487.5, 1.337e-07
5489.5, 1.5517e-07
5491.5, 1.8959e-07
5493.5, 1.3964e-07
5495.5, 1.6852e-07
5497.5, 1.674e-07
5499.5, 1.6307e-07
5501.5, 1.7386e-07
5503.5, 1.7014e-07
5505.5, 1.3223e-07
5507.5, 1.5739e-07
5509.5, 1.6142e-07
5511.5, 1.8608e-07
5513.5, 1.8134e-07
5515.5, 1.7359e-07
5517.5, 1.2178e-07
5519.5, 1.2974e-07
5521.5, 1.4502e-07
5523.5, 1.8983e-07
5525.5, 1.17e-07
5527.5, 1.9665e-07
5529.5, 1.5076e-07
5531.5, 1.5557e-07
5533.5, 1.8023e-07
5535.5, 1.6735e-07
5537.5, 1.4333e-07
5539.5, 1.5975e-07
5541.5, 1.161e-07
5543.5, 1.719e-07
5545.5, 1.331e-07
5547.5, 1.6346e-07
5549.5, 1.4083e-07
5551.5, 1.6471e-07
5553.5, 1.3563e-07
5555.5, 1.5555e-07
5557.6, 1.586e-07
5559.6, 1.403e-07
5561.6, 1.3484e-07
5563.6, 1.7502e-07
5565.6, 2.2542e-07
5567.6, 1.7241e-07
5569.6, 1.8867e-07
5571.6, 1.6253e-07
5573.6, 1.4641e-07
5575.6, 1.4754e-07
5577.6, 1.7938e-07
5579.6, 1.6319e-07
5581.6, 1.6967e-07
5583.6, 1.449e-07
5585.6, 1.5112e-07
5587.6, 1.3584e-07
5589.6, 2.0914e-07
5591.6, 1.5587e-07
5593.6, 2.1928e-07
5595.6, 1.845e-07
5597.6, 1.6121e-07
5599.6, 1.4752e-07
5601.6, 1.8673e-07
5603.6, 1.4654e-07
5605.6, 1.5868e-07
5607.6, 1.8569e-07
5609.6, 1.9316e-07
5611.6, 1.4153e-07
5613.6, 1.899e-07
5615.6, 1.6902e-07
5617.6, 1.8404e-07
5619.6, 1.5701e-07
5621.6, 1.619e-07
5623.6, 1.9905e-07
5625.6, 1.999e-07
5627.6, 1.7185e-07
5629.6, 1.9029e-07
5631.6, 1.5848e-07
5633.6, 1.689e-07
5635.6, 1.9434e-07
5637.6, 1.6875e-07
5639.6, 1.5996e-07
5641.6, 1.5759e-07
5643.6, 1.6797e-07
5645.6, 1.4484e-07
5647.6, 1.5775e-07
5649.6, 1.9702e-07
5651.6, 1.6421e-07
5653.6, 1.6948e-07
5655.6, 2.0039e-07
5657.7, 2.2697e-07
5659.7, 1.5505e-07
5661.7, 1.2943e-07
5663.7, 1.7775e-07
5665.7, 1.9649e-07
5667.7, 1.7379e-07
5669.7, 1.9088e-07
5671.7, 1.8832e-07
5673.7, 1.9461e-07
5675.7, 1.6445e-07
5677.7, 1.5537e-07
5679.7, 1.7199e-07
5681.7, 1.6402e-07
5683.7, 1.4561e-07
5685.7, 1.9157e-07
5687.7, 1.4708e-07
5689.7, 1.803e-07
5691.7, 1.8522e-07
5693.7, 2.2457e-07
5695.7, 1.6615e-07
5697.7, 1.8089e-07
5699.7, 2.0475e-07
5701.7, 2.2176e-07
5703.7, 2.243e-07
5705.7, 1.6184e-07
5707.7, 2.2863e-07
5709.7, 1.8156e-07
5711.7, 1.9587e-07
5713.7, 1.6602e-07
5715.7, 1.814e-07
5717.7, 1.8213e-07
5719.7, 1.8468e-07
5721.7, 1.8127e-07
5723.7, 2.009e-07
5725.7, 1.9063e-07
5727.7, 2.0986e-07
5729.7, 1.5468e-07
5731.7, 1.7638e-07
5733.7, 2.0912e-07
5735.7, 1.5449e-07
5737.7, 2.0892e-07
5739.7, 2.0484e-07
5741.7, 1.6124e-07
5743.7, 1.6389e-07
5745.7, 1.5789e-07
5747.7, 1.7507e-07
5749.7, 1.6283e-07
5751.7, 1.871e-07
5753.7, 2.073e-07
5755.7, 1.7394e-07
5757.8, 2.1835e-07
5759.8, 2.0267e-07
5761.8, 2.238e-07
5763.8, 1.7791e-07
5765.8, 1.9811e-07
5767.8, 1.8202e-07
5769.8, 1.7172e-07
5771.8, 1.7997e-07
5773.8, 2.2625e-07
5775.8, 1.6867e-07
5777.8, 1.5404e-07
5779.8, 1.7327e-07
5781.8, 1.4931e-07
5783.8, 1.5604e-07
5785.8, 1.4335e-07
5787.8, 2.0761e-07
5789.8, 1.4656e-07
5791.8, 1.9113e-07
5793.8, 1.8139e-07
5795.8, 2.2548e-07
5797.8, 1.9568e-07
5799.8, 1.665e-07
5801.8, 1.5528e-07
5803.8, 1.5402e-07
5805.8, 1.9296e-07
5807.8, 1.868e-07
5809.8, 1.8765e-07
5811.8, 1.6236e-07
5813.8, 2.0969e-07
5815.8, 1.8805e-07
5817.8, 2.0152e-07
5819.8, 2.0245e-07
5821.8, 2.3261e-07
5823.8, 1.9601e-07
5825.8, 1.5448e-07
5827.8, 2.0382e-07
5829.8, 1.1815e-07
5831.8, 1.8644e-07
5833.8, 1.69e-07
5835.8, 2.0268e-07
5837.8, 1.8951e-07
5839.8, 1.5492e-07
5841.8, 1.9008e-07
5843.8, 2.3065e-07
5845.8, 1.6127e-07
5847.8, 2.0463e-07
5849.8, 2.2439e-07
5851.8, 2.4412e-07
5853.8, 1.7815e-07
5855.8, 1.7459e-07
5857.9, 1.6701e-07
5859.9, 2.0943e-07
5861.9, 1.9543e-07
5863.9, 1.613e-07
5865.9, 1.8156e-07
5867.9, 2.054e-07
5869.9, 1.7481e-07
5871.9, 1.883e-07
5873.9, 1.6836e-07
5875.9, 1.8537e-07
5877.9, 1.7436e-07
5879.9, 2.0518e-07
5881.9, 1.8111e-07
5883.9, 1.957e-07
5885.9, 2.0839e-07
5887.9, 1.8968e-07
5889.9, 1.6929e-07
5891.9, 1.6262e-07
5893.9, 1.6592e-07
5895.9, 1.7416e-07
5897.9, 2.2529e-07
5899.9, 1.9066e-07
5901.9, 1.9603e-07
5903.9, 1.7052e-07
5905.9, 1.72e-07
5907.9, 1.6945e-07
5909.9, 1.8454e-07
5911.9, 2.2149e-07
5913.9, 1.5976e-07
5915.9, 2.0038e-07
5917.9, 2.23e-07
5919.9, 1.8801e-07
5921.9, 2.0553e-07
5923.9, 1.7494e-07
5925.9, 1.9761e-07
5927.9, 1.8059e-07
5929.9, 1.7363e-07
5931.9, 2.2139e-07
5933.9, 1.7564e-07
5935.9, 1.6321e-07
5937.9, 2.1782e-07
5939.9, 1.9487e-07
5941.9, 2.0429e-07
5943.9, 1.8476e-07
5945.9, 1.6608e-07
5947.9, 1.9643e-07
5949.9, 2.0897e-07
5951.9, 1.714e-07
5953.9, 1.8122e-07
5955.9, 1.8241e-07
5958.0, 1.8054e-07
5960.0, 2.2534e-07
5962.0, 1.7865e-07
5964.0, 2.0646e-07
5966.0, 1.9897e-07
5968.0, 1.8673e-07
5970.0, 1.9171e-07
5972.0, 2.1026e-07
5974.0, 2.0394e-07
5976.0, 2.0852e-07
5978.0, 1.8717e-07
5980.0, 2.0123e-07
5982.0, 2.0642e-07
5984.0, 2.475e-07
5986.0, 1.9518e-07
5988.0, 1.9987e-07
5990.0, 2.1346e-07
5992.0, 2.2103e-07
5994.0, 1.6627e-07
5996.0, 2.012e-07
5998.0, 2.0007e-07
6000.0, 2.0755e-07
6002.0, 2.0387e-07
6004.0, 2.0823e-07
6006.0, 1.7155e-07
6008.0, 1.9809e-07
6010.0, 1.566e-07
6012.0, 1.8914e-07
6014.0, 2.1852e-07
6016.0, 1.5757e-07
6018.0, 1.8513e-07
6020.0, 1.6608e-07
6022.0, 2.1405e-07
6024.0, 1.8317e-07
6026.0, 2.1146e-07
6028.0, 1.8214e-07
6030.0, 2.072e-07
6032.0, 1.8209e-07
6034.0, 2.0503e-07
6036.0, 1.7337e-07
6038.0, 1.493e-07
6040.0, 2.0222e-07
6042.0, 2.1577e-07
6044.0, 1.9374e-07
6046.0, 1.7663e-07
6048.0, 2.0388e-07
6050.0, 1.7441e-07
6052.0, 1.6708e-07
6054.0, 1.9863e-07
6056.0, 1.8518e-07
6058.1, 2.155e-07
6060.1, 1.7353e-07
6062.1, 1.7081e-07
6064.1, 1.8139e-07
6066.1, 1.7902e-07
6068.1, 2.2752e-07
6070.1, 1.9758e-07
6072.1, 1.7818e-07
6074.1, 2.0425e-07
6076.1, 1.9044e-07
6078.1, 1.7534e-07
6080.1, 2.0358e-07
6082.1, 2.1432e-07
6084.1, 1.8855e-07
6086.1, 2.1104e-07
6088.1, 1.9871e-07
6090.1, 1.6394e-07
6092.1, 1.676e-07
6094.1, 1.9925e-07
6096.1, 1.7573e-07
6098.1, 1.8838e-07
6100.1, 2.3318e-07
6102.1, 1.7048e-07
6104.1, 1.9805e-07
6106.1, 1.6906e-07
6108.1, 1.5855e-07
6110.1, 2.019e-07
6112.1, 1.9093e-07
6114.1, 2.0075e-07
6116.1, 1.7803e-07
6118.1, 1.9769e-07
6120.1, 1.9371e-07
6122.1, 1.8521e-07
6124.1, 1.9973e-07
6126.1, 2.2517e-07
6128.1, 1.8576e-07
6130.1, 1.7621e-07
6132.1, 1.8721e-07
6134.1, 1.5763e-07
6136.1, 1.9514e-07
6138.1, 1.8149e-07
6140.1, 2.2822e-07
6142.1, 1.8475e-07
6144.1, 2.3036e-07
6146.1, 1.8225e-07
6148.1, 1.9259e-07
6150.1, 1.8291e-07
6152.1, 1.7764e-07
6154.1, 1.8813e-07
6156.1, 2.0883e-07
6158.2, 1.9699e-07
6160.2, 2.0065e-07
6162.2, 1.777e-07
6164.2, 1.6612e-07
6166.2, 2.1541e-07
6168.2, 1.6715e-07
6170.2, 1.7183e-07
6172.2, 1.7632e-07
6174.2, 1.8101e-07
6176.2, 2.2281e-07
6178.2, 1.7323e-07
6180.2, 1.5934e-07
6182.2, 1.845e-07
6184.2, 2.0887e-07
6186.2, 1.8627e-07
6188.2, 1.9364e-07
6190.2, 1.8285e-07
6192.2, 1.9563e-07
6194.2, 1.8992e-07
6196.2, 2.1293e-07
6198.2, 1.8222e-07
6200.2, 2.1981e-07
6202.2, 1.954e-07
6204.2, 1.9528e-07
6206.2, 1.6709e-07
6208.2, 1.6454e-07
6210.2, 1.5819e-07
6212.2, 1.998e-07
6214.2, 1.85e-07
6216.2, 2.0277e-07
6218.2, 1.9111e-07
6220.2, 2.0893e-07
6222.2, 1.9521e-07
6224.2, 1.7146e-07
6226.2, 2.13e-07
6228.2, 1.7704e-07
6230.2, 2.0193e-07
6232.2, 2.0378e-07
6234.2, 1.8954e-07
6236.2, 1.7296e-07
6238.2, 1.9732e-07
6240.2, 2.1417e-07
6242.2, 1.825e-07
6244.2, 2.473e-07
6246.2, 1.8099e-07
6248.2, 1.8288e-07
6250.2, 1.6315e-07
6252.2, 1.6445e-07
6254.2, 1.9818e-07
6256.2, 2.0899e-07
6258.3, 1.959e-07
6260.3, 1.9907e-07
6262.3, 2.4026e-07
6264.3, 2.0452e-07
6266.3, 1.7694e-07
6268.3, 1.5418e-07
6270.3, 1.9686e-07
6272.3, 1.8847e-07
6274.3, 2.2039e-07
6276.3, 2.0739e-07
6278.3, 1.8159e-07
6280.3, 2.1903e-07
6282.3, 1.9413e-07
6284.3, 1.9801e-07
6286.3, 2.0521e-07
6288.3, 2.2099e-07
6290.3, 1.6108e-07
6292.3, 2.1527e-07
6294.3, 1.7443e-07
6296.3, 1.8474e-07
6298.3, 1.9159e-07
6300.3, 2.1527e-07
6302.3, 1.6566e-07
6304.3, 2.0237e-07
6306.3, 1.9555e-07
6308.3, 1.9699e-07
6310.3, 1.5722e-07
6312.3, 1.6721e-07
6314.3, 1.7505e-07
6316.3, 1.5298e-07
6318.3, 1.7895e-07
6320.3, 1.6087e-07
6322.3, 1.9108e-07
6324.3, 1.7085e-07
6326.3, 2.1074e-07
6328.3, 2.1381e-07
6330.3, 1.778e-07
6332.3, 1.9506e-07
6334.3, 1.9105e-07
6336.3, 2.0291e-07
6338.3, 1.8005e-07
6340.3, 1.7954e-07
6342.3, 1.7742e-07
6344.3, 1.833e-07
6346.3, 1.8105e-07
6348.3, 1.5958e-07
6350.3, 1.9209e-07
6352.3, 1.5565e-07
6354.3, 1.941e-07
6356.3, 2.0027e-07
6358.4, 2.1498e-07
6360.4, 1.7674e-07
6362.4, 1.4164e-07
6364.4, 1.8522e-07
6366.4, 1.7731e-07
6368.4, 1.495e-07
6370.4, 1.8348e-07
6372.4, 2.031e-07
6374.4, 1.6169e-07
6376.4, 2.1479e-07
6378.4, 2.0732e-07
6380.4, 2.035e-07
6382.4, 2.123e-07
6384.4, 1.6982e-07
6386.4, 1.7985e-07
6388.4, 1.6904e-07
6390.4, 1.6935e-07
6392.4, 1.5827e-07
6394.4, 2.005e-07
6396.4, 2.1991e-07
6398.4, 2.2041e-07
6400.4, 1.7385e-07
6402.4, 2.2376e-07
6404.4, 1.539e-07
6406.4, 1.8954e-07
6408.4, 1.8207e-07
6410.4, 1.9719e-07
6412.4, 1.8868e-07
6414.4, 1.9713e-07
6416.4, 1.8077e-07
6418.4, 1.6842e-07
6420.4, 2.6699e-07
6422.4, 1.879e-07
6424.4, 1.8373e-07
6426.4, 1.8504e-07
6428.4, 2.0682e-07
6430.4, 1.8489e-07
6432.4, 1.7032e-07
6434.4, 1.8592e-07
6436.4, 1.17e-07
6438.4, -2.378e-08
6440.4, -2.492e-08
6442.4, -2.299e-08
6444.4, -2.249e-08
6446.4, -2.047e-08
6448.4, -2.34e-08
6450.4, -2.489e-08
6452.4, -2.75e-08
6454.4, -2.412e-08
6456.4, -2.206e-08
6458.5, -2.193e-08
6460.5, -2.26e-08
6462.5, -2.23e-08
6464.5, -2.333e-08
6466.5, -2.129e-08
6468.5, -2.324e-08
6470.5, -1.948e-08
6472.5, -2.392e-08
6474.5, -2.562e-08
6476.5, -2.266e-08
6478.5, -2.979e-08
6480.5, -2.894e-08
6482.5, -2.781e-08
6484.5, -2.819e-08
6486.5, -2.485e-08
6488.5, -2.346e-08
6490.5, -2.56e-08
6492.5, -2.605e-08
6494.5, -2.894e-08
6496.5, -2.712e-08
6498.5, -2.549e-08
6500.5, -2.679e-08
6502.5, -2.768e-08
6504.5, -2.38e-08
6506.5, -2.777e-08
6508.5, -2.717e-08
6510.5, -3.149e-08
6512.5, -3.251e-08
6514.5, -3.087e-08
6516.5, -2.812e-08
6518.5, -2.628e-08
6520.5, -2.545e-08
6522.5, -2.689e-08
6524.5, -2.553e-08
6526.5, -2.579e-08
6528.5, -2.556e-08
6530.5, -3.101e-08
6532.5, -2.662e-08
6534.5, -2.502e-08
6536.5, -2.517e-08
6538.5, -2.24e-08
6540.5, -2.626e-08
6542.5, -2.571e-08
6544.5, -2.478e-08
6546.5, -2.634e-08
6548.5, -2.489e-08
6550.5, -2.478e-08
6552.5, -2.532e-08
6554.5, -2.383e-08
6556.5, -2.212e-08
6558.6, -2.72e-08
6560.6, -2.395e-08
6562.6, -2.679e-08
6564.6, -2.551e-08
6566.6, -2.264e-08
6568.6, -2.134e-08
6570.6, -2.462e-08
6572.6, -2.286e-08
6574.6, -2.438e-08
6576.6, -2.23e-08
6578.6, -2.271e-08
6580.6, -2.327e-08
6582.6, -2.47e-08
6584.6, -2.426e-08
6586.6, -2.896e-08
6588.6, -2.703e-08
6590.6, -2.659e-08
6592.6, -2.738e-08
6594.6, -2.225e-08
6596.6, -1.886e-08
6598.6, -2.02e-08
6600.6, -2.593e-08
6602.6, -1.961e-08
6604.6, -2.113e-08
6606.6, -1.994e-08
6608.6, -2.26e-08
6610.6, -2.027e-08
6612.6, -2.352e-08
6614.6, -2.011e-08
6616.6, -2.266e-08
6618.6, -2.396e-08
6620.6, -2.116e-08
6622.6, -2.271e-08
6624.6, -2.355e-08
6626.6, -1.932e-08
6628.6, -2.154e-08
6630.6, -2.048e-08
6632.6, -2.286e-08
6634.6, -2.275e-08
6636.6, -2.234e-08
6638.6, -2.19e-08
6640.6, -2.382e-08
6642.6, -2.206e-08
6644.6, -2.574e-08
6646.6, -2.213e-08
6648.6, -2.341e-08
6650.6, -2.507e-08
6652.6, -2.338e-08
6654.6, -2.31e-08
6656.6, -2.278e-08
6658.7, -2.424e-08
6660.7, -2.511e-08
6662.7, -2.5e-08
6664.7, -2.278e-08
6666.7, -1.952e-08
6668.7, -2.091e-08
6670.7, -2.352e-08
6672.7, -2.797e-08
6674.7, -2.15e-08
6676.7, -1.841e-08
6678.7, -1.982e-08
6680.7, -2.455e-08
6682.7, -2.318e-08
6684.7, -2.495e-08
6686.7, -2.282e-08
6688.7, -2.892e-08
6690.7, -2.276e-08
6692.7, -2.061e-08
6694.7, -2.383e-08
6696.7, -1.997e-08
6698.7, -2.388e-08
6700.7, -2.427e-08
6702.7, -2.263e-08
6704.7, -1.908e-08
6706.7, -2.342e-08
6708.7, -2.472e-08
6710.7, -2.628e-08
6712.7, -2.371e-08
6714.7, -2.56e-08
6716.7, -2.308e-08
6718.7, -2.565e-08
6720.7, -2.296e-08
6722.7, -2.372e-08
6724.7, -2.18e-08
6726.7, -2.311e-08
6728.7, -2.58e-08
6730.7, -2.416e-08
6732.7, -2.527e-08
6734.7, -2.689e-08
6736.7, -2.22e-08
6738.7, -2.458e-08
6740.7, -2.389e-08
6742.7, -2.321e-08
6744.7, -2.296e-08
6746.7, -2.433e-08
6748.7, -2.476e-08
6750.7, -2.696e-08
6752.7, -2.686e-08
6754.7, -2.428e-08
6756.7, -2.887e-08
6758.8, -2.924e-08
6760.8, -2.594e-08
6762.8, -2.592e-08
6764.8, -2.62e-08
6766.8, -2.381e-08
6768.8, -2.548e-08
6770.8, -2.384e-08
6772.8, -2.592e-08
6774.8, -2.532e-08
6776.8, -2.579e-08
6778.8, -2.414e-08
6780.8, -2.159e-08
6782.8, -2.147e-08
6784.8, -2.029e-08
6786.8, -2.02e-08
6788.8, -2.312e-08
6790.8, -2.354e-08
6792.8, -2.535e-08
6794.8, -2.388e-08
6796.8, -2.436e-08
6798.8, -2.179e-08
6800.8, -2.249e-08
6802.8, -2.932e-08
6804.8, -2.547e-08
6806.8, -2.604e-08
6808.8, -2.479e-08
6810.8, -2.462e-08
6812.8, -2.458e-08
6814.8, -2.609e-08
6816.8, -2.133e-08
6818.8, -2.654e-08
6820.8, -2.378e-08
6822.8, -2.6e-08
6824.8, -2.463e-08
6826.8, -2.571e-08
6828.8, -2.571e-08
6830.8, -2.598e-08
6832.8, -2.707e-08
6834.8, -2.434e-08
6836.8, -2.838e-08
6838.8, -2.815e-08
6840.8, -2.704e-08
6842.8, -2.607e-08
6844.8, -2.728e-08
6846.8, -2.713e-08
6848.8, -2.195e-08
6850.8, -2.029e-08
6852.8, -2.467e-08
6854.8, -2.233e-08
6856.8, -2.293e-08
6858.9, -2.091e-08
6860.9, -2.54e-08
6862.9, -2.568e-08
6864.9, -2.423e-08
6866.9, -2.631e-08
6868.9, -2.421e-08
6870.9, -2.777e-08
6872.9, -2.644e-08
6874.9, -2.352e-08
6876.9, -2.338e-08
6878.9, -2.345e-08
6880.9, -2.595e-08
6882.9, -2.468e-08
6884.9, -2.227e-08
6886.9, -2e-08
6888.9, -2.213e-08
6890.9, -2.632e-08
6892.9, -2.485e-08
6894.9, -2.32e-08
6896.9, -2.051e-08
6898.9, -2.11e-08
6900.9, -2.212e-08
6902.9, -2.284e-08
6904.9, -2.481e-08
6906.9, -2.306e-08
6908.9, -2.453e-08
6910.9, -2.285e-08
6912.9, -2.665e-08
6914.9, -2.279e-08
6916.9, -2.283e-08
6918.9, -2.353e-08
6920.9, -2.435e-08
6922.9, -2.353e-08
6924.9, -2.132e-08
6926.9, -2.458e-08
6928.9, -2.176e-08
6930.9, -2.031e-08
6932.9, -2.449e-08
6934.9, -2.485e-08
6936.9, -2.424e-08
6938.9, -2.332e-08
6940.9, -2.316e-08
6942.9, -2.19e-08
6944.9, -2.404e-08
6946.9, -2.295e-08
6948.9, -2.33e-08
6950.9, -2.514e-08
6952.9, -2.364e-08
6954.9, -2.343e-08
6956.9, -2.136e-08
6959.0, -2.134e-08
6961.0, -2.385e-08
6963.0, -2.514e-08
6965.0, -2.184e-08
6967.0, -2.586e-08
6969.0, -2.507e-08
6971.0, -2.459e-08
6973.0, -2.199e-08
6975.0, -2.163e-08
6977.0, -1.928e-08
6979.0, -2.525e-08
6981.0, -2.251e-08
6983.0, -2.283e-08
6985.0, -2.133e-08
6987.0, -2.155e-08
6989.0, -2.316e-08
6991.0, -2.523e-08
6993.0, -2.57e-08
6995.0, -2.17e-08
6997.0, -2.548e-08
6999.0, -2.747e-08
7001.0, -2.896e-08
7003.0, -2.634e-08
7005.0, -2.828e-08
7007.0, -2.612e-08
7009.0, -2.535e-08
7011.0, -2.929e-08
7013.0, -2.645e-08
7015.0, -2.458e-08
7017.0, -2.613e-08
7019.0, -2.633e-08
7021.0, -1.98e-08
7023.0, -2.21e-08
7025.0, -2.646e-08
7027.0, -2.605e-08
7029.0, -2.845e-08
7031.0, -2.836e-08
7033.0, -2.463e-08
7035.0, -2.601e-08
7037.0, -2.559e-08
7039.0, -2.729e-08
7041.0, -2.612e-08
7043.0, -2.354e-08
7045.0, -2.419e-08
7047.0, -2.622e-08
7049.0, -2.122e-08
7051.0, -2.326e-08
7053.0, -2.751e-08
7055.0, -2.439e-08
7057.0, -2.578e-08
7059.1, -2.531e-08
7061.1, -2.542e-08
7063.1, -2.672e-08
7065.1, -2.547e-08
7067.1, -2.691e-08
7069.1, -2.499e-08
7071.1, -2.116e-08
7073.1, -2.609e-08
7075.1, -2.462e-08
7077.1, -2.538e-08
7079.1, -2.513e-08
7081.1, -2.496e-08
7083.1, -2.67e-08
7085.1, -2.333e-08
7087.1, -2.313e-08
7089.1, -2.346e-08
7091.1, -2.513e-08
7093.1, -2.617e-08
7095.1, -2.669e-08
7097.1, -2.681e-08
7099.1, -2.463e-08
7101.1, -2.525e-08
7103.1, -2.635e-08
7105.1, -2.62e-08
7107.1, -2.616e-08
7109.1, -1.835e-08
7111.1, -2.588e-08
7113.1, -2.559e-08
7115.1, -2.213e-08
7117.1, -2.305e-08
7119.1, -2.36e-08
7121.1, -2.494e-08
7123.1, -2.365e-08
7125.1, -2.586e-08
7127.1, -2.325e-08
7129.1, -2.707e-08
7131.1, -2.454e-08
7133.1, -2.199e-08
7135.1, -2.578e-08
7137.1, -2.391e-08
7139.1, -2.487e-08
7141.1, -2.156e-08
7143.1, -2.308e-08
7145.1, -2.284e-08
7147.1, -2.43e-08
7149.1, -2.624e-08
7151.1, -2.629e-08
7153.1, -2.882e-08
7155.1, -2.327e-08
7157.1, -2.424e-08
7159.2, -2.287e-08
7161.2, -2.555e-08
7163.2, -2.153e-08
7165.2, -2.501e-08
7167.2, -2.121e-08
7169.2, -1.862e-08
7171.2, -2.412e-08
7173.2, -2.386e-08
7175.2, -2.475e-08
7177.2, -2.277e-08
7179.2, -2.223e-08
7181.2, -2.764e-08
7183.2, -2.35e-08
7185.2, -2.597e-08
7187.2, -2.384e-08
7189.2, -2.432e-08
7191.2, -2.386e-08
7193.2, -2.524e-08
7195.2, -2.759e-08
7197.2, -2.55e-08
7199.2, -2.638e-08
7201.2, -2.482e-08
7203.2, -2.268e-08
7205.2, -2.419e-08
7207.2, -2.638e-08
7209.2, -2.677e-08
7211.2, -2.375e-08
7213.2, -1.91e-08
7215.2, -2.125e-08
7217.2, -1.916e-08
7219.2, -1.807e-08
7221.2, -2.353e-08
7223.2, -2.264e-08
7225.2, -2.259e-08
7227.2, -2.572e-08
7229.2, -2.237e-08
7231.2, -2.483e-08
7233.2, -2.334e-08
7235.2, -2.139e-08
7237.2, -1.869e-08
7239.2, -2.33e-08
7241.2, -2.04e-08
7243.2, -1.999e-08
7245.2, -1.907e-08
7247.2, -2.126e-08
7249.2, -1.85e-08
7251.2, -2.367e-08
7253.2, -2.154e-08
7255.2, -2.172e-08
7257.2, -2.398e-08
7259.3, -2.493e-08
7261.3, -2.541e-08
7263.3, -2.038e-08
7265.3, -2.36e-08
7267.3, -2.351e-08
7269.3, -1.999e-08
7271.3, -2.163e-08
7273.3, -2.586e-08
7275.3, -2.76e-08
7277.3, -2.368e-08
7279.3, -2.393e-08
7281.3, -2.058e-08
7283.3, -2.077e-08
7285.3, -2.576e-08
7287.3, -2.497e-08
7289.3, -2.331e-08
7291.3, -2.008e-08
7293.3, -2.36e-08
7295.3, -2.459e-08
7297.3, -2.226e-08
7299.3, -2.105e-08
7301.3, -2.149e-08
7303.3, -2.3e-08
7305.3, -2.078e-08
7307.3, -2.295e-08
7309.3, -2.157e-08
7311.3, -2.222e-08
7313.3, -2.038e-08
7315.3, -2.325e-08
7317.3, -1.988e-08
7319.3, -2.312e-08
7321.3, -2.536e-08
7323.3, -2.264e-08
7325.3, -2.483e-08
7327.3, -2.549e-08
7329.3, -2.645e-08
7331.3, -2.683e-08
7333.3, -2.726e-08
7335.3, -2.745e-08
7337.3, -3.086e-08
7339.3, -2.879e-08
7341.3, -2.767e-08
7343.3, -2.981e-08
7345.3, -2.234e-08
7347.3, -2.589e-08
7349.3, -2.595e-08
7351.3, -2.59e-08
7353.3, -2.452e-08
7355.3, -2.33e-08
7357.3, -2.231e-08
7359.4, -2.438e-08
7361.4, -2.748e-08
7363.4, -2.755e-08
7365.4, -3.052e-08
7367.4, -2.735e-08
7369.4, -2.982e-08
7371.4, -2.769e-08
7373.4, -2.649e-08
7375.4, -2.668e-08
7377.4, -2.774e-08
7379.4, -2.554e-08
7381.4, -2.92e-08
7383.4, -2.882e-08
7385.4, -2.439e-08
7387.4, -2.727e-08
7389.4, -2.518e-08
7391.4, -2.318e-08
7393.4, -2.451e-08
7395.4, -2.893e-08
7397.4, -2.617e-08
7399.4, -2.876e-08
7401.4, -2.793e-08
7403.4, -2.504e-08
7405.4, -2.178e-08
7407.4, -2.439e-08
7409.4, -2.522e-08
7411.4, -2.4e-08
7413.4, -2.785e-08
7415.4, -2.626e-08
7417.4, -2.708e-08
7419.4, -2.82e-08
7421.4, -3.039e-08
7423.4, -3.026e-08
7425.4, -2.932e-08
7427.4, -3.032e-08
7429.4, -3.217e-08
7431.4, -2.795e-08
7433.4, -2.979e-08
7435.4, -2.843e-08
7437.4, -2.576e-08
7439.4, -2.969e-08
7441.4, -3.139e-08
7443.4, -3.048e-08
7445.4, -3.119e-08
7447.4, -2.91e-08
7449.4, -2.954e-08
7451.4, -3.22e-08
7453.4, -3.054e-08
7455.4, -3.038e-08
7457.4, -3.015e-08
7459.5, -2.586e-08
7461.5, -3.107e-08
7463.5, -2.529e-08
7465.5, -2.754e-08
7467.5, -2.934e-08
7469.5, -2.523e-08
7471.5, -2.787e-08
7473.5, -2.604e-08
7475.5, -2.804e-08
7477.5, -2.886e-08
7479.5, -2.438e-08
7481.5, -2.257e-08
7483.5, -2.58e-08
7485.5, -2.855e-08
7487.5, -2.743e-08
7489.5, -3.119e-08
7491.5, -2.864e-08
7493.5, -3.005e-08
7495.5, -3.015e-08
7497.5, -3.299e-08
7499.5, -3.109e-08
7501.5, -2.894e-08
7503.5, -3.235e-08
7505.5, -2.633e-08
7507.5, -2.941e-08
7509.5, -2.914e-08
7511.5, -2.924e-08
7513.5, -3.148e-08
7515.5, -2.743e-08
7517.5, -2.565e-08
7519.5, -2.898e-08
7521.5, -2.846e-08
7523.5, -2.833e-08
7525.5, -2.719e-08
7527.5, -2.493e-08
7529.5, -2.684e-08
7531.5, -2.645e-08
7533.5, -2.831e-08
7535.5, -2.975e-08
7537.5, -2.877e-08
7539.5, -2.781e-08
7541.5, 1.9685e-07
7543.5, 1.4841e-07
7545.5, 1.4371e-07
7547.5, 1.4143e-07
7549.5, 1.4091e-07
7551.5, 1.7899e-07
7553.5, 1.2976e-07
7555.5, 1.4096e-07
7557.5, 1.3634e-07
7559.6, 1.2604e-07
7561.6, 1.8895e-07
7563.6, 1.6668e-07
7565.6, 1.3151e-07
7567.6, 1.4231e-07
7569.6, 1.2925e-07
7571.6, 1.684e-07
7573.6, 1.7217e-07
7575.6, 1.7334e-07
7577.6, 1.5812e-07
7579.6, 1.3814e-07
7581.6, 1.7055e-07
7583.6, 1.8105e-07
7585.6, 1.3761e-07
7587.6, 1.7474e-07
7589.6, 1.4455e-07
7591.6, 1.2742e-07
7593.6, 1.845e-07
7595.6, 1.3661e-07
7597.6, 1.9271e-07
7599.6, 1.2421e-07
7601.6, 2.3232e-07
7603.6, 1.5523e-07
7605.6, 1.3599e-07
7607.6, 1.562e-07
7609.6, 1.8533e-07
7611.6, 1.3832e-07
7613.6, 1.8005e-07
7615.6, 1.3674e-07
7617.6, 1.1483e-07
7619.6, 1.2029e-07
7621.6, 1.5738e-07
7623.6, 1.7882e-07
7625.6, 1.5049e-07
7627.6, 1.5836e-07
7629.6, 1.5049e-07
7631.6, 1.8609e-07
7633.6, 1.6099e-07
7635.6, 1.8072e-07
7637.6, 1.4699e-07
7639.6, 1.5057e-07
7641.6, 1.4612e-07
7643.6, 1.3409e-07
7645.6, 1.6881e-07
7647.6, 1.6144e-07
7649.6, 1.8156e-07
7651.6, 1.8409e-07
7653.6, 1.7293e-07
7655.6, 1.6254e-07
7657.6, 1.6227e-07
7659.7, 1.5049e-07
7661.7, 1.3715e-07
7663.7, 1.7938e-07
7665.7, 1.8316e-07
7667.7, 1.5999e-07
7669.7, 1.5868e-07
7671.7, 2.0635e-07
7673.7, 1.6165e-07
7675.7, 2.1515e-07
7677.7, 1.6117e-07
7679.7, 1.6353e-07
7681.7, 1.8692e-07
7683.7, 1.5195e-07
7685.7, 1.9054e-07
7687.7, 1.6837e-07
7689.7, 1.7666e-07
7691.7, 2.2169e-07
7693.7, 1.4518e-07
7695.7, 1.7929e-07
7697.7, 1.9608e-07
7699.7, 1.8945e-07
7701.7, 1.8775e-07
7703.7, 1.9495e-07
7705.7, 1.9518e-07
7707.7, 1.7387e-07
7709.7, 1.4255e-07
7711.7, 1.6515e-07
7713.7, 1.6033e-07
7715.7, 1.6232e-07
7717.7, 1.7061e-07
7719.7, 1.4201e-07
7721.7, 1.4442e-07
7723.7, 1.4854e-07
7725.7, 1.6928e-07
7727.7, 1.9351e-07
7729.7, 1.5278e-07
7731.7, 1.8723e-07
7733.7, 1.5559e-07
7735.7, 2.116e-07
7737.7, 1.6191e-07
7739.7, 1.4668e-07
7741.7, 1.5071e-07
7743.7, 1.4675e-07
7745.7, 1.7717e-07
7747.7, 1.5854e-07
7749.7, 1.955e-07
7751.7, 1.5746e-07
7753.7, 1.5432e-07
7755.7, 1.8071e-07
7757.7, 1.6931e-07
7759.8, 1.6594e-07
7761.8, 1.7564e-07
7763.8, 1.8781e-07
7765.8, 2.0469e-07
7767.8, 2.0994e-07
7769.8, 1.8253e-07
7771.8, 1.7824e-07
7773.8, 1.8196e-07
7775.8, 1.8748e-07
7777.8, 1.6334e-07
7779.8, 1.8238e-07
7781.8, 2.0486e-07
7783.8, 1.621e-07
7785.8, 1.7045e-07
7787.8, 1.9174e-07
7789.8, 1.5345e-07
7791.8, 1.6468e-07
7793.8, 1.687e-07
7795.8, 1.861e-07
7797.8, 1.8941e-07
7799.8, 2.1106e-07
7801.8, 1.975e-07
7803.8, 1.64e-07
7805.8, 1.7781e-07
7807.8, 2.2873e-07
7809.8, 2.0403e-07
7811.8, 2.2058e-07
7813.8, 1.5688e-07
7815.8, 1.8955e-07
7817.8, 1.7923e-07
7819.8, 1.4952e-07
7821.8, 2.1426e-07
7823.8, 1.7116e-07
7825.8, 1.7866e-07
7827.8, 1.9368e-07
7829.8, 1.5358e-07
7831.8, 1.6639e-07
7833.8, 1.88e-07
7835.8, 1.6309e-07
7837.8, 1.8469e-07
7839.8, 2.0767e-07
7841.8, 1.7308e-07
7843.8, 1.9627e-07
7845.8, 1.9934e-07
7847.8, 1.7724e-07
7849.8, 1.9022e-07
7851.8, 1.8531e-07
7853.8, 2.118e-07
7855.8, 2.1552e-07
7857.8, 1.8312e-07
7859.9, 1.9591e-07
7861.9, 1.9691e-07
7863.9, 1.7891e-07
7865.9, 2.0229e-07
7867.9, 1.9175e-07
7869.9, 1.8531e-07
7871.9, 2.3428e-07
7873.9, 1.8246e-07
7875.9, 1.7748e-07
7877.9, 2.0617e-07
7879.9, 1.8328e-07
7881.9, 1.734e-07
7883.9, 2.0136e-07
7885.9, 1.8233e-07
7887.9, 1.9168e-07
7889.9, 1.8507e-07
7891.9, 1.7902e-07
7893.9, 1.9027e-07
7895.9, 1.6806e-07
7897.9, 1.7048e-07
7899.9, 1.5661e-07
7901.9, 1.4163e-07
7903.9, 1.9612e-07
7905.9, 1.7709e-07
7907.9, 2.255e-07
7909.9, 1.998e-07
7911.9, 1.5951e-07
7913.9, 2.1308e-07
7915.9, 1.842e-07
7917.9, 1.6244e-07
7919.9, 1.6887e-07
7921.9, 1.6195e-07
7923.9, 2.1016e-07
7925.9, 2.0671e-07
7927.9, 1.8722e-07
7929.9, 1.7122e-07
7931.9, 1.9019e-07
7933.9, 1.9215e-07
7935.9, 1.7118e-07
7937.9, 2.6336e-07
7939.9, 2.042e-07
7941.9, 1.7228e-07
7943.9, 1.814e-07
7945.9, 1.795e-07
7947.9, 1.3824e-07
7949.9, 1.6233e-07
7951.9, 1.9708e-07
7953.9, 1.6538e-07
7955.9, 2.2417e-07
7957.9, 1.9787e-07
7960.0, 1.5725e-07
7962.0, 1.7344e-07
7964.0, 1.9658e-07
7966.0, 1.8386e-07
7968.0, 2.3812e-07
7970.0, 2.0397e-07
7972.0, 1.8788e-07
7974.0, 1.6826e-07
7976.0, 1.7592e-07
7978.0, 2.5632e-07
7980.0, 1.8972e-07
7982.0, 2.0962e-07
7984.0, 1.8841e-07
7986.0, 2.4466e-07
7988.0, 1.7226e-07
7990.0, 2.491e-07
7992.0, 2.0443e-07
7994.0, 1.5544e-07
7996.0, 2.0179e-07
7998.0, 2.1392e-07
8000.0, 2.0199e-07
8002.0, 2.3272e-07
8004.0, 1.9945e-07
8006.0, 1.9142e-07
8008.0, 1.7364e-07
8010.0, 1.5588e-07
8012.0, 2.2964e-07
8014.0, 2.2382e-07
8016.0, 2.0644e-07
8018.0, 1.7483e-07
8020.0, 1.8535e-07
8022.0, 2.0155e-07
8024.0, 2.0955e-07
8026.0, 2.2338e-07
8028.0, 1.658e-07
8030.0, 1.9503e-07
8032.0, 1.9978e-07
8034.0, 1.9186e-07
8036.0, 1.6498e-07
8038.0, 1.8698e-07
8040.0, 1.9938e-07
8042.0, 2.2793e-07
8044.0, 1.9476e-07
8046.0, 2.0445e-07
8048.0, 1.9868e-07
8050.0, 1.9977e-07
8052.0, 1.87e-07
8054.0, 1.7637e-07
8056.0, 2.1485e-07
8058.0, 1.7821e-07
8060.1, 2.0106e-07
8062.1, 2.0026e-07
8064.1, 1.5227e-07
8066.1, 1.989e-07
8068.1, 1.7451e-07
8070.1, 2.3048e-07
8072.1, 2.043e-07
8074.1, 1.5354e-07
8076.1, 1.8248e-07
8078.1, 2.7547e-07
8080.1, 2.2592e-07
8082.1, 1.4229e-07
8084.1, 1.9507e-07
8086.1, 1.7009e-07
8088.1, 1.9093e-07
8090.1, 1.9303e-07
8092.1, 1.7863e-07
8094.1, 1.9316e-07
8096.1, 1.9742e-07
8098.1, 2.1184e-07
8100.1, 2.012e-07
8102.1, 1.8616e-07
8104.1, 1.8355e-07
8106.1, 1.4706e-07
8108.1, 2.0133e-07
8110.1, 1.6008e-07
8112.1, 1.7691e-07
8114.1, 1.7711e-07
8116.1, 1.9912e-07
8118.1, 1.9104e-07
8120.1, 1.7159e-07
8122.1, 1.8366e-07
8124.1, 2.074e-07
8126.1, 1.8816e-07
8128.1, 2.0143e-07
8130.1, 2.0921e-07
8132.1, 1.9666e-07
8134.1, 1.9708e-07
8136.1, 2.1892e-07
8138.1, 1.9841e-07
8140.1, 1.931e-07
8142.1, 1.7729e-07
8144.1, 1.6898e-07
8146.1, 1.7006e-07
8148.1, 1.5129e-07
8150.1, 2.1006e-07
8152.1, 1.5829e-07
8154.1, 1.6695e-07
8156.1, 2.0564e-07
8158.1, 2.1759e-07
8160.2, 1.9526e-07
8162.2, 1.936e-07
8164.2, 2.0116e-07
8166.2, 1.9191e-07
8168.2, 1.4874e-07
8170.2, 1.7379e-07
8172.2, 1.677e-07
8174.2, 1.6855e-07
8176.2, 2.1019e-07
8178.2, 2.2486e-07
8180.2, 1.6979e-07
8182.2, 1.9603e-07
8184.2, 2.0788e-07
8186.2, 2.0326e-07
8188.2, 1.9104e-07
8190.2, 2.0891e-07
8192.2, 1.8421e-07
8194.2, 1.7318e-07
8196.2, 1.9278e-07
8198.2, 2.2056e-07
8200.2, 2.032e-07
8202.2, 1.8001e-07
8204.2, 1.784e-07
8206.2, 2.1802e-07
8208.2, 2.2231e-07
8210.2, 1.8639e-07
8212.2, 1.9372e-07
8214.2, 1.9314e-07
8216.2, 1.7044e-07
8218.2, 2.1292e-07
8220.2, 2.2333e-07
8222.2, 2.2152e-07
8224.2, 1.8274e-07
8226.2, 2.0286e-07
8228.2, 1.3868e-07
8230.2, 2.1267e-07
8232.2, 2.4587e-07
8234.2, 2.0372e-07
8236.2, 2.3307e-07
8238.2, 2.3213e-07
8240.2, 1.8539e-07
8242.2, 1.7331e-07
8244.2, 1.8164e-07
8246.2, 1.9596e-07
8248.2, 1.92e-07
8250.2, 2.1886e-07
8252.2, 1.9203e-07
8254.2, 2.0024e-07
8256.2, 2.1434e-07
8258.2, 2.0257e-07
8260.3, 2.223e-07
8262.3, 2.1171e-07
8264.3, 2.2715e-07
8266.3, 1.8692e-07
8268.3, 1.881e-07
8270.3, 2.2888e-07
8272.3, 1.8445e-07
8274.3, 1.6973e-07
8276.3, 2.055e-07
8278.3, 2.0574e-07
8280.3, 1.9289e-07
8282.3, 2.0834e-07
8284.3, 1.7508e-07
8286.3, 1.8038e-07
8288.3, 1.6407e-07
8290.3, 2.316e-07
8292.3, 1.9186e-07
8294.3, 1.7756e-07
8296.3, 1.7639e-07
8298.3, 1.9655e-07
8300.3, 1.7144e-07
8302.3, 1.8828e-07
8304.3, 1.4439e-07
8306.3, 2.0159e-07
8308.3, 1.5981e-07
8310.3, 1.7611e-07
8312.3, 1.7208e-07
8314.3, 2.0989e-07
8316.3, 1.8903e-07
8318.3, 1.8153e-07
8320.3, 1.9409e-07
8322.3, 2.198e-07
8324.3, 2.1654e-07
8326.3, 1.9673e-07
8328.3, 2.0948e-07
8330.3, 1.7974e-07
8332.3, 1.6709e-07
8334.3, 1.8272e-07
8336.3, 2.0685e-07
8338.3, 2.1513e-07
8340.3, 1.7134e-07
8342.3, 1.96e-07
8344.3, 1.9931e-07
8346.3, 1.831e-07
8348.3, 1.9071e-07
8350.3, 2.2167e-07
8352.3, 2.1208e-07
8354.3, 2.0177e-07
8356.3, 2.078e-07
8358.3, 1.6915e-07
8360.4, 2.1826e-07
8362.4, 1.8276e-07
8364.4, 2.0174e-07
8366.4, 1.7254e-07
8368.4, 1.7543e-07
8370.4, 1.9304e-07
8372.4, 1.9491e-07
8374.4, 1.9881e-07
8376.4, 1.5887e-07
8378.4, 2.2054e-07
8380.4, 2.1464e-07
8382.4, 1.7823e-07
8384.4, 2.2004e-07
8386.4, 1.9958e-07
8388.4, 1.6065e-07
8390.4, 1.8705e-07
8392.4, 2.355e-07
8394.4, 1.8429e-07
8396.4, 2.0157e-07
8398.4, 1.8609e-07
8400.4, 2.1298e-07
8402.4, 1.6898e-07
8404.4, 1.9188e-07
8406.4, 1.767e-07
8408.4, 1.7267e-07
8410.4, 2.1796e-07
8412.4, 2.1037e-07
8414.4, 1.9049e-07
8416.4, 1.7791e-07
8418.4, 1.6074e-07
8420.4, 1.7589e-07
8422.4, 1.6659e-07
8424.4, 1.952e-07
8426.4, 2.0204e-07
8428.4, 2.0981e-07
8430.4, 2.0106e-07
8432.4, 1.9533e-07
8434.4, 1.7419e-07
8436.4, 2.0194e-07
8438.4, 1.8699e-07
8440.4, 1.6848e-07
8442.4, 2.0514e-07
8444.4, 2.1822e-07
8446.4, 2.1267e-07
8448.4, 1.6259e-07
8450.4, 2.153e-07
8452.4, 2.3235e-07
8454.4, 2.1698e-07
8456.4, 1.9118e-07
8458.4, 1.7962e-07
8460.5, 2.0743e-07
8462.5, 1.9745e-07
8464.5, 1.7241e-07
8466.5, 2.2212e-07
8468.5, 1.9777e-07
8470.5, 2.0968e-07
8472.5, 2.0698e-07
8474.5, 1.8831e-07
8476.5, 1.8694e-07
8478.5, 2.0147e-07
8480.5, 2.0707e-07
8482.5, 2.0406e-07
8484.5, 1.6277e-07
8486.5, 1.6285e-07
8488.5, 1.782e-07
8490.5, 1.6727e-07
8492.5, 2.043e-07
8494.5, 1.7672e-07
8496.5, 1.8996e-07
8498.5, 2.0254e-07
8500.5, 2.1795e-07
8502.5, 1.9558e-07
8504.5, 1.5638e-07
8506.5, 2.1635e-07
8508.5, 1.47e-07
8510.5, 1.7435e-07
8512.5, 1.602e-07
8514.5, 2.0675e-07
8516.5, 1.6985e-07
8518.5, 1.7485e-07
8520.5, 1.746e-07
8522.5, 2.0515e-07
8524.5, 2.0008e-07
8526.5, 2.171e-07
8528.5, 1.6044e-07
8530.5, 2.2047e-07
8532.5, 2.0368e-07
8534.5, 1.7803e-07
8536.5, 2.0486e-07
8538.5, 1.9806e-07
8540.5, 1.8615e-07
8542.5, -2.708e-08
8544.5, -2.755e-08
8546.5, -1.996e-08
8548.5, -2.414e-08
8550.5, -2.365e-08
8552.5, -2.516e-08
8554.5, -2.425e-08
8556.5, -2.17e-08
8558.5, -1.852e-08
8560.6, -2.18e-08
8562.6, -1.767e-08
8564.6, -2.121e-08
8566.6, -1.658e-08
8568.6, -2.181e-08
8570.6, -1.938e-08
8572.6, -2.443e-08
8574.6, -2.209e-08
8576.6, -2.147e-08
8578.6, -1.855e-08
8580.6, -1.684e-08
8582.6, -2.039e-08
8584.6, -1.813e-08
8586.6, -2.327e-08
8588.6, -2.31e-08
8590.6, -2.293e-08
8592.6, -2.033e-08
8594.6, -1.807e-08
8596.6, -2.142e-08
8598.6, -1.877e-08
8600.6, -1.722e-08
8602.6, -1.84e-08
8604.6, -1.953e-08
8606.6, -2.075e-08
8608.6, -2.1e-08
8610.6, -2.193e-08
8612.6, -2.25e-08
8614.6, -2.479e-08
8616.6, -2.269e-08
8618.6, -2.497e-08
8620.6, -2.221e-08
8622.6, -2.698e-08
8624.6, -2.45e-08
8626.6, -2.5e-08
8628.6, -2.658e-08
8630.6, -2.62e-08
8632.6, -2.455e-08
8634.6, -2.554e-08
8636.6, -2.804e-08
8638.6, -2.893e-08
8640.6, -2.491e-08
8642.6, -2.894e-08
8644.6, -2.676e-08
8646.6, -2.351e-08
8648.6, -2.682e-08
8650.6, -2.616e-08
8652.6, -2.2e-08
8654.6, -2.363e-08
8656.6, -2.299e-08
8658.6, -2.65e-08
8660.7, -2.553e-08
8662.7, -2.605e-08
8664.7, -2.674e-08
8666.7, -2.964e-08
8668.7, -3.01e-08
8670.7, -2.883e-08
8672.7, -2.491e-08
8674.7, -3.072e-08
8676.7, -2.836e-08
8678.7, -2.63e-08
8680.7, -2.474e-08
8682.7, -2.486e-08
8684.7, -2.936e-08
8686.7, -2.895e-08
8688.7, -2.362e-08
8690.7, -2.645e-08
8692.7, -2.405e-08
8694.7, -2.642e-08
8696.7, -2.699e-08
8698.7, -2.317e-08
8700.7, -2.658e-08
8702.7, -2.147e-08
8704.7, -2.608e-08
8706.7, -2.387e-08
8708.7, -2.456e-08
8710.7, -2.497e-08
8712.7, -2.237e-08
8714.7, -2.332e-08
8716.7, -2.447e-08
8718.7, -2.302e-08
8720.7, -2.217e-08
8722.7, -2.691e-08
8724.7, -2.412e-08
8726.7, -2.139e-08
8728.7, -2.544e-08
8730.7, -2.783e-08
8732.7, -2.611e-08
8734.7, -2.671e-08
8736.7, -2.642e-08
8738.7, -2.259e-08
8740.7, -2.039e-08
8742.7, -2.189e-08
8744.7, -2.198e-08
8746.7, -2.581e-08
8748.7, -2.234e-08
8750.7, -2.607e-08
8752.7, -2.467e-08
8754.7, -2.49e-08
8756.7, -2.617e-08
8758.7, -2.486e-08
8760.8, -2.41e-08
8762.8, -2.665e-08
8764.8, -2.264e-08
8766.8, -2.253e-08
8768.8, -2.809e-08
8770.8, -2.565e-08
8772.8, -2.349e-08
8774.8, -2.734e-08
8776.8, -2.483e-08
8778.8, -2.432e-08
8780.8, -2.747e-08
8782.8, -2.56e-08
8784.8, -2.629e-08
8786.8, -2.375e-08
8788.8, -2.224e-08
8790.8, -2.415e-08
8792.8, -2.389e-08
8794.8, -2.366e-08
8796.8, -2.338e-08
8798.8, -2.098e-08
8800.8, -2.134e-08
8802.8, -2.117e-08
8804.8, -2.388e-08
8806.8, -2.796e-08
8808.8, -2.594e-08
8810.8, -2.607e-08
8812.8, -2.786e-08
8814.8, -2.349e-08
8816.8, -2.426e-08
8818.8, -2.384e-08
8820.8, -1.92e-08
8822.8, -2.383e-08
8824.8, -2.602e-08
8826.8, -2.68e-08
8828.8, -2.764e-08
8830.8, -2.356e-08
8832.8, -2.625e-08
8834.8, -2.292e-08
8836.8, -2.154e-08
8838.8, -2.126e-08
8840.8, -2.05e-08
8842.8, -2.524e-08
8844.8, -2.434e-08
8846.8, -2.397e-08
8848.8, -2.621e-08
8850.8, -2.502e-08
8852.8, -2.399e-08
8854.8, -2.074e-08
8856.8, -1.936e-08
8858.8, -2.17e-08
8860.9, -1.83e-08
8862.9, -2.187e-08
8864.9, -2.174e-08
8866.9, -1.993e-08
8868.9, -1.931e-08
8870.9, -2.616e-08
8872.9, -2.677e-08
8874.9, -2.523e-08
8876.9, -2.685e-08
8878.9, -2.621e-08
8880.9, -2.554e-08
8882.9, -2.658e-08
8884.9, -2.325e-08
8886.9, -2.139e-08
8888.9, -2.44e-08
8890.9, -2.791e-08
8892.9, -2.46e-08
8894.9, -2.692e-08
8896.9, -2.707e-08
8898.9, -2.284e-08
8900.9, -2.337e-08
8902.9, -2.691e-08
8904.9, -2.585e-08
8906.9, -2.623e-08
8908.9, -2.821e-08
8910.9, -2.751e-08
8912.9, -2.557e-08
8914.9, -2.721e-08
8916.9, -2.654e-08
8918.9, -2.595e-08
8920.9, -2.751e-08
8922.9, -2.801e-08
8924.9, -2.733e-08
8926.9, -2.534e-08
8928.9, -2.579e-08
8930.9, -2.553e-08
8932.9, -2.942e-08
8934.9, -2.823e-08
8936.9, -2.579e-08
8938.9, -2.595e-08
8940.9, -2.569e-08
8942.9, -2.483e-08
8944.9, -2.527e-08
8946.9, -2.289e-08
8948.9, -2.442e-08
8950.9, -2.28e-08
8952.9, -2.259e-08
8954.9, -2.25e-08
8956.9, -2.26e-08
8958.9, -2.616e-08
8961.0, -2.631e-08
8963.0, -2.41e-08
8965.0, -2.557e-08
8967.0, -2.358e-08
8969.0, -2.54e-08
8971.0, -2.216e-08
8973.0, -2.601e-08
8975.0, -2.358e-08
8977.0, -2.269e-08
8979.0, -2.249e-08
8981.0, -2.274e-08
8983.0, -1.786e-08
8985.0, -2.11e-08
8987.0, -2.507e-08
8989.0, -2.836e-08
8991.0, -2.665e-08
8993.0, -2.644e-08
8995.0, -2.748e-08
8997.0, -2.445e-08
8999.0, -2.721e-08
9001.0, -2.484e-08
9003.0, -2.316e-08
9005.0, -2.56e-08
9007.0, -2.217e-08
9009.0, -2.38e-08
9011.0, -2.194e-08
9013.0, -2.393e-08
9015.0, -2.301e-08
9017.0, -2.697e-08
9019.0, -2.74e-08
9021.0, -2.304e-08
9023.0, -2.713e-08
9025.0, -2.571e-08
9027.0, -2.574e-08
9029.0, -2.32e-08
9031.0, -2.371e-08
9033.0, -2.649e-08
9035.0, -2.667e-08
9037.0, -2.525e-08
9039.0, -2.338e-08
9041.0, -2.347e-08
9043.0, -2.454e-08
9045.0, -2.379e-08
9047.0, -2.467e-08
9049.0, -2.583e-08
9051.0, -2.289e-08
9053.0, -2.575e-08
9055.0, -2.166e-08
9057.0, -2.324e-08
9059.0, -1.812e-08
9061.1, -1.782e-08
9063.1, -2.091e-08
9065.1, -2.348e-08
9067.1, -2.097e-08
9069.1, -2.308e-08
9071.1, -2.198e-08
9073.1, -2.418e-08
9075.1, -2.654e-08
9077.1, -2.536e-08
9079.1, -2.413e-08
9081.1, -2.728e-08
9083.1, -2.714e-08
9085.1, -2.394e-08
9087.1, -2.617e-08
9089.1, -2.11e-08
9091.1, -2.14e-08
9093.1, -1.882e-08
9095.1, -2.266e-08
9097.1, -2.228e-08
9099.1, -1.957e-08
9101.1, -2.316e-08
9103.1, -2.36e-08
9105.1, -2.487e-08
9107.1, -2.405e-08
9109.1, -2.537e-08
9111.1, -2.45e-08
9113.1, -2.222e-08
9115.1, -2.323e-08
9117.1, -2.174e-08
9119.1, -2.411e-08
9121.1, -3.117e-08
9123.1, -2.661e-08
9125.1, -2.599e-08
9127.1, -2.44e-08
9129.1, -2.195e-08
9131.1, -2.484e-08
9133.1, -2.316e-08
9135.1, -2.376e-08
9137.1, -2.494e-08
9139.1, -2.018e-08
9141.1, -2.329e-08
9143.1, -2.161e-08
9145.1, -2.323e-08
9147.1, -2.629e-08
9149.1, -2.165e-08
9151.1, -2.329e-08
9153.1, -2.45e-08
9155.1, -2.345e-08
9157.1, -2.188e-08
9159.1, -2.449e-08
9161.2, -2.117e-08
9163.2, -2.195e-08
9165.2, -1.957e-08
9167.2, -2.277e-08
9169.2, -2.499e-08
9171.2, -2.047e-08
9173.2, -2.033e-08
9175.2, -2.182e-08
9177.2, -2.317e-08
9179.2, -2.298e-08
9181.2, -2.538e-08
9183.2, -2.332e-08
9185.2, -2.184e-08
9187.2, -2.236e-08
9189.2, -2.263e-08
9191.2, -2.611e-08
9193.2, -2.462e-08
9195.2, -2.222e-08
9197.2, -2.395e-08
9199.2, -2.504e-08
9201.2, -2.399e-08
9203.2, -2.447e-08
9205.2, -2.66e-08
9207.2, -2.625e-08
9209.2, -2.721e-08
9211.2, -2.355e-08
9213.2, -2.55e-08
9215.2, -2.639e-08
9217.2, -2.456e-08
9219.2, -2.602e-08
9221.2, -2.22e-08
9223.2, -2.265e-08
9225.2, -2.235e-08
9227.2, -2.599e-08
9229.2, -2.493e-08
9231.2, -2.51e-08
9233.2, -2.58e-08
9235.2, -2.598e-08
9237.2, -2.294e-08
9239.2, -2.235e-08
9241.2, -2.14e-08
9243.2, -2.279e-08
9245.2, -2.577e-08
9247.2, -2.543e-08
9249.2, -2.622e-08
9251.2, -2.456e-08
9253.2, -1.796e-08
9255.2, -2.158e-08
9257.2, -2.077e-08
9259.2, -2.518e-08
9261.3, -2.514e-08
9263.3, -2.547e-08
9265.3, -2.516e-08
9267.3, -2.135e-08
9269.3, -2.57e-08
9271.3, -2.419e-08
9273.3, -2.408e-08
9275.3, -2.357e-08
9277.3, -1.987e-08
9279.3, -2.111e-08
9281.3, -2.288e-08
9283.3, -2.438e-08
9285.3, -2.573e-08
9287.3, -2.593e-08
9289.3, -2.22e-08
9291.3, -2.759e-08
9293.3, -2.434e-08
9295.3, -2.639e-08
9297.3, -2.566e-08
9299.3, -2.645e-08
9301.3, -2.345e-08
9303.3, -2.395e-08
9305.3, -2.642e-08
9307.3, -2.382e-08
9309.3, -2.231e-08
9311.3, -2.27e-08
9313.3, -1.936e-08
9315.3, -2.156e-08
9317.3, -2.294e-08
9319.3, -2.24e-08
9321.3, -2.036e-08
9323.3, -2.029e-08
9325.3, -2.277e-08
9327.3, -2.471e-08
9329.3, -2.498e-08
9331.3, -2.55e-08
9333.3, -2.339e-08
9335.3, -2.409e-08
9337.3, -2.584e-08
9339.3, -2.452e-08
9341.3, -2.464e-08
9343.3, -2.511e-08
9345.3, -2.982e-08
9347.3, -2.777e-08
9349.3, -3.039e-08
9351.3, -2.852e-08
9353.3, -2.862e-08
9355.3, -2.773e-08
9357.3, -2.591e-08
9359.3, -2.494e-08
9361.4, -2.868e-08
9363.4, -2.801e-08
9365.4, -2.303e-08
9367.4, -2.479e-08
9369.4, -2.399e-08
9371.4, -2.655e-08
9373.4, -2.528e-08
9375.4, -2.82e-08
9377.4, -2.728e-08
9379.4, -2.684e-08
9381.4, -2.463e-08
9383.4, -2.565e-08
9385.4, -2.566e-08
9387.4, -2.61e-08
9389.4, -2.778e-08
9391.4, -2.689e-08
9393.4, -2.758e-08
9395.4, -2.444e-08
9397.4, -2.579e-08
9399.4, -2.541e-08
9401.4, -2.216e-08
9403.4, -2.567e-08
9405.4, -2.121e-08
9407.4, -2.409e-08
9409.4, -2.76e-08
9411.4, -2.695e-08
9413.4, -2.221e-08
9415.4, -2.518e-08
9417.4, -2.567e-08
9419.4, -2.249e-08
9421.4, -1.883e-08
9423.4, -2.185e-08
9425.4, -1.991e-08
9427.4, -2.36e-08
9429.4, -2.377e-08
9431.4, -2.13e-08
9433.4, -2.183e-08
9435.4, -2.352e-08
9437.4, -2.422e-08
9439.4, -2.322e-08
9441.4, -2.378e-08
9443.4, -2.401e-08
9445.4, -2.409e-08
9447.4, -2.4e-08
9449.4, -2.335e-08
9451.4, -2.103e-08
9453.4, -2.387e-08
9455.4, -2.331e-08
9457.4, -2.379e-08
9459.4, -1.96e-08
9461.5, -2.591e-08
9463.5, -2.089e-08
9465.5, -2.603e-08
9467.5, -2.18e-08
9469.5, -2.168e-08
9471.5, -2.622e-08
9473.5, -2.472e-08
9475.5, -2.028e-08
9477.5, -2.157e-08
9479.5, -2.377e-08
9481.5, -2.49e-08
9483.5, -2.457e-08
9485.5, -2.281e-08
9487.5, -2.196e-08
9489.5, -2.319e-08
9491.5, -2.503e-08
9493.5, -2.21e-08
9495.5, -2.26e-08
9497.5, -1.935e-08
9499.5, -2.169e-08
9501.5, -2.008e-08
9503.5, -2.134e-08
9505.5, -1.993e-08
9507.5, -2.321e-08
9509.5, -2.328e-08
9511.5, -2.488e-08
9513.5, -2.688e-08
9515.5, -2.907e-08
9517.5, -2.351e-08
9519.5, -2.077e-08
9521.5, -2.338e-08
9523.5, -2.581e-08
9525.5, -2.513e-08
9527.5, -2.621e-08
9529.5, -2.698e-08
9531.5, -2.478e-08
9533.5, -2.318e-08
9535.5, -2.618e-08
9537.5, -2.565e-08
9539.5, -2.654e-08
9541.5, -2.26e-08
9543.5, -2.373e-08
9545.5, -2.552e-08
9547.5, -2.442e-08
9549.5, -2.51e-08
9551.5, -2.426e-08
9553.5, -1.898e-08
9555.5, -2.428e-08
9557.5, -2.076e-08
9559.5, -2.272e-08
9561.6, -2.416e-08
9563.6, -2.228e-08
9565.6, -2.003e-08
9567.6, -2.516e-08
9569.6, -1.933e-08
9571.6, -1.943e-08
9573.6, -2.207e-08
9575.6, -1.974e-08
9577.6, -2.3e-08
9579.6, -2.215e-08
9581.6, -2.253e-08
9583.6, -2.188e-08
9585.6, -2.521e-08
9587.6, -2.128e-08
9589.6, -2.071e-08
9591.6, -2.551e-08
9593.6, -2.273e-08
9595.6, -2.118e-08
9597.6, -1.837e-08
9599.6, -2.377e-08
9601.6, -2.23e-08
9603.6, -2.117e-08
9605.6, -1.886e-08
9607.6, -1.775e-08
9609.6, -1.87e-08
9611.6, -2.003e-08
9613.6, -1.931e-08
9615.6, -2.483e-08
9617.6, -1.892e-08
9619.6, -1.932e-08
9621.6, -2.27e-08
9623.6, -2.499e-08
9625.6, -2.226e-08
9627.6, -2.368e-08
9629.6, -2.272e-08
9631.6, -2.157e-08
9633.6, -2.399e-08
9635.6, -2.42e-08
9637.6, -2.493e-08
9639.6, -2.4e-08
9641.6, -2.563e-08
9643.6, -2.661e-08
9645.6, -2.731e-08
9647.6, -2.324e-08
9649.6, -2.399e-08
9651.6, -2.35e-08
9653.6, -2.341e-08
9655.6, -2.617e-08
9657.6, -2.245e-08
9659.6, -2.338e-08
9661.7, -2.565e-08
9663.7, -2.423e-08
9665.7, -2.437e-08
9667.7, -2.628e-08
9669.7, -2.07e-08
9671.7, -2.358e-08
9673.7, -1.979e-08
9675.7, -2.316e-08
9677.7, -2.346e-08
9679.7, -2.118e-08
9681.7, -2.133e-08
9683.7, -2.138e-08
9685.7, -2.43e-08
9687.7, -2.292e-08
9689.7, -1.917e-08
9691.7, -2.238e-08
9693.7, -2.425e-08
9695.7, -2.422e-08
9697.7, -2.532e-08
9699.7, -2.56e-08
9701.7, -2.667e-08
9703.7, -2.625e-08
9705.7, -2.598e-08
9707.7, -2.425e-08
9709.7, -2.545e-08
9711.7, -2.365e-08
9713.7, -2.411e-08
9715.7, -2.306e-08
9717.7, -2.719e-08
9719.7, -2.486e-08
9721.7, -2.415e-08
9723.7, -2.523e-08
9725.7, -2.778e-08
9727.7, -2.661e-08
9729.7, -2.648e-08
9731.7, -2.77e-08
9733.7, -2.596e-08
9735.7, -2.488e-08
9737.7, -2.635e-08
9739.7, -2.228e-08
9741.7, -2.705e-08
9743.7, -2.63e-08
9745.7, -2.675e-08
9747.7, -2.83e-08
9749.7, -2.468e-08
9751.7, -2.313e-08
9753.7, -2.599e-08
9755.7, -2.768e-08
9757.7, -2.525e-08
9759.7, -2.642e-08
9761.8, -2.751e-08
9763.8, -2.599e-08
9765.8, -2.343e-08
9767.8, -2.787e-08
9769.8, -2.22e-08
9771.8, -2.521e-08
9773.8, -2.401e-08
9775.8, -2.49e-08
9777.8, -2.547e-08
9779.8, -2.003e-08
9781.8, -2.638e-08
9783.8, -2.524e-08
9785.8, -2.131e-08
9787.8, -2.272e-08
9789.8, -2.145e-08
9791.8, -1.919e-08
9793.8, -2.008e-08
9795.8, -2.697e-08
9797.8, -2.203e-08
9799.8, -2.054e-08
9801.8, -2.101e-08
9803.8, -2.477e-08
9805.8, -2.359e-08
9807.8, -2.37e-08
9809.8, -2.098e-08
9811.8, -1.985e-08
9813.8, -2.087e-08
9815.8, -2.555e-08
9817.8, -2.319e-08
9819.8, -2.354e-08
9821.8, -2.426e-08
9823.8, -2.402e-08
9825.8, -2.521e-08
9827.8, -2.435e-08
9829.8, -2.265e-08
9831.8, -2.27e-08
9833.8, -2.41e-08
9835.8, -2.037e-08
9837.8, -2.463e-08
9839.8, -2.094e-08
9841.8, -2.079e-08
9843.8, -2.119e-08
9845.8, -2.044e-08
9847.8, -2.146e-08
9849.8, -2.349e-08
9851.8, -2.335e-08
9853.8, -2.372e-08
9855.8, -2.127e-08
9857.8, -2.173e-08
9859.8, -2.148e-08
9861.9, -2.27e-08
9863.9, -2.34e-08
9865.9, -2.353e-08
9867.9, -2.191e-08
9869.9, -2.066e-08
9871.9, -2.28e-08
9873.9, -2.295e-08
9875.9, -2.332e-08
9877.9, -2.679e-08
9879.9, -2.214e-08
9881.9, -2.167e-08
9883.9, -2.289e-08
9885.9, -2.2e-08
9887.9, -2.09e-08
9889.9, -2.002e-08
9891.9, -2.371e-08
9893.9, -2.587e-08
9895.9, -2.094e-08
9897.9, -2.178e-08
9899.9, -2.068e-08
9901.9, -2.042e-08
9903.9, -1.631e-08
9905.9, -2.297e-08
9907.9, -2.379e-08
9909.9, -2.196e-08
9911.9, -2.028e-08
9913.9, -1.918e-08
9915.9, -2.165e-08
9917.9, -1.869e-08
9919.9, -2.038e-08
9921.9, -2.263e-08
9923.9, -2.152e-08
9925.9, -2.455e-08
9927.9, -2.154e-08
9929.9, -2.01e-08
9931.9, -2.159e-08
9933.9, -2.442e-08
9935.9, -1.916e-08
9937.9, -1.896e-08
9939.9, -2.086e-08
9941.9, -2.136e-08
9943.9, -2.054e-08
9945.9, -1.89e-08
9947.9, -2.314e-08
9949.9, -2.264e-08
9951.9, -2.124e-08
9953.9, -2.434e-08
9955.9, -2.282e-08
9957.9, -2.814e-08
9959.9, -1.845e-08
9962.0, -2.29e-08
9964.0, -2.254e-08
9966.0, -2.333e-08
9968.0, -2.123e-08
9970.0, -1.949e-08
9972.0, -1.838e-08
9974.0, -1.989e-08
9976.0, -2.033e-08
9978.0, -1.894e-08
9980.0, -2.147e-08
9982.0, -1.897e-08
9984.0, -1.936e-08
9986.0, -2.01e-08
9988.0, -2.209e-08
9990.0, -2.042e-08
9992.0, -2.116e-08
9994.0, -2.358e-08
9996.0, -2.324e-08
9998.0, -2.162e-08
10000.0, -2.002e-08
10002.0, -2.473e-08
10004.0, -2.1e-08
10006.0, -2.161e-08
10008.0, -1.948e-08
