Time sep (ms?), Current (A)
0.0, -2.77e-08
2.002, -3.123e-08
4.004, -2.99e-08
6.006, -2.663e-08
8.008, -2.621e-08
10.01, -2.733e-08
12.012, -2.625e-08
14.014, -2.801e-08
16.016, -3.029e-08
18.018, -2.648e-08
20.02, -2.505e-08
22.022, -2.535e-08
24.024, -2.571e-08
26.026, -2.581e-08
28.028, -2.634e-08
30.03, -2.529e-08
32.032, -2.372e-08
34.034, -2.868e-08
36.036, -2.326e-08
38.038, -2.447e-08
40.04, -2.683e-08
42.042, -2.725e-08
44.044, -2.663e-08
46.046, -2.599e-08
48.048, -2.834e-08
50.05, -2.822e-08
52.052, -3e-08
54.054, -2.778e-08
56.056, -2.558e-08
58.058, -3.107e-08
60.06, -3.052e-08
62.062, -3.13e-08
64.064, -2.61e-08
66.066, -2.591e-08
68.068, -2.97e-08
70.07, -2.597e-08
72.072, -2.947e-08
74.074, -2.678e-08
76.076, -2.675e-08
78.078, -2.359e-08
80.08, -2.442e-08
82.082, -2.657e-08
84.084, -2.719e-08
86.086, -2.459e-08
88.088, -2.678e-08
90.09, -2.649e-08
92.092, -2.846e-08
94.094, -2.662e-08
96.096, -2.604e-08
98.098, -2.64e-08
100.1, -2.565e-08
102.1, -2.851e-08
104.1, -2.601e-08
106.11, -2.305e-08
108.11, -2.596e-08
110.11, -2.363e-08
112.11, -2.833e-08
114.11, -2.811e-08
116.12, -2.974e-08
118.12, -2.556e-08
120.12, -2.754e-08
122.12, -2.951e-08
124.12, -3.156e-08
126.13, -2.364e-08
128.13, -2.405e-08
130.13, -2.655e-08
132.13, -2.429e-08
134.13, -2.442e-08
136.14, -2.509e-08
138.14, -2.628e-08
140.14, -2.675e-08
142.14, -2.584e-08
144.14, -2.527e-08
146.15, -2.601e-08
148.15, -2.564e-08
150.15, -2.234e-08
152.15, -2.081e-08
154.15, -2.293e-08
156.16, -1.998e-08
158.16, -2.328e-08
160.16, -2.407e-08
162.16, -2.427e-08
164.16, -2.22e-08
166.17, -2.315e-08
168.17, -2.585e-08
170.17, -2.806e-08
172.17, -2.556e-08
174.17, -2.888e-08
176.18, -2.788e-08
178.18, -2.431e-08
180.18, -2.718e-08
182.18, -2.789e-08
184.18, -2.847e-08
186.19, -2.51e-08
188.19, -3.293e-08
190.19, -2.9e-08
192.19, -3.152e-08
194.19, -3.035e-08
196.2, -3.007e-08
198.2, -2.794e-08
200.2, -2.871e-08
202.2, -2.337e-08
204.2, -2.588e-08
206.21, -2.861e-08
208.21, -2.884e-08
210.21, -2.756e-08
212.21, -2.654e-08
214.21, -2.477e-08
216.22, -2.483e-08
218.22, -2.408e-08
220.22, -2.349e-08
222.22, -2.373e-08
224.22, -2.361e-08
226.23, -2.52e-08
228.23, -2.649e-08
230.23, -2.581e-08
232.23, -2.476e-08
234.23, -2.124e-08
236.24, -2.399e-08
238.24, -2.413e-08
240.24, -2.561e-08
242.24, -2.487e-08
244.24, -2.791e-08
246.25, -1.995e-08
248.25, -2.626e-08
250.25, -2.833e-08
252.25, -2.759e-08
254.25, -2.628e-08
256.26, -2.44e-08
258.26, -2.169e-08
260.26, -2.744e-08
262.26, -2.523e-08
264.26, -2.275e-08
266.27, -2.374e-08
268.27, -2.477e-08
270.27, -2.178e-08
272.27, -2.372e-08
274.27, -2.603e-08
276.28, -2.674e-08
278.28, -2.62e-08
280.28, -2.57e-08
282.28, -2.233e-08
284.28, -2.401e-08
286.29, -2.334e-08
288.29, -2.503e-08
290.29, -2.25e-08
292.29, -1.975e-08
294.29, -2.078e-08
296.3, -2.587e-08
298.3, -2.272e-08
300.3, -2.146e-08
302.3, -2.489e-08
304.3, -2.764e-08
306.31, -2.439e-08
308.31, -2.803e-08
310.31, -2.446e-08
312.31, -2.676e-08
314.31, -2.699e-08
316.32, -2.679e-08
318.32, -2.62e-08
320.32, -2.658e-08
322.32, -2.315e-08
324.32, -2.352e-08
326.33, -2.61e-08
328.33, -2.556e-08
330.33, -2.654e-08
332.33, -2.545e-08
334.33, -2.163e-08
336.34, -2.292e-08
338.34, -2.705e-08
340.34, -2.711e-08
342.34, -2.501e-08
344.34, -2.842e-08
346.35, -2.864e-08
348.35, -2.774e-08
350.35, -2.478e-08
352.35, -2.868e-08
354.35, -3.183e-08
356.36, -2.748e-08
358.36, -2.896e-08
360.36, -2.813e-08
362.36, -2.281e-08
364.36, -2.554e-08
366.37, -2.413e-08
368.37, -2.855e-08
370.37, -2.732e-08
372.37, -2.477e-08
374.37, -2.678e-08
376.38, -2.863e-08
378.38, -2.866e-08
380.38, -2.769e-08
382.38, -2.784e-08
384.38, -2.897e-08
386.39, -2.839e-08
388.39, -3.034e-08
390.39, -2.947e-08
392.39, -2.982e-08
394.39, -2.591e-08
396.4, -2.981e-08
398.4, -2.912e-08
400.4, -2.471e-08
402.4, -2.564e-08
404.4, -2.788e-08
406.41, -2.665e-08
408.41, -2.797e-08
410.41, -3.304e-08
412.41, -3.224e-08
414.41, -3.081e-08
416.42, -2.508e-08
418.42, -2.872e-08
420.42, -2.889e-08
422.42, -2.77e-08
424.42, -2.977e-08
426.43, -3.069e-08
428.43, -2.83e-08
430.43, -2.85e-08
432.43, -2.732e-08
434.43, -2.363e-08
436.44, -2.604e-08
438.44, -2.467e-08
440.44, -2.58e-08
442.44, -2.532e-08
444.44, -2.76e-08
446.45, -3.032e-08
448.45, -2.842e-08
450.45, -3.022e-08
452.45, -2.518e-08
454.45, -2.959e-08
456.46, -2.784e-08
458.46, -2.618e-08
460.46, -2.837e-08
462.46, -2.512e-08
464.46, -2.756e-08
466.47, -2.562e-08
468.47, -2.796e-08
470.47, -2.726e-08
472.47, -2.638e-08
474.47, -2.65e-08
476.48, -2.491e-08
478.48, -2.684e-08
480.48, -2.895e-08
482.48, -3.122e-08
484.48, -2.93e-08
486.49, -2.927e-08
488.49, -2.719e-08
490.49, -2.76e-08
492.49, -2.802e-08
494.49, -2.561e-08
496.5, -2.846e-08
498.5, -3.12e-08
500.5, -3.17e-08
502.5, -2.978e-08
504.5, -3.271e-08
506.51, -2.93e-08
508.51, -3.017e-08
510.51, -3.357e-08
512.51, -3.009e-08
514.51, -3.029e-08
516.52, -3.166e-08
518.52, -3.025e-08
520.52, -3.431e-08
522.52, -3.32e-08
524.52, -3.406e-08
526.53, -2.878e-08
528.53, -2.963e-08
530.53, -3.226e-08
532.53, -3.069e-08
534.53, -3.136e-08
536.54, -3.05e-08
538.54, -3.155e-08
540.54, -3.033e-08
542.54, -2.836e-08
544.54, -2.961e-08
546.55, -2.706e-08
548.55, -2.388e-08
550.55, -3.267e-08
552.55, -2.898e-08
554.55, -2.783e-08
556.56, -3.065e-08
558.56, -2.627e-08
560.56, -2.426e-08
562.56, -2.335e-08
564.56, -2.639e-08
566.57, -2.453e-08
568.57, -2.72e-08
570.57, -2.543e-08
572.57, -2.873e-08
574.57, -3.019e-08
576.58, -2.385e-08
578.58, -3.065e-08
580.58, -2.909e-08
582.58, -3.038e-08
584.58, -2.896e-08
586.59, -3.254e-08
588.59, -3.045e-08
590.59, -2.993e-08
592.59, -3.187e-08
594.59, -2.292e-08
596.6, -2.784e-08
598.6, -2.918e-08
600.6, -2.779e-08
602.6, -3.226e-08
604.6, -3.069e-08
606.61, -2.763e-08
608.61, -2.486e-08
610.61, -2.954e-08
612.61, -2.995e-08
614.61, -2.532e-08
616.62, -2.715e-08
618.62, -2.69e-08
620.62, -2.514e-08
622.62, -2.952e-08
624.62, -2.823e-08
626.63, -3.181e-08
628.63, -2.899e-08
630.63, -3.434e-08
632.63, -3.285e-08
634.63, -3.509e-08
636.64, -3.488e-08
638.64, -3.387e-08
640.64, -3.361e-08
642.64, -3.497e-08
644.64, -3.283e-08
646.65, -3.407e-08
648.65, -3.174e-08
650.65, -3.42e-08
652.65, -3.007e-08
654.65, -3.004e-08
656.66, -3.194e-08
658.66, -2.777e-08
660.66, -3.062e-08
662.66, -3.022e-08
664.66, -3.155e-08
666.67, -3.082e-08
668.67, -2.771e-08
670.67, -2.888e-08
672.67, -2.862e-08
674.67, -3.287e-08
676.68, -3.158e-08
678.68, -2.959e-08
680.68, -2.784e-08
682.68, -2.706e-08
684.68, -2.532e-08
686.69, -2.769e-08
688.69, -3.067e-08
690.69, -2.714e-08
692.69, -2.689e-08
694.69, -2.624e-08
696.7, -2.926e-08
698.7, -2.909e-08
700.7, -2.716e-08
702.7, -2.309e-08
704.7, -2.868e-08
706.71, -2.75e-08
708.71, -3.169e-08
710.71, -2.888e-08
712.71, -2.795e-08
714.71, -2.895e-08
716.72, -2.717e-08
718.72, -2.853e-08
720.72, -2.837e-08
722.72, -2.874e-08
724.72, -2.662e-08
726.73, -2.798e-08
728.73, -2.999e-08
730.73, -3.027e-08
732.73, -2.882e-08
734.73, -2.861e-08
736.74, -2.485e-08
738.74, -2.816e-08
740.74, -2.693e-08
742.74, -2.893e-08
744.74, -2.637e-08
746.75, -2.866e-08
748.75, -2.689e-08
750.75, -2.939e-08
752.75, -2.913e-08
754.75, -2.907e-08
756.76, -2.719e-08
758.76, -3.064e-08
760.76, -3.207e-08
762.76, -3.315e-08
764.76, -2.615e-08
766.77, -3e-08
768.77, -2.698e-08
770.77, -2.853e-08
772.77, -3.25e-08
774.77, -2.873e-08
776.78, -2.972e-08
778.78, -2.793e-08
780.78, -2.861e-08
782.78, -2.891e-08
784.78, -2.914e-08
786.79, -3.158e-08
788.79, -2.758e-08
790.79, -2.914e-08
792.79, -2.642e-08
794.79, -2.831e-08
796.8, -2.714e-08
798.8, -2.561e-08
800.8, -2.583e-08
802.8, -2.461e-08
804.8, -2.769e-08
806.81, -2.845e-08
808.81, -2.869e-08
810.81, -3e-08
812.81, -2.677e-08
814.81, -2.703e-08
816.82, -2.818e-08
818.82, -3.1e-08
820.82, -2.809e-08
822.82, -2.838e-08
824.82, -2.947e-08
826.83, -2.669e-08
828.83, -2.681e-08
830.83, -2.791e-08
832.83, -2.898e-08
834.83, -2.583e-08
836.84, -2.747e-08
838.84, -2.848e-08
840.84, -3.063e-08
842.84, -2.98e-08
844.84, -2.959e-08
846.85, -2.724e-08
848.85, -2.683e-08
850.85, -2.67e-08
852.85, -2.626e-08
854.85, -2.626e-08
856.86, -2.207e-08
858.86, -2.541e-08
860.86, -2.679e-08
862.86, -3.099e-08
864.86, -3.082e-08
866.87, -3.014e-08
868.87, -2.813e-08
870.87, -2.731e-08
872.87, -2.852e-08
874.87, -2.631e-08
876.88, -2.624e-08
878.88, -2.242e-08
880.88, -2.137e-08
882.88, -2.393e-08
884.88, -2.303e-08
886.89, -2.397e-08
888.89, -2.443e-08
890.89, -2.251e-08
892.89, -2.473e-08
894.89, -2.486e-08
896.9, -2.246e-08
898.9, -2.751e-08
900.9, -2.7e-08
902.9, -2.648e-08
904.9, -2.628e-08
906.91, -2.993e-08
908.91, -2.812e-08
910.91, -2.568e-08
912.91, -2.704e-08
914.91, -2.817e-08
916.92, -2.694e-08
918.92, -2.949e-08
920.92, -2.981e-08
922.92, -3.123e-08
924.92, -3.074e-08
926.93, -3.094e-08
928.93, -2.903e-08
930.93, -3.103e-08
932.93, -2.703e-08
934.93, -2.523e-08
936.94, -2.581e-08
938.94, -2.465e-08
940.94, -2.813e-08
942.94, -2.917e-08
944.94, -2.55e-08
946.95, -2.691e-08
948.95, -2.694e-08
950.95, -3.008e-08
952.95, -2.98e-08
954.95, -2.739e-08
956.96, -2.899e-08
958.96, -2.885e-08
960.96, -2.963e-08
962.96, -2.347e-08
964.96, -2.551e-08
966.97, -2.624e-08
968.97, -2.484e-08
970.97, -2.809e-08
972.97, -2.775e-08
974.97, -3.18e-08
976.98, -2.823e-08
978.98, -2.858e-08
980.98, -2.977e-08
982.98, -2.864e-08
984.98, -2.892e-08
986.99, -3.01e-08
988.99, -3.243e-08
990.99, -2.835e-08
992.99, -2.696e-08
994.99, -3.092e-08
997.0, -3.04e-08
999.0, -2.785e-08
1001.0, -2.392e-08
1003.0, -2.376e-08
1005.0, -2.49e-08
1007.0, -2.35e-08
1009.0, -2.443e-08
1011.0, -2.831e-08
1013.0, -2.502e-08
1015.0, -2.282e-08
1017.0, -2.316e-08
1019.0, -2.33e-08
1021.0, -2.961e-08
1023.0, -3.079e-08
1025.0, -3.031e-08
1027.0, -2.899e-08
1029.0, -2.455e-08
1031.0, -2.519e-08
1033.0, -2.617e-08
1035.0, -2.724e-08
1037.0, -2.586e-08
1039.0, -2.762e-08
1041.0, -2.495e-08
1043.0, -2.546e-08
1045.0, -2.401e-08
1047.0, -2.366e-08
1049.0, -2.508e-08
1051.0, -2.549e-08
1053.1, -2.53e-08
1055.1, -2.246e-08
1057.1, -2.677e-08
1059.1, -2.612e-08
1061.1, -2.713e-08
1063.1, -2.554e-08
1065.1, -2.579e-08
1067.1, -2.571e-08
1069.1, -2.106e-08
1071.1, -2.257e-08
1073.1, -2.425e-08
1075.1, -2.835e-08
1077.1, -3.142e-08
1079.1, -2.733e-08
1081.1, -2.303e-08
1083.1, -2.73e-08
1085.1, -2.937e-08
1087.1, -2.828e-08
1089.1, -2.811e-08
1091.1, -2.533e-08
1093.1, -2.26e-08
1095.1, -2.34e-08
1097.1, -2.516e-08
1099.1, -2.72e-08
1101.1, -2.47e-08
1103.1, -2.438e-08
1105.1, -2.101e-08
1107.1, -2.462e-08
1109.1, -2.7e-08
1111.1, -2.302e-08
1113.1, -2.524e-08
1115.1, -2.731e-08
1117.1, -2.975e-08
1119.1, -2.706e-08
1121.1, -2.613e-08
1123.1, -2.722e-08
1125.1, -2.289e-08
1127.1, -2.877e-08
1129.1, -2.559e-08
1131.1, -2.515e-08
1133.1, -2.435e-08
1135.1, -2.193e-08
1137.1, -2.351e-08
1139.1, -2.745e-08
1141.1, -2.997e-08
1143.1, -3.025e-08
1145.1, -2.881e-08
1147.1, -2.621e-08
1149.1, -2.771e-08
1151.1, -2.777e-08
1153.2, -2.912e-08
1155.2, -2.526e-08
1157.2, -3.063e-08
1159.2, -2.914e-08
1161.2, -2.915e-08
1163.2, -2.614e-08
1165.2, -2.652e-08
1167.2, -2.348e-08
1169.2, -2.542e-08
1171.2, -2.544e-08
1173.2, -2.716e-08
1175.2, -2.78e-08
1177.2, -2.72e-08
1179.2, -2.214e-08
1181.2, -2.744e-08
1183.2, -2.683e-08
1185.2, -2.707e-08
1187.2, -2.504e-08
1189.2, -2.637e-08
1191.2, -2.927e-08
1193.2, -2.742e-08
1195.2, -2.759e-08
1197.2, -2.832e-08
1199.2, -2.993e-08
1201.2, -3.526e-08
1203.2, -3.303e-08
1205.2, -3.357e-08
1207.2, -3.435e-08
1209.2, -3.072e-08
1211.2, -3.575e-08
1213.2, -3.473e-08
1215.2, -3.026e-08
1217.2, -3.23e-08
1219.2, -3.394e-08
1221.2, -3.243e-08
1223.2, -3.072e-08
1225.2, -2.946e-08
1227.2, -2.861e-08
1229.2, -2.919e-08
1231.2, -2.965e-08
1233.2, -2.909e-08
1235.2, -3.185e-08
1237.2, -3.264e-08
1239.2, -3.36e-08
1241.2, -3.4e-08
1243.2, -2.975e-08
1245.2, -3.327e-08
1247.2, -3.041e-08
1249.2, -3.186e-08
1251.2, -3.026e-08
1253.3, -2.759e-08
1255.3, -2.777e-08
1257.3, -2.917e-08
1259.3, -2.767e-08
1261.3, -3.119e-08
1263.3, -2.888e-08
1265.3, -3.004e-08
1267.3, -3.178e-08
1269.3, -2.972e-08
1271.3, -2.983e-08
1273.3, -3.086e-08
1275.3, -2.996e-08
1277.3, -2.945e-08
1279.3, -3.429e-08
1281.3, -3.065e-08
1283.3, -3.314e-08
1285.3, -3.097e-08
1287.3, -3.114e-08
1289.3, -3.372e-08
1291.3, -3.195e-08
1293.3, -2.838e-08
1295.3, -3.471e-08
1297.3, -3.254e-08
1299.3, -3.101e-08
1301.3, -3.231e-08
1303.3, -3.476e-08
1305.3, -3.333e-08
1307.3, -3.56e-08
1309.3, -3.079e-08
1311.3, -3.32e-08
1313.3, -3.096e-08
1315.3, -3.358e-08
1317.3, -2.936e-08
1319.3, -3.387e-08
1321.3, -3.264e-08
1323.3, -3.5e-08
1325.3, -2.897e-08
1327.3, -3.149e-08
1329.3, -3.259e-08
1331.3, -3.148e-08
1333.3, -2.982e-08
1335.3, -3.099e-08
1337.3, -2.995e-08
1339.3, -3.012e-08
1341.3, -2.892e-08
1343.3, -2.619e-08
1345.3, -2.736e-08
1347.3, -2.571e-08
1349.3, -2.845e-08
1351.3, -2.594e-08
1353.4, -2.366e-08
1355.4, -2.643e-08
1357.4, -2.673e-08
1359.4, -2.878e-08
1361.4, -2.607e-08
1363.4, -2.789e-08
1365.4, -2.762e-08
1367.4, -2.742e-08
1369.4, -2.787e-08
1371.4, -2.801e-08
1373.4, -2.753e-08
1375.4, -3.17e-08
1377.4, -2.828e-08
1379.4, -2.898e-08
1381.4, -3.06e-08
1383.4, -2.918e-08
1385.4, -2.859e-08
1387.4, -2.793e-08
1389.4, -2.936e-08
1391.4, -3.178e-08
1393.4, -2.735e-08
1395.4, -3.079e-08
1397.4, -3.124e-08
1399.4, 4.1644e-07
1401.4, 3.4189e-07
1403.4, 3.6631e-07
1405.4, 3.3957e-07
1407.4, 3.7897e-07
1409.4, 3.9675e-07
1411.4, 4.0333e-07
1413.4, 3.6655e-07
1415.4, 3.6966e-07
1417.4, 4.0994e-07
1419.4, 4.0803e-07
1421.4, 3.6919e-07
1423.4, 3.8908e-07
1425.4, 3.4334e-07
1427.4, 3.6746e-07
1429.4, 3.5361e-07
1431.4, 3.9011e-07
1433.4, 3.6342e-07
1435.4, 3.5632e-07
1437.4, 3.6886e-07
1439.4, 3.5182e-07
1441.4, 3.8908e-07
1443.4, 3.6099e-07
1445.4, 3.8855e-07
1447.4, 3.8781e-07
1449.4, 4.0469e-07
1451.4, 3.6963e-07
1453.5, 3.5007e-07
1455.5, 3.8619e-07
1457.5, 3.5564e-07
1459.5, 3.334e-07
1461.5, 4.0529e-07
1463.5, 3.8084e-07
1465.5, 3.9093e-07
1467.5, 3.7058e-07
1469.5, 3.3817e-07
1471.5, 4.1946e-07
1473.5, 3.6262e-07
1475.5, 4.2472e-07
1477.5, 3.7332e-07
1479.5, 4.4985e-07
1481.5, 3.8994e-07
1483.5, 4.2763e-07
1485.5, 3.8976e-07
1487.5, 3.7392e-07
1489.5, 4.1589e-07
1491.5, 4.1171e-07
1493.5, 4.4423e-07
1495.5, 3.8363e-07
1497.5, 3.7892e-07
1499.5, 4.0443e-07
1501.5, 3.8735e-07
1503.5, 4.5677e-07
1505.5, 4.2215e-07
1507.5, 4.0748e-07
1509.5, 4.3721e-07
1511.5, 3.655e-07
1513.5, 4.2392e-07
1515.5, 4.0045e-07
1517.5, 4.1741e-07
1519.5, 4.1318e-07
1521.5, 4.0306e-07
1523.5, 3.6629e-07
1525.5, 4.0082e-07
1527.5, 4.5544e-07
1529.5, 3.8809e-07
1531.5, 4.369e-07
1533.5, 4.1697e-07
1535.5, 3.7738e-07
1537.5, 4.1704e-07
1539.5, 3.8414e-07
1541.5, 3.9352e-07
1543.5, 4.3041e-07
1545.5, 4.3784e-07
1547.5, 4.2135e-07
1549.5, 4.5636e-07
1551.5, 3.9938e-07
1553.6, 4.28e-07
1555.6, 4.4001e-07
1557.6, 4.0833e-07
1559.6, 4.1665e-07
1561.6, 3.8334e-07
1563.6, 4.4125e-07
1565.6, 4.3921e-07
1567.6, 4.0997e-07
1569.6, 4.7978e-07
1571.6, 4.4827e-07
1573.6, 4.2392e-07
1575.6, 4.4666e-07
1577.6, 4.1388e-07
1579.6, 4.323e-07
1581.6, 3.6509e-07
1583.6, 4.0462e-07
1585.6, 4.1495e-07
1587.6, 3.7991e-07
1589.6, 4.442e-07
1591.6, 3.9946e-07
1593.6, 3.993e-07
1595.6, 3.8699e-07
1597.6, 4.4035e-07
1599.6, 4.1221e-07
1601.6, 3.8912e-07
1603.6, 4.2623e-07
1605.6, 4.3489e-07
1607.6, 3.9079e-07
1609.6, 3.9222e-07
1611.6, 4.4485e-07
1613.6, 5.1089e-07
1615.6, 4.0111e-07
1617.6, 4.5793e-07
1619.6, 4.3421e-07
1621.6, 4.2459e-07
1623.6, 4.5687e-07
1625.6, 3.8753e-07
1627.6, 4.1912e-07
1629.6, 4.2686e-07
1631.6, 4.2322e-07
1633.6, 4.0708e-07
1635.6, 3.8754e-07
1637.6, 4.2414e-07
1639.6, 4.0601e-07
1641.6, 3.5886e-07
1643.6, 4.279e-07
1645.6, 3.9902e-07
1647.6, 3.8262e-07
1649.6, 4.4113e-07
1651.6, 3.864e-07
1653.7, 4.1127e-07
1655.7, 4.433e-07
1657.7, 4.7585e-07
1659.7, 3.8477e-07
1661.7, 4.2367e-07
1663.7, 4.211e-07
1665.7, 4.3816e-07
1667.7, 4.2902e-07
1669.7, 4.2927e-07
1671.7, 4.2612e-07
1673.7, 3.9479e-07
1675.7, 4.3978e-07
1677.7, 4.1416e-07
1679.7, 4.1208e-07
1681.7, 4.0016e-07
1683.7, 4.0498e-07
1685.7, 4.1139e-07
1687.7, 4.171e-07
1689.7, 4.2601e-07
1691.7, 4.4552e-07
1693.7, 3.6665e-07
1695.7, 4.5365e-07
1697.7, 4.2355e-07
1699.7, 4.079e-07
1701.7, 3.9395e-07
1703.7, 4.0132e-07
1705.7, 4.3721e-07
1707.7, 3.9853e-07
1709.7, 4.3223e-07
1711.7, 4.2753e-07
1713.7, 4.5816e-07
1715.7, 4.3482e-07
1717.7, 3.8411e-07
1719.7, 3.8029e-07
1721.7, 4.6532e-07
1723.7, 4.337e-07
1725.7, 4.3553e-07
1727.7, 4.988e-07
1729.7, 4.1658e-07
1731.7, 4.4267e-07
1733.7, 4.4699e-07
1735.7, 4.2108e-07
1737.7, 4.2676e-07
1739.7, 4.301e-07
1741.7, 4.2022e-07
1743.7, 4.0485e-07
1745.7, 4.9988e-07
1747.7, 4.0604e-07
1749.7, 4.3105e-07
1751.7, 4.3993e-07
1753.8, 4.484e-07
1755.8, 3.9977e-07
1757.8, 4.2184e-07
1759.8, 3.9191e-07
1761.8, 4.1993e-07
1763.8, 4.2207e-07
1765.8, 3.9069e-07
1767.8, 3.8527e-07
1769.8, 4.1513e-07
1771.8, 4.0684e-07
1773.8, 4.1931e-07
1775.8, 4.0619e-07
1777.8, 4.6719e-07
1779.8, 4.4217e-07
1781.8, 4.2009e-07
1783.8, 4.593e-07
1785.8, 4.1771e-07
1787.8, 4.0586e-07
1789.8, 4.6131e-07
1791.8, 4.192e-07
1793.8, 4.5887e-07
1795.8, 4.3821e-07
1797.8, 4.0926e-07
1799.8, 4.3022e-07
1801.8, 4.4135e-07
1803.8, 3.9972e-07
1805.8, 3.8766e-07
1807.8, 3.9896e-07
1809.8, 4.2592e-07
1811.8, 4.587e-07
1813.8, 3.8531e-07
1815.8, 4.5512e-07
1817.8, 4.3485e-07
1819.8, 4.2431e-07
1821.8, 4.3813e-07
1823.8, 4.6284e-07
1825.8, 3.9885e-07
1827.8, 4.1314e-07
1829.8, 4.2125e-07
1831.8, 4.1336e-07
1833.8, 4.719e-07
1835.8, 4.5131e-07
1837.8, 4.189e-07
1839.8, 4.4446e-07
1841.8, 4.0929e-07
1843.8, 4.1603e-07
1845.8, 4.4833e-07
1847.8, 4.2378e-07
1849.8, 4.1835e-07
1851.8, 4.2443e-07
1853.9, 4.2891e-07
1855.9, 4.1943e-07
1857.9, 4.0865e-07
1859.9, 4.5233e-07
1861.9, 4.4668e-07
1863.9, 4.1571e-07
1865.9, 4.4285e-07
1867.9, 4.0787e-07
1869.9, 4.6095e-07
1871.9, 3.4791e-07
1873.9, 4.3042e-07
1875.9, 4.1746e-07
1877.9, 4.3738e-07
1879.9, 4.2367e-07
1881.9, 4.4049e-07
1883.9, 4.2454e-07
1885.9, 4.3894e-07
1887.9, 4.5188e-07
1889.9, 4.2101e-07
1891.9, 4.3574e-07
1893.9, 4.095e-07
1895.9, 4.062e-07
1897.9, 4.429e-07
1899.9, 4.3382e-07
1901.9, 4.0507e-07
1903.9, 4.7247e-07
1905.9, 4.2674e-07
1907.9, 3.9473e-07
1909.9, 4.1788e-07
1911.9, 4.4016e-07
1913.9, 4.4151e-07
1915.9, 4.5316e-07
1917.9, 4.3036e-07
1919.9, 4.12e-07
1921.9, 3.9764e-07
1923.9, 4.8037e-07
1925.9, 4.5418e-07
1927.9, 4.333e-07
1929.9, 3.7177e-07
1931.9, 4.3855e-07
1933.9, 4.7555e-07
1935.9, 4.5476e-07
1937.9, 4.052e-07
1939.9, 4.3385e-07
1941.9, 4.4409e-07
1943.9, 4.0924e-07
1945.9, 4.148e-07
1947.9, 4.3732e-07
1949.9, 4.5846e-07
1951.9, 4.2925e-07
1954.0, 4.798e-07
1956.0, 3.8825e-07
1958.0, 4.3713e-07
1960.0, 4.5953e-07
1962.0, 4.2291e-07
1964.0, 4.2108e-07
1966.0, 4.6581e-07
1968.0, 4.2372e-07
1970.0, 4.8081e-07
1972.0, 4.2195e-07
1974.0, 4.25e-07
1976.0, 4.2209e-07
1978.0, 4.1588e-07
1980.0, 4.3393e-07
1982.0, 4.5218e-07
1984.0, 4.2323e-07
1986.0, 4.9648e-07
1988.0, 4.5588e-07
1990.0, 4.2214e-07
1992.0, 4.5965e-07
1994.0, 4.4225e-07
1996.0, 4.5654e-07
1998.0, 4.7663e-07
2000.0, 4.2514e-07
2002.0, 4.3319e-07
2004.0, 4.2486e-07
2006.0, 4.1434e-07
2008.0, 4.6869e-07
2010.0, 4.2178e-07
2012.0, 4.1876e-07
2014.0, 4.2484e-07
2016.0, 4.7379e-07
2018.0, 4.4074e-07
2020.0, 4.4233e-07
2022.0, 4.2708e-07
2024.0, 4.2214e-07
2026.0, 4.7059e-07
2028.0, 4.4039e-07
2030.0, 4.3485e-07
2032.0, 4.785e-07
2034.0, 4.4801e-07
2036.0, 3.6898e-07
2038.0, 4.3587e-07
2040.0, 4.3879e-07
2042.0, 4.2727e-07
2044.0, 4.104e-07
2046.0, 3.9679e-07
2048.0, 4.5906e-07
2050.0, 4.099e-07
2052.0, 4.2511e-07
2054.1, 4.2203e-07
2056.1, 4.616e-07
2058.1, 4.2252e-07
2060.1, 4.0501e-07
2062.1, 4.1573e-07
2064.1, 4.578e-07
2066.1, 4.1525e-07
2068.1, 4.2714e-07
2070.1, 4.5436e-07
2072.1, 4.3166e-07
2074.1, 4.1877e-07
2076.1, 4.6842e-07
2078.1, 4.3058e-07
2080.1, 4.5732e-07
2082.1, 4.2586e-07
2084.1, 3.9815e-07
2086.1, 4.5576e-07
2088.1, 4.8468e-07
2090.1, 4.4482e-07
2092.1, 4.4124e-07
2094.1, 4.0921e-07
2096.1, 4.1966e-07
2098.1, 4.1613e-07
2100.1, 4.3011e-07
2102.1, 4.4724e-07
2104.1, 4.3609e-07
2106.1, 4.4063e-07
2108.1, 4.1781e-07
2110.1, 4.2717e-07
2112.1, 4.0885e-07
2114.1, 4.399e-07
2116.1, 4.3778e-07
2118.1, 4.3106e-07
2120.1, 4.6562e-07
2122.1, 4.6568e-07
2124.1, 4.315e-07
2126.1, 4.1315e-07
2128.1, 4.4476e-07
2130.1, 4.1151e-07
2132.1, 4.0681e-07
2134.1, 4.1652e-07
2136.1, 4.0275e-07
2138.1, 4.316e-07
2140.1, 4.5253e-07
2142.1, 4.4225e-07
2144.1, 4.0326e-07
2146.1, 4.2055e-07
2148.1, 4.6842e-07
2150.1, 3.965e-07
2152.1, 4.5468e-07
2154.2, 4.4036e-07
2156.2, 4.3035e-07
2158.2, 4.1454e-07
2160.2, 4.3695e-07
2162.2, 4.7491e-07
2164.2, 3.9877e-07
2166.2, 4.3998e-07
2168.2, 4.0501e-07
2170.2, 4.019e-07
2172.2, 4.0836e-07
2174.2, 4.4966e-07
2176.2, 4.4228e-07
2178.2, 4.1092e-07
2180.2, 4.234e-07
2182.2, 4.0312e-07
2184.2, 4.6457e-07
2186.2, 3.9008e-07
2188.2, 4.7647e-07
2190.2, 4.6469e-07
2192.2, 4.6403e-07
2194.2, 4.3473e-07
2196.2, 4.1225e-07
2198.2, 4.4044e-07
2200.2, 4.0005e-07
2202.2, 4.7423e-07
2204.2, 4.1842e-07
2206.2, 4.218e-07
2208.2, 4.0981e-07
2210.2, 4.2628e-07
2212.2, 4.5809e-07
2214.2, 4.3685e-07
2216.2, 4.2954e-07
2218.2, 4.6041e-07
2220.2, 4.6961e-07
2222.2, 4.9575e-07
2224.2, 4.2204e-07
2226.2, 3.9109e-07
2228.2, 4.2197e-07
2230.2, 4.4713e-07
2232.2, 3.9348e-07
2234.2, 4.1817e-07
2236.2, 5.1886e-07
2238.2, 4.0202e-07
2240.2, 3.9553e-07
2242.2, 4.4248e-07
2244.2, 4.3358e-07
2246.2, 3.7988e-07
2248.2, 4.0804e-07
2250.2, 4.3138e-07
2252.2, 3.9075e-07
2254.3, 4.0949e-07
2256.3, 4.554e-07
2258.3, 4.4442e-07
2260.3, 4.1963e-07
2262.3, 4.1774e-07
2264.3, 4.4325e-07
2266.3, 4.3519e-07
2268.3, 4.0872e-07
2270.3, 4.5359e-07
2272.3, 4.2516e-07
2274.3, 4.4521e-07
2276.3, 4.4034e-07
2278.3, 4.3422e-07
2280.3, 4.5616e-07
2282.3, 4.3176e-07
2284.3, 4.4764e-07
2286.3, 4.695e-07
2288.3, 4.3017e-07
2290.3, 4.2891e-07
2292.3, 4.3338e-07
2294.3, 4.007e-07
2296.3, 4.6629e-07
2298.3, 4.4021e-07
2300.3, 4.1545e-07
2302.3, 4.2252e-07
2304.3, 4.6044e-07
2306.3, 4.1493e-07
2308.3, 4.2994e-07
2310.3, 4.4351e-07
2312.3, 4.5866e-07
2314.3, 4.3393e-07
2316.3, 4.6274e-07
2318.3, 4.47e-07
2320.3, 5.1539e-07
2322.3, 4.6235e-07
2324.3, 4.347e-07
2326.3, 4.1225e-07
2328.3, 4.4001e-07
2330.3, 4.2796e-07
2332.3, 4.0881e-07
2334.3, 4.0559e-07
2336.3, 4.3488e-07
2338.3, 4.3533e-07
2340.3, 4.947e-07
2342.3, 4.4788e-07
2344.3, 4.2382e-07
2346.3, 4.2416e-07
2348.3, 4.6151e-07
2350.3, 4.2427e-07
2352.3, 4.906e-07
2354.4, 4.0486e-07
2356.4, 4.5926e-07
2358.4, 4.1886e-07
2360.4, 4.3796e-07
2362.4, 4.2872e-07
2364.4, 4.6029e-07
2366.4, 4.3185e-07
2368.4, 4.5885e-07
2370.4, 4.3027e-07
2372.4, 4.47e-07
2374.4, 4.3622e-07
2376.4, 4.0945e-07
2378.4, 4.2114e-07
2380.4, 4.1566e-07
2382.4, 4.322e-07
2384.4, 4.0657e-07
2386.4, 4.5554e-07
2388.4, 4.3066e-07
2390.4, 4.4313e-07
2392.4, 4.3665e-07
2394.4, 4.38e-07
2396.4, 4.586e-07
2398.4, 4.3908e-07
2400.4, -3.147e-08
2402.4, -2.708e-08
2404.4, -2.932e-08
2406.4, -2.698e-08
2408.4, -2.999e-08
2410.4, -2.76e-08
2412.4, -2.675e-08
2414.4, -2.3e-08
2416.4, -2.582e-08
2418.4, -2.395e-08
2420.4, -2.664e-08
2422.4, -2.717e-08
2424.4, -2.501e-08
2426.4, -2.56e-08
2428.4, -3.11e-08
2430.4, -2.784e-08
2432.4, -3.022e-08
2434.4, -2.7e-08
2436.4, -2.875e-08
2438.4, -2.968e-08
2440.4, -2.868e-08
2442.4, -2.822e-08
2444.4, -2.637e-08
2446.4, -2.644e-08
2448.4, -2.628e-08
2450.4, -2.779e-08
2452.4, -2.66e-08
2454.5, -2.52e-08
2456.5, -2.507e-08
2458.5, -2.816e-08
2460.5, -2.65e-08
2462.5, -2.633e-08
2464.5, -2.499e-08
2466.5, -2.215e-08
2468.5, -2.398e-08
2470.5, -2.32e-08
2472.5, -2.26e-08
2474.5, -2.158e-08
2476.5, -2.455e-08
2478.5, -2.353e-08
2480.5, -2.417e-08
2482.5, -2.564e-08
2484.5, -2.855e-08
2486.5, -2.571e-08
2488.5, -2.455e-08
2490.5, -2.776e-08
2492.5, -2.577e-08
2494.5, -2.346e-08
2496.5, -2.694e-08
2498.5, -2.653e-08
2500.5, -2.512e-08
2502.5, -2.536e-08
2504.5, -2.843e-08
2506.5, -2.419e-08
2508.5, -2.354e-08
2510.5, -2.372e-08
2512.5, -2.749e-08
2514.5, -2.578e-08
2516.5, -2.067e-08
2518.5, -2.501e-08
2520.5, -2.475e-08
2522.5, -2.038e-08
2524.5, -2.057e-08
2526.5, -2.392e-08
2528.5, -2.517e-08
2530.5, -2.273e-08
2532.5, -2.404e-08
2534.5, -2.67e-08
2536.5, -2.243e-08
2538.5, -2.569e-08
2540.5, -2.923e-08
2542.5, -2.779e-08
2544.5, -2.634e-08
2546.5, -2.459e-08
2548.5, -2.322e-08
2550.5, -2.631e-08
2552.5, -2.259e-08
2554.6, -2.489e-08
2556.6, -2.227e-08
2558.6, -2.491e-08
2560.6, -1.744e-08
2562.6, -2.531e-08
2564.6, -2.104e-08
2566.6, -1.866e-08
2568.6, -1.774e-08
2570.6, -2.368e-08
2572.6, -1.973e-08
2574.6, -1.809e-08
2576.6, -2.016e-08
2578.6, -2.078e-08
2580.6, -2.115e-08
2582.6, -2.241e-08
2584.6, -2.084e-08
2586.6, -1.896e-08
2588.6, -2.031e-08
2590.6, -2.382e-08
2592.6, -2.095e-08
2594.6, -2.402e-08
2596.6, -2.248e-08
2598.6, -2.097e-08
2600.6, -1.97e-08
2602.6, -2.241e-08
2604.6, -2.436e-08
2606.6, -1.965e-08
2608.6, -1.752e-08
2610.6, -2.104e-08
2612.6, -2.207e-08
2614.6, -2.182e-08
2616.6, -2.264e-08
2618.6, -2.408e-08
2620.6, -2.082e-08
2622.6, -2.517e-08
2624.6, -2.51e-08
2626.6, -2.165e-08
2628.6, -2.15e-08
2630.6, -2.585e-08
2632.6, -2.67e-08
2634.6, -2.613e-08
2636.6, -2.539e-08
2638.6, -2.647e-08
2640.6, -2.355e-08
2642.6, -2.212e-08
2644.6, -2.609e-08
2646.6, -2.448e-08
2648.6, -2.232e-08
2650.6, -2.393e-08
2652.6, -2.02e-08
2654.7, -2.394e-08
2656.7, -2.19e-08
2658.7, -2.306e-08
2660.7, -2.334e-08
2662.7, -2.575e-08
2664.7, -2.568e-08
2666.7, -2.433e-08
2668.7, -2.323e-08
2670.7, -2.693e-08
2672.7, -2.458e-08
2674.7, -2.406e-08
2676.7, -2.254e-08
2678.7, -2.589e-08
2680.7, -2.691e-08
2682.7, -2.857e-08
2684.7, -2.322e-08
2686.7, -2.338e-08
2688.7, -2.113e-08
2690.7, -2.496e-08
2692.7, -2.267e-08
2694.7, -2.725e-08
2696.7, -2.183e-08
2698.7, -2.572e-08
2700.7, -2.548e-08
2702.7, -2.507e-08
2704.7, -2.363e-08
2706.7, -2.664e-08
2708.7, -2.326e-08
2710.7, -2.695e-08
2712.7, -2.796e-08
2714.7, -2.572e-08
2716.7, -1.996e-08
2718.7, -2.422e-08
2720.7, -2.502e-08
2722.7, -2.522e-08
2724.7, -2.31e-08
2726.7, -2.69e-08
2728.7, -2.161e-08
2730.7, -2.634e-08
2732.7, -2.499e-08
2734.7, -2.401e-08
2736.7, -2.059e-08
2738.7, -2.337e-08
2740.7, -2.349e-08
2742.7, -2.463e-08
2744.7, -2.272e-08
2746.7, -2.369e-08
2748.7, -2.543e-08
2750.7, -2.512e-08
2752.7, -2.633e-08
2754.8, -2.629e-08
2756.8, -2.417e-08
2758.8, -2.05e-08
2760.8, -2.477e-08
2762.8, -2.515e-08
2764.8, -2.535e-08
2766.8, -2.397e-08
2768.8, -2.274e-08
2770.8, -2.51e-08
2772.8, -2.502e-08
2774.8, -2.743e-08
2776.8, -2.159e-08
2778.8, -2.266e-08
2780.8, -2.442e-08
2782.8, -1.873e-08
2784.8, -2.386e-08
2786.8, -2.065e-08
2788.8, -2.07e-08
2790.8, -2.224e-08
2792.8, -2.217e-08
2794.8, -2.565e-08
2796.8, -2.249e-08
2798.8, -2.418e-08
2800.8, -2.786e-08
2802.8, -2.496e-08
2804.8, -2.382e-08
2806.8, -2.95e-08
2808.8, -2.319e-08
2810.8, -2.705e-08
2812.8, -2.376e-08
2814.8, -2.582e-08
2816.8, -2.471e-08
2818.8, -2.248e-08
2820.8, -2.373e-08
2822.8, -2.658e-08
2824.8, -2.296e-08
2826.8, -2.361e-08
2828.8, -2.56e-08
2830.8, -2.289e-08
2832.8, -2.586e-08
2834.8, -2.508e-08
2836.8, -2.127e-08
2838.8, -2.419e-08
2840.8, -2.883e-08
2842.8, -2.794e-08
2844.8, -2.691e-08
2846.8, -2.601e-08
2848.8, -2.648e-08
2850.8, -2.873e-08
2852.8, -2.585e-08
2854.9, -2.459e-08
2856.9, -2.302e-08
2858.9, -1.938e-08
2860.9, -1.864e-08
2862.9, -2.325e-08
2864.9, -2.676e-08
2866.9, -2.179e-08
2868.9, -2.404e-08
2870.9, -2.278e-08
2872.9, -2.483e-08
2874.9, -2.472e-08
2876.9, -2.536e-08
2878.9, -2.461e-08
2880.9, -2.276e-08
2882.9, -2.461e-08
2884.9, -2.113e-08
2886.9, -2.196e-08
2888.9, -2.355e-08
2890.9, -2.436e-08
2892.9, -2.338e-08
2894.9, -2.59e-08
2896.9, -2.215e-08
2898.9, -2.443e-08
2900.9, -2.629e-08
2902.9, -2.625e-08
2904.9, -2.532e-08
2906.9, -2.367e-08
2908.9, -2.513e-08
2910.9, -2.206e-08
2912.9, -2.48e-08
2914.9, -2.356e-08
2916.9, -2.146e-08
2918.9, -2.422e-08
2920.9, -2.362e-08
2922.9, -2.361e-08
2924.9, -2.17e-08
2926.9, -2.365e-08
2928.9, -2.367e-08
2930.9, -2.781e-08
2932.9, -2.357e-08
2934.9, -2.07e-08
2936.9, -2.679e-08
2938.9, -1.97e-08
2940.9, -2.207e-08
2942.9, -2.109e-08
2944.9, -2.578e-08
2946.9, -2.514e-08
2948.9, -2.534e-08
2950.9, -2.272e-08
2952.9, -2.123e-08
2955.0, -2.427e-08
2957.0, -2.65e-08
2959.0, -2.919e-08
2961.0, -2.393e-08
2963.0, -2.511e-08
2965.0, -2.372e-08
2967.0, -2.369e-08
2969.0, -2.567e-08
2971.0, -2.35e-08
2973.0, -2.142e-08
2975.0, -2.546e-08
2977.0, -2.339e-08
2979.0, -2.503e-08
2981.0, -2.279e-08
2983.0, -2.6e-08
2985.0, -2.627e-08
2987.0, -2.592e-08
2989.0, -2.318e-08
2991.0, -2.694e-08
2993.0, -2.762e-08
2995.0, -2.149e-08
2997.0, -1.961e-08
2999.0, -2.391e-08
3001.0, -2.091e-08
3003.0, -2.294e-08
3005.0, -2.157e-08
3007.0, -2.114e-08
3009.0, -1.971e-08
3011.0, -2.228e-08
3013.0, -2.139e-08
3015.0, -2.23e-08
3017.0, -2.14e-08
3019.0, -2.246e-08
3021.0, -2.697e-08
3023.0, -2.498e-08
3025.0, -2.786e-08
3027.0, -2.738e-08
3029.0, -2.682e-08
3031.0, -2.378e-08
3033.0, -2.914e-08
3035.0, -2.757e-08
3037.0, -2.691e-08
3039.0, -2.378e-08
3041.0, -2.399e-08
3043.0, -2.916e-08
3045.0, -2.554e-08
3047.0, -2.495e-08
3049.0, -2.552e-08
3051.0, -2.369e-08
3053.0, -2.393e-08
3055.1, -2.449e-08
3057.1, -2.479e-08
3059.1, -2.512e-08
3061.1, -2.051e-08
3063.1, -2.203e-08
3065.1, -2.281e-08
3067.1, -2.14e-08
3069.1, -2.611e-08
3071.1, -2.818e-08
3073.1, -2.467e-08
3075.1, -2.443e-08
3077.1, -2.868e-08
3079.1, -2.643e-08
3081.1, -2.432e-08
3083.1, -2.454e-08
3085.1, -2.313e-08
3087.1, -2.374e-08
3089.1, -2.571e-08
3091.1, -2.387e-08
3093.1, -2.567e-08
3095.1, -2.415e-08
3097.1, -2.358e-08
3099.1, -2.596e-08
3101.1, -2.252e-08
3103.1, -2.406e-08
3105.1, -2.77e-08
3107.1, -2.807e-08
3109.1, -2.727e-08
3111.1, -2.534e-08
3113.1, -2.717e-08
3115.1, -2.915e-08
3117.1, -2.699e-08
3119.1, -2.558e-08
3121.1, -2.62e-08
3123.1, -2.585e-08
3125.1, -2.895e-08
3127.1, -3.108e-08
3129.1, -2.752e-08
3131.1, -2.473e-08
3133.1, -2.95e-08
3135.1, -2.533e-08
3137.1, -2.336e-08
3139.1, -2.751e-08
3141.1, -2.825e-08
3143.1, -2.697e-08
3145.1, -2.833e-08
3147.1, -3.108e-08
3149.1, -2.515e-08
3151.1, -2.831e-08
3153.1, -2.592e-08
3155.2, -2.366e-08
3157.2, -2.436e-08
3159.2, -2.745e-08
3161.2, -2.653e-08
3163.2, -2.681e-08
3165.2, -2.604e-08
3167.2, -2.528e-08
3169.2, -3.071e-08
3171.2, -2.758e-08
3173.2, -2.665e-08
3175.2, -2.444e-08
3177.2, -2.806e-08
3179.2, -2.678e-08
3181.2, -2.972e-08
3183.2, -2.674e-08
3185.2, -2.709e-08
3187.2, -2.914e-08
3189.2, -3.094e-08
3191.2, -2.811e-08
3193.2, -2.776e-08
3195.2, -2.859e-08
3197.2, -2.866e-08
3199.2, -2.573e-08
3201.2, -2.955e-08
3203.2, -2.59e-08
3205.2, -2.487e-08
3207.2, -2.806e-08
3209.2, -3.048e-08
3211.2, -2.936e-08
3213.2, -2.779e-08
3215.2, -2.741e-08
3217.2, -2.456e-08
3219.2, -2.203e-08
3221.2, -2.434e-08
3223.2, -2.211e-08
3225.2, -1.99e-08
3227.2, -2.465e-08
3229.2, -2.49e-08
3231.2, -2.448e-08
3233.2, -2.759e-08
3235.2, -2.382e-08
3237.2, -2.651e-08
3239.2, -2.329e-08
3241.2, -2.291e-08
3243.2, -2.469e-08
3245.2, -2.662e-08
3247.2, -3.244e-08
3249.2, -2.985e-08
3251.2, -2.533e-08
3253.2, -2.787e-08
3255.3, -2.77e-08
3257.3, -2.897e-08
3259.3, -2.744e-08
3261.3, -2.792e-08
3263.3, -2.888e-08
3265.3, -2.986e-08
3267.3, -2.645e-08
3269.3, -2.666e-08
3271.3, -2.233e-08
3273.3, -2.862e-08
3275.3, -2.808e-08
3277.3, -2.667e-08
3279.3, -2.795e-08
3281.3, -2.398e-08
3283.3, -2.278e-08
3285.3, -2.419e-08
3287.3, -2.794e-08
3289.3, -2.457e-08
3291.3, -3.02e-08
3293.3, -3.074e-08
3295.3, -2.617e-08
3297.3, -2.465e-08
3299.3, -2.615e-08
3301.3, -2.49e-08
3303.3, -2.601e-08
3305.3, -2.248e-08
3307.3, -2.31e-08
3309.3, -2.426e-08
3311.3, -2.843e-08
3313.3, -2.646e-08
3315.3, -2.221e-08
3317.3, -2.668e-08
3319.3, -2.797e-08
3321.3, -2.409e-08
3323.3, -2.812e-08
3325.3, -2.367e-08
3327.3, -2.436e-08
3329.3, -2.341e-08
3331.3, -2.85e-08
3333.3, -2.817e-08
3335.3, -2.555e-08
3337.3, -2.892e-08
3339.3, -2.682e-08
3341.3, -2.539e-08
3343.3, -2.412e-08
3345.3, -2.385e-08
3347.3, -2.431e-08
3349.3, -2.421e-08
3351.3, -2.529e-08
3353.3, -2.646e-08
3355.4, -2.668e-08
3357.4, -2.571e-08
3359.4, -2.612e-08
3361.4, -2.79e-08
3363.4, -2.517e-08
3365.4, -2.525e-08
3367.4, -2.411e-08
3369.4, -2.513e-08
3371.4, -2.293e-08
3373.4, -2.532e-08
3375.4, -2.692e-08
3377.4, -2.471e-08
3379.4, -2.612e-08
3381.4, -2.866e-08
3383.4, -2.682e-08
3385.4, -2.748e-08
3387.4, -2.883e-08
3389.4, -3.167e-08
3391.4, -2.639e-08
3393.4, -2.801e-08
3395.4, -2.802e-08
3397.4, -2.884e-08
3399.4, -2.47e-08
3401.4, -3.058e-08
3403.4, -2.883e-08
3405.4, -2.581e-08
3407.4, -3.001e-08
3409.4, -3.176e-08
3411.4, -3.099e-08
3413.4, -3.009e-08
3415.4, -2.809e-08
3417.4, -2.624e-08
3419.4, -2.89e-08
3421.4, -2.904e-08
3423.4, -2.656e-08
3425.4, -2.724e-08
3427.4, -2.601e-08
3429.4, -2.805e-08
3431.4, -2.672e-08
3433.4, 3.7405e-07
3435.4, 3.3178e-07
3437.4, 3.6694e-07
3439.4, 3.7719e-07
3441.4, 4.0358e-07
3443.4, 3.8921e-07
3445.4, 3.2798e-07
3447.4, 3.6046e-07
3449.4, 3.8805e-07
3451.4, 4.3492e-07
3453.4, 3.707e-07
3455.5, 3.6569e-07
3457.5, 3.6083e-07
3459.5, 4.0441e-07
3461.5, 4.294e-07
3463.5, 3.4976e-07
3465.5, 4.0686e-07
3467.5, 4.3171e-07
3469.5, 4.0871e-07
3471.5, 4.1337e-07
3473.5, 3.9124e-07
3475.5, 3.8032e-07
3477.5, 4.1353e-07
3479.5, 3.8805e-07
3481.5, 3.6303e-07
3483.5, 3.5401e-07
3485.5, 3.828e-07
3487.5, 3.7344e-07
3489.5, 3.9607e-07
3491.5, 3.6605e-07
3493.5, 3.9513e-07
3495.5, 3.2846e-07
3497.5, 4.3615e-07
3499.5, 4.1824e-07
3501.5, 4.2945e-07
3503.5, 3.6791e-07
3505.5, 3.9381e-07
3507.5, 3.7022e-07
3509.5, 3.755e-07
3511.5, 4.8108e-07
3513.5, 3.9492e-07
3515.5, 3.873e-07
3517.5, 4.5289e-07
3519.5, 3.7118e-07
3521.5, 3.7505e-07
3523.5, 4.2225e-07
3525.5, 3.7481e-07
3527.5, 3.9451e-07
3529.5, 4.1552e-07
3531.5, 3.7774e-07
3533.5, 3.9549e-07
3535.5, 4.3581e-07
3537.5, 4.2719e-07
3539.5, 4.1592e-07
3541.5, 3.8235e-07
3543.5, 3.5758e-07
3545.5, 4.0821e-07
3547.5, 4.1997e-07
3549.5, 3.8962e-07
3551.5, 4.2959e-07
3553.5, 3.6383e-07
3555.6, 4.3345e-07
3557.6, 3.8171e-07
3559.6, 4.1165e-07
3561.6, 4.117e-07
3563.6, 3.705e-07
3565.6, 4.1633e-07
3567.6, 3.742e-07
3569.6, 4.0613e-07
3571.6, 4.0688e-07
3573.6, 4.1554e-07
3575.6, 4.379e-07
3577.6, 4.0951e-07
3579.6, 4.2461e-07
3581.6, 4.3396e-07
3583.6, 3.8072e-07
3585.6, 4.0218e-07
3587.6, 4.3262e-07
3589.6, 3.8836e-07
3591.6, 4.1143e-07
3593.6, 4.5094e-07
3595.6, 4.6159e-07
3597.6, 3.6855e-07
3599.6, 4.2153e-07
3601.6, 4.2278e-07
3603.6, 3.8574e-07
3605.6, 4.3411e-07
3607.6, 4.1283e-07
3609.6, 4.2569e-07
3611.6, 4.3345e-07
3613.6, 3.3703e-07
3615.6, 4.4808e-07
3617.6, 4.2982e-07
3619.6, 4.5944e-07
3621.6, 4.3773e-07
3623.6, 4.3262e-07
3625.6, 4.1232e-07
3627.6, 4.2251e-07
3629.6, 4.2971e-07
3631.6, 4.72e-07
3633.6, 4.1891e-07
3635.6, 4.2474e-07
3637.6, 4.0523e-07
3639.6, 4.3226e-07
3641.6, 4.5224e-07
3643.6, 3.8846e-07
3645.6, 4.2521e-07
3647.6, 3.9907e-07
3649.6, 4.1574e-07
3651.6, 4.4978e-07
3653.6, 4.453e-07
3655.7, 4.3722e-07
3657.7, 4.2786e-07
3659.7, 4.0534e-07
3661.7, 3.9891e-07
3663.7, 4.1474e-07
3665.7, 4.4949e-07
3667.7, 3.8261e-07
3669.7, 4.7812e-07
3671.7, 3.7184e-07
3673.7, 4.3601e-07
3675.7, 3.9379e-07
3677.7, 4.2625e-07
3679.7, 4.195e-07
3681.7, 3.9967e-07
3683.7, 4.4564e-07
3685.7, 3.961e-07
3687.7, 3.8752e-07
3689.7, 4.0288e-07
3691.7, 4.2819e-07
3693.7, 4.1572e-07
3695.7, 4.1189e-07
3697.7, 3.8545e-07
3699.7, 4.4234e-07
3701.7, 4.3099e-07
3703.7, 3.987e-07
3705.7, 4.0998e-07
3707.7, 4.249e-07
3709.7, 4.4109e-07
3711.7, 4.0013e-07
3713.7, 4.1203e-07
3715.7, 4.1669e-07
3717.7, 4.1538e-07
3719.7, 4.0766e-07
3721.7, 4.3243e-07
3723.7, 4.2318e-07
3725.7, 4.285e-07
3727.7, 4.292e-07
3729.7, 3.7932e-07
3731.7, 4.2207e-07
3733.7, 3.6305e-07
3735.7, 4.0057e-07
3737.7, 4.5169e-07
3739.7, 4.328e-07
3741.7, 3.9627e-07
3743.7, 4.0539e-07
3745.7, 4.7261e-07
3747.7, 3.7177e-07
3749.7, 4.1406e-07
3751.7, 4.418e-07
3753.7, 4.0827e-07
3755.8, 4.3495e-07
3757.8, 4.1657e-07
3759.8, 4.56e-07
3761.8, 4.1023e-07
3763.8, 4.449e-07
3765.8, 4.3993e-07
3767.8, 4.704e-07
3769.8, 4.413e-07
3771.8, 3.7429e-07
3773.8, 3.9628e-07
3775.8, 4.1415e-07
3777.8, 4.1792e-07
3779.8, 4.5872e-07
3781.8, 4.0962e-07
3783.8, 4.1389e-07
3785.8, 3.7319e-07
3787.8, 4.1311e-07
3789.8, 4.3321e-07
3791.8, 3.8844e-07
3793.8, 4.217e-07
3795.8, 4.3973e-07
3797.8, 4.1638e-07
3799.8, 4.2413e-07
3801.8, 3.7507e-07
3803.8, 4.9045e-07
3805.8, 4.3337e-07
3807.8, 4.321e-07
3809.8, 3.9236e-07
3811.8, 4.1051e-07
3813.8, 4.2932e-07
3815.8, 4.0912e-07
3817.8, 3.9472e-07
3819.8, 4.0468e-07
3821.8, 4.0083e-07
3823.8, 3.8141e-07
3825.8, 4.2778e-07
3827.8, 4.2748e-07
3829.8, 4.3579e-07
3831.8, 3.8048e-07
3833.8, 4.4687e-07
3835.8, 4.372e-07
3837.8, 4.7152e-07
3839.8, 4.4255e-07
3841.8, 4.112e-07
3843.8, 4.3851e-07
3845.8, 4.3148e-07
3847.8, 4.9475e-07
3849.8, 3.9216e-07
3851.8, 4.3331e-07
3853.8, 4.5334e-07
3855.9, 4.2578e-07
3857.9, 4.4834e-07
3859.9, 4.1326e-07
3861.9, 4.4231e-07
3863.9, 3.9828e-07
3865.9, 4.3077e-07
3867.9, 4.5222e-07
3869.9, 4.3483e-07
3871.9, 4.1502e-07
3873.9, 4.2181e-07
3875.9, 4.5779e-07
3877.9, 4.2392e-07
3879.9, 4.0398e-07
3881.9, 4.5225e-07
3883.9, 4.2629e-07
3885.9, 3.9872e-07
3887.9, 3.9861e-07
3889.9, 3.9393e-07
3891.9, 4.136e-07
3893.9, 4.6204e-07
3895.9, 4.2164e-07
3897.9, 3.9982e-07
3899.9, 4.1373e-07
3901.9, 3.7189e-07
3903.9, 3.8886e-07
3905.9, 4.0485e-07
3907.9, 4.5928e-07
3909.9, 4.3221e-07
3911.9, 3.9475e-07
3913.9, 4.3332e-07
3915.9, 4.5962e-07
3917.9, 4.2303e-07
3919.9, 4.2618e-07
3921.9, 3.9863e-07
3923.9, 4.1764e-07
3925.9, 3.5757e-07
3927.9, 4.4035e-07
3929.9, 4.4445e-07
3931.9, 4.1136e-07
3933.9, 4.3463e-07
3935.9, 4.3448e-07
3937.9, 4.2724e-07
3939.9, 4.3838e-07
3941.9, 4.5774e-07
3943.9, 4.719e-07
3945.9, 4.5981e-07
3947.9, 4.7083e-07
3949.9, 5.1128e-07
3951.9, 4.2111e-07
3953.9, 4.192e-07
3956.0, 4.0921e-07
3958.0, 4.4499e-07
3960.0, 3.882e-07
3962.0, 4.2117e-07
3964.0, 4.5703e-07
3966.0, 4.3623e-07
3968.0, 3.8853e-07
3970.0, 4.6278e-07
3972.0, 4.4617e-07
3974.0, 4.2832e-07
3976.0, 4.2604e-07
3978.0, 4.293e-07
3980.0, 4.3931e-07
3982.0, 4.1144e-07
3984.0, 4.1493e-07
3986.0, 4.1333e-07
3988.0, 4.6194e-07
3990.0, 4.4889e-07
3992.0, 4.3563e-07
3994.0, 4.3106e-07
3996.0, 4.5913e-07
3998.0, 4.1514e-07
4000.0, 4.3994e-07
4002.0, 4.3131e-07
4004.0, 4.4337e-07
4006.0, 4.5236e-07
4008.0, 4.6635e-07
4010.0, 3.823e-07
4012.0, 4.4125e-07
4014.0, 4.3136e-07
4016.0, 4.3363e-07
4018.0, 4.6481e-07
4020.0, 4.0548e-07
4022.0, 4.2909e-07
4024.0, 4.5426e-07
4026.0, 4.23e-07
4028.0, 4.0931e-07
4030.0, 4.4786e-07
4032.0, 4.0833e-07
4034.0, 4.6199e-07
4036.0, 4.401e-07
4038.0, 4.4514e-07
4040.0, 4.5877e-07
4042.0, 4.6728e-07
4044.0, 4.5407e-07
4046.0, 4.0188e-07
4048.0, 3.9876e-07
4050.0, 4.5025e-07
4052.0, 4.529e-07
4054.0, 4.4442e-07
4056.1, 4.3208e-07
4058.1, 4.55e-07
4060.1, 4.1228e-07
4062.1, 4.2164e-07
4064.1, 4.44e-07
4066.1, 4.4298e-07
4068.1, 4.437e-07
4070.1, 4.5647e-07
4072.1, 4.7871e-07
4074.1, 4.3854e-07
4076.1, 3.9223e-07
4078.1, 4.5223e-07
4080.1, 4.3532e-07
4082.1, 3.9179e-07
4084.1, 5.0122e-07
4086.1, 4.2825e-07
4088.1, 4.8256e-07
4090.1, 4.2132e-07
4092.1, 4.5085e-07
4094.1, 4.5215e-07
4096.1, 4.544e-07
4098.1, 4.2566e-07
4100.1, 4.3103e-07
4102.1, 4.6848e-07
4104.1, 4.2726e-07
4106.1, 4.5228e-07
4108.1, 4.0999e-07
4110.1, 4.0472e-07
4112.1, 4.4187e-07
4114.1, 4.497e-07
4116.1, 3.9298e-07
4118.1, 4.7756e-07
4120.1, 4.4095e-07
4122.1, 3.9186e-07
4124.1, 4.0646e-07
4126.1, 4.3616e-07
4128.1, 4.0981e-07
4130.1, 4.5875e-07
4132.1, 3.906e-07
4134.1, 4.517e-07
4136.1, 4.0818e-07
4138.1, 4.1925e-07
4140.1, 4.4509e-07
4142.1, 3.9171e-07
4144.1, 4.3161e-07
4146.1, 4.5542e-07
4148.1, 4.7441e-07
4150.1, 4.6113e-07
4152.1, 4.2439e-07
4154.1, 4.8921e-07
4156.2, 4.3847e-07
4158.2, 4.5403e-07
4160.2, 4.2978e-07
4162.2, 4.5697e-07
4164.2, 4.4377e-07
4166.2, 4.562e-07
4168.2, 4.485e-07
4170.2, 4.1727e-07
4172.2, 3.6836e-07
4174.2, 4.1389e-07
4176.2, 4.7035e-07
4178.2, 5.2026e-07
4180.2, 3.9787e-07
4182.2, 4.0658e-07
4184.2, 4.1164e-07
4186.2, 4.6287e-07
4188.2, 4.6733e-07
4190.2, 4.7794e-07
4192.2, 4.6628e-07
4194.2, 4.0272e-07
4196.2, 4.7504e-07
4198.2, 4.3312e-07
4200.2, 3.9915e-07
4202.2, 4.8417e-07
4204.2, 4.1936e-07
4206.2, 4.1832e-07
4208.2, 4.5715e-07
4210.2, 4.7576e-07
4212.2, 3.758e-07
4214.2, 4.6667e-07
4216.2, 3.6844e-07
4218.2, 4.3448e-07
4220.2, 4.3487e-07
4222.2, 4.4446e-07
4224.2, 4.812e-07
4226.2, 4.5127e-07
4228.2, 4.3562e-07
4230.2, 4.2731e-07
4232.2, 4.8496e-07
4234.2, 4.796e-07
4236.2, 4.5481e-07
4238.2, 4.4595e-07
4240.2, 4.6423e-07
4242.2, 4.6497e-07
4244.2, 4.5471e-07
4246.2, 4.2978e-07
4248.2, 4.1036e-07
4250.2, 4.5101e-07
4252.2, 4.4195e-07
4254.2, 4.2363e-07
4256.3, 4.5934e-07
4258.3, 4.3536e-07
4260.3, 4.8151e-07
4262.3, 4.8044e-07
4264.3, 4.2212e-07
4266.3, 4.209e-07
4268.3, 4.3432e-07
4270.3, 4.3993e-07
4272.3, 4.541e-07
4274.3, 4.4667e-07
4276.3, 4.5613e-07
4278.3, 4.2536e-07
4280.3, 4.2162e-07
4282.3, 4.8492e-07
4284.3, 4.4706e-07
4286.3, 4.4308e-07
4288.3, 4.8912e-07
4290.3, 4.438e-07
4292.3, 5.2221e-07
4294.3, 4.2269e-07
4296.3, 4.5505e-07
4298.3, 4.4294e-07
4300.3, 4.3311e-07
4302.3, 4.7552e-07
4304.3, 4.3217e-07
4306.3, 4.3296e-07
4308.3, 3.765e-07
4310.3, 4.3036e-07
4312.3, 4.3096e-07
4314.3, 4.1192e-07
4316.3, 4.2918e-07
4318.3, 4.42e-07
4320.3, 4.6109e-07
4322.3, 4.2464e-07
4324.3, 4.389e-07
4326.3, 4.5759e-07
4328.3, 4.2754e-07
4330.3, 4.4484e-07
4332.3, 4.5513e-07
4334.3, 4.4999e-07
4336.3, 4.8639e-07
4338.3, 5.0275e-07
4340.3, 3.7002e-07
4342.3, 4.2521e-07
4344.3, 4.7296e-07
4346.3, 4.6966e-07
4348.3, 4.6605e-07
4350.3, 4.4688e-07
4352.3, 3.959e-07
4354.3, 4.8417e-07
4356.4, 4.3053e-07
4358.4, 4.2743e-07
4360.4, 4.2292e-07
4362.4, 4.5211e-07
4364.4, 4.8104e-07
4366.4, 4.7826e-07
4368.4, 4.2917e-07
4370.4, 3.6168e-07
4372.4, 4.3898e-07
4374.4, 4.5022e-07
4376.4, 4.1925e-07
4378.4, 3.9436e-07
4380.4, 4.5414e-07
4382.4, 4.5423e-07
4384.4, 4.4021e-07
4386.4, 4.6991e-07
4388.4, 4.2875e-07
4390.4, 4.2311e-07
4392.4, 4.3836e-07
4394.4, 4.4598e-07
4396.4, 4.3237e-07
4398.4, 4.4715e-07
4400.4, 4.6715e-07
4402.4, 4.4554e-07
4404.4, 4.0083e-07
4406.4, 3.9836e-07
4408.4, 4.5382e-07
4410.4, 4.556e-07
4412.4, 4.4249e-07
4414.4, 4.5098e-07
4416.4, 4.2763e-07
4418.4, 4.217e-07
4420.4, 4.9174e-07
4422.4, 4.7299e-07
4424.4, 4.6833e-07
4426.4, 4.5474e-07
4428.4, 4.5032e-07
4430.4, 4.2453e-07
4432.4, 4.4898e-07
4434.4, -2.654e-08
4436.4, -2.56e-08
4438.4, -2.391e-08
4440.4, -2.747e-08
4442.4, -2.542e-08
4444.4, -2.288e-08
4446.4, -2.783e-08
4448.4, -2.563e-08
4450.4, -2.564e-08
4452.4, -2.411e-08
4454.4, -2.517e-08
4456.5, -2.609e-08
4458.5, -2.278e-08
4460.5, -2.537e-08
4462.5, -2.636e-08
4464.5, -2.293e-08
4466.5, -2.647e-08
4468.5, -2.445e-08
4470.5, -2.564e-08
4472.5, -2.197e-08
4474.5, -2.723e-08
4476.5, -2.712e-08
4478.5, -2.664e-08
4480.5, -2.881e-08
4482.5, -2.495e-08
4484.5, -2.54e-08
4486.5, -2.53e-08
4488.5, -2.483e-08
4490.5, -2.888e-08
4492.5, -2.629e-08
4494.5, -2.514e-08
4496.5, -2.712e-08
4498.5, -2.229e-08
4500.5, -2.519e-08
4502.5, -2.492e-08
4504.5, -2.558e-08
4506.5, -2.239e-08
4508.5, -2.479e-08
4510.5, -2.325e-08
4512.5, -2.707e-08
4514.5, -2.696e-08
4516.5, -2.733e-08
4518.5, -2.456e-08
4520.5, -2.764e-08
4522.5, -2.368e-08
4524.5, -2.544e-08
4526.5, -2.375e-08
4528.5, -2.441e-08
4530.5, -2.094e-08
4532.5, -2.322e-08
4534.5, -2.467e-08
4536.5, -2.684e-08
4538.5, -2.662e-08
4540.5, -2.315e-08
4542.5, -2.847e-08
4544.5, -2.639e-08
4546.5, -2.542e-08
4548.5, -2.198e-08
4550.5, -2.378e-08
4552.5, -2.267e-08
4554.5, -2.683e-08
4556.6, -2.226e-08
4558.6, -2.235e-08
4560.6, -2.017e-08
4562.6, -2.157e-08
4564.6, -2.228e-08
4566.6, -2.515e-08
4568.6, -2.757e-08
4570.6, -2.417e-08
4572.6, -2.834e-08
4574.6, -2.943e-08
4576.6, -2.89e-08
4578.6, -2.603e-08
4580.6, -2.397e-08
4582.6, -2.465e-08
4584.6, -3.03e-08
4586.6, -3.043e-08
4588.6, -2.512e-08
4590.6, -2.761e-08
4592.6, -2.328e-08
4594.6, -2.484e-08
4596.6, -2.587e-08
4598.6, -2.79e-08
4600.6, -2.741e-08
4602.6, -2.672e-08
4604.6, -2.553e-08
4606.6, -2.793e-08
4608.6, -2.576e-08
4610.6, -2.783e-08
4612.6, -2.719e-08
4614.6, -2.791e-08
4616.6, -2.602e-08
4618.6, -3.048e-08
4620.6, -2.763e-08
4622.6, -2.437e-08
4624.6, -2.785e-08
4626.6, -2.919e-08
4628.6, -2.649e-08
4630.6, -2.541e-08
4632.6, -2.729e-08
4634.6, -2.725e-08
4636.6, -2.567e-08
4638.6, -2.962e-08
4640.6, -2.73e-08
4642.6, -3.073e-08
4644.6, -2.642e-08
4646.6, -2.909e-08
4648.6, -2.968e-08
4650.6, -2.757e-08
4652.6, -2.923e-08
4654.6, -3.083e-08
4656.7, -2.851e-08
4658.7, -2.963e-08
4660.7, -2.617e-08
4662.7, -2.991e-08
4664.7, -2.777e-08
4666.7, -2.654e-08
4668.7, -2.333e-08
4670.7, -2.246e-08
4672.7, -2.419e-08
4674.7, -2.302e-08
4676.7, -2.335e-08
4678.7, -2.518e-08
4680.7, -1.926e-08
4682.7, -2.748e-08
4684.7, -2.709e-08
4686.7, -2.789e-08
4688.7, -2.479e-08
4690.7, -2.496e-08
4692.7, -2.647e-08
4694.7, -2.263e-08
4696.7, -2.318e-08
4698.7, -2.118e-08
4700.7, -2.176e-08
4702.7, -2.556e-08
4704.7, -2.581e-08
4706.7, -2.35e-08
4708.7, -2.115e-08
4710.7, -2.251e-08
4712.7, -2.223e-08
4714.7, -2.355e-08
4716.7, -2.294e-08
4718.7, -2.235e-08
4720.7, -2.563e-08
4722.7, -2.665e-08
4724.7, -2.447e-08
4726.7, -2.487e-08
4728.7, -2.771e-08
4730.7, -2.345e-08
4732.7, -2.56e-08
4734.7, -1.744e-08
4736.7, -2.239e-08
4738.7, -2.177e-08
4740.7, -2.103e-08
4742.7, -2.04e-08
4744.7, -2.573e-08
4746.7, -2.617e-08
4748.7, -2.581e-08
4750.7, -2.46e-08
4752.7, -2.424e-08
4754.7, -2.347e-08
4756.8, -2.847e-08
4758.8, -2.465e-08
4760.8, -2.441e-08
4762.8, -2.69e-08
4764.8, -2.485e-08
4766.8, -2.171e-08
4768.8, -2.349e-08
4770.8, -2.094e-08
4772.8, -2.645e-08
4774.8, -2.66e-08
4776.8, -2.544e-08
4778.8, -2.321e-08
4780.8, -2.68e-08
4782.8, -2.365e-08
4784.8, -2.779e-08
4786.8, -2.3e-08
4788.8, -2.775e-08
4790.8, -2.575e-08
4792.8, -2.392e-08
4794.8, -2.605e-08
4796.8, -2.806e-08
4798.8, -2.588e-08
4800.8, -2.601e-08
4802.8, -2.692e-08
4804.8, -2.456e-08
4806.8, -2.517e-08
4808.8, -2.515e-08
4810.8, -2.601e-08
4812.8, -2.612e-08
4814.8, -2.606e-08
4816.8, -2.687e-08
4818.8, -2.426e-08
4820.8, -2.671e-08
4822.8, -2.735e-08
4824.8, -2.717e-08
4826.8, -2.832e-08
4828.8, -2.545e-08
4830.8, -1.634e-08
4832.8, -2.512e-08
4834.8, -2.985e-08
4836.8, -2.861e-08
4838.8, -2.412e-08
4840.8, -2.102e-08
4842.8, -2.27e-08
4844.8, -2.204e-08
4846.8, -2.873e-08
4848.8, -2.74e-08
4850.8, -2.941e-08
4852.8, -2.516e-08
4854.8, -2.511e-08
4856.9, -2.793e-08
4858.9, -2.324e-08
4860.9, -2.339e-08
4862.9, -2.357e-08
4864.9, -2.276e-08
4866.9, -2.107e-08
4868.9, -2.218e-08
4870.9, -2.321e-08
4872.9, -2.465e-08
4874.9, -2.104e-08
4876.9, -2.091e-08
4878.9, -2.504e-08
4880.9, -2.157e-08
4882.9, -2.68e-08
4884.9, -2.221e-08
4886.9, -2.331e-08
4888.9, -2.345e-08
4890.9, -2.423e-08
4892.9, -2.2e-08
4894.9, -2.382e-08
4896.9, -2.489e-08
4898.9, -2.618e-08
4900.9, -2.235e-08
4902.9, -2.543e-08
4904.9, -2.313e-08
4906.9, -2.129e-08
4908.9, -1.944e-08
4910.9, -2.194e-08
4912.9, -2.416e-08
4914.9, -2.205e-08
4916.9, -2.531e-08
4918.9, -2.162e-08
4920.9, -2.165e-08
4922.9, -2.153e-08
4924.9, -2.205e-08
4926.9, -2.088e-08
4928.9, -2.034e-08
4930.9, -2.184e-08
4932.9, -1.98e-08
4934.9, -2.691e-08
4936.9, -2.096e-08
4938.9, -1.925e-08
4940.9, -2.006e-08
4942.9, -2.409e-08
4944.9, -2.266e-08
4946.9, -2.362e-08
4948.9, -2.423e-08
4950.9, -2.393e-08
4952.9, -2.413e-08
4954.9, -2.483e-08
4957.0, -2.445e-08
4959.0, -1.714e-08
4961.0, -1.743e-08
4963.0, -1.807e-08
4965.0, -1.934e-08
4967.0, -1.861e-08
4969.0, -1.756e-08
4971.0, -1.791e-08
4973.0, -2.018e-08
4975.0, -2.483e-08
4977.0, -2.263e-08
4979.0, -2.382e-08
4981.0, -2.388e-08
4983.0, -2.311e-08
4985.0, -2.379e-08
4987.0, -2.105e-08
4989.0, -2.124e-08
4991.0, -2.256e-08
4993.0, -2.097e-08
4995.0, -2.405e-08
4997.0, -2.127e-08
4999.0, -2.166e-08
5001.0, -2.271e-08
5003.0, -2.141e-08
5005.0, -2.408e-08
5007.0, -2.388e-08
5009.0, -2.267e-08
5011.0, -2.029e-08
5013.0, -2.008e-08
5015.0, -1.882e-08
5017.0, -2.312e-08
5019.0, -2.38e-08
5021.0, -2.072e-08
5023.0, -1.725e-08
5025.0, -2.133e-08
5027.0, -2.383e-08
5029.0, -1.938e-08
5031.0, -2.212e-08
5033.0, -2.171e-08
5035.0, -2.478e-08
5037.0, -2.177e-08
5039.0, -2.339e-08
5041.0, -2.472e-08
5043.0, -2.414e-08
5045.0, -2.22e-08
5047.0, -2.257e-08
5049.0, -2.38e-08
5051.0, -2.211e-08
5053.0, -2.466e-08
5055.0, -2.82e-08
5057.1, -2.185e-08
5059.1, -2.371e-08
5061.1, -2.414e-08
5063.1, -2.826e-08
5065.1, -2.535e-08
5067.1, -2.373e-08
5069.1, -2.308e-08
5071.1, -2.253e-08
5073.1, -2.501e-08
5075.1, -2.376e-08
5077.1, -2.541e-08
5079.1, -2.299e-08
5081.1, -2.291e-08
5083.1, -2.181e-08
5085.1, -1.754e-08
5087.1, -2.225e-08
5089.1, -2.185e-08
5091.1, -2.271e-08
5093.1, -2.232e-08
5095.1, -2.34e-08
5097.1, -2.165e-08
5099.1, -1.76e-08
5101.1, -2.166e-08
5103.1, -2.055e-08
5105.1, -1.88e-08
5107.1, -1.866e-08
5109.1, -2.061e-08
5111.1, -1.894e-08
5113.1, -2.28e-08
5115.1, -1.655e-08
5117.1, -1.89e-08
5119.1, -1.814e-08
5121.1, -1.645e-08
5123.1, -2.237e-08
5125.1, -2.204e-08
5127.1, -2.501e-08
5129.1, -2.533e-08
5131.1, -2.649e-08
5133.1, -2.39e-08
5135.1, -2.653e-08
5137.1, -2.665e-08
5139.1, -2.501e-08
5141.1, -2.747e-08
5143.1, -3.235e-08
5145.1, -2.506e-08
5147.1, -2.579e-08
5149.1, -2.6e-08
5151.1, -2.393e-08
5153.1, -2.878e-08
5155.1, -2.38e-08
5157.2, -2.454e-08
5159.2, -2.333e-08
5161.2, -2.493e-08
5163.2, -2.669e-08
5165.2, -2.535e-08
5167.2, -2.485e-08
5169.2, -2.414e-08
5171.2, -2.431e-08
5173.2, -2.429e-08
5175.2, -2.295e-08
5177.2, -2.552e-08
5179.2, -2.573e-08
5181.2, -2.398e-08
5183.2, -2.188e-08
5185.2, -2.181e-08
5187.2, -1.994e-08
5189.2, -2.747e-08
5191.2, -2.616e-08
5193.2, -2.288e-08
5195.2, -2.599e-08
5197.2, -2.774e-08
5199.2, -2.493e-08
5201.2, -2.284e-08
5203.2, -2.172e-08
5205.2, -2.72e-08
5207.2, -2.542e-08
5209.2, -2.451e-08
5211.2, -2.456e-08
5213.2, -2.429e-08
5215.2, -2.307e-08
5217.2, -2.947e-08
5219.2, -2.675e-08
5221.2, -2.113e-08
5223.2, -2.438e-08
5225.2, -2.626e-08
5227.2, -2.45e-08
5229.2, -2.841e-08
5231.2, -2.737e-08
5233.2, -2.919e-08
5235.2, -2.993e-08
5237.2, -2.674e-08
5239.2, -2.437e-08
5241.2, -2.516e-08
5243.2, -2.65e-08
5245.2, -2.767e-08
5247.2, -2.716e-08
5249.2, -2.417e-08
5251.2, -2.547e-08
5253.2, -2.397e-08
5255.2, -2.592e-08
5257.3, -2.483e-08
5259.3, -2.581e-08
5261.3, -2.797e-08
5263.3, -2.187e-08
5265.3, -2.352e-08
5267.3, -2.316e-08
5269.3, -2.424e-08
5271.3, -2.113e-08
5273.3, -2.398e-08
5275.3, -2.383e-08
5277.3, -2.206e-08
5279.3, -2.277e-08
5281.3, -2.464e-08
5283.3, -2.727e-08
5285.3, -2.607e-08
5287.3, -2.151e-08
5289.3, -2.231e-08
5291.3, -2.384e-08
5293.3, -2.199e-08
5295.3, -2.343e-08
5297.3, -2.688e-08
5299.3, -2.515e-08
5301.3, -2.567e-08
5303.3, -2.487e-08
5305.3, -2.487e-08
5307.3, -2.822e-08
5309.3, -2.519e-08
5311.3, -2.403e-08
5313.3, -2.302e-08
5315.3, -2.537e-08
5317.3, -2.828e-08
5319.3, -2.621e-08
5321.3, -2.559e-08
5323.3, -2.617e-08
5325.3, -2.321e-08
5327.3, -2.449e-08
5329.3, -2.197e-08
5331.3, -2.171e-08
5333.3, -2.376e-08
5335.3, -2.296e-08
5337.3, -2.404e-08
5339.3, -2.724e-08
5341.3, -2.437e-08
5343.3, -2.239e-08
5345.3, -2.05e-08
5347.3, -2.345e-08
5349.3, -2.393e-08
5351.3, -2.441e-08
5353.3, -2.414e-08
5355.3, -2.307e-08
5357.4, -2.39e-08
5359.4, -1.887e-08
5361.4, -1.631e-08
5363.4, -1.659e-08
5365.4, -1.622e-08
5367.4, -2.087e-08
5369.4, -1.8e-08
5371.4, -2.206e-08
5373.4, -2.129e-08
5375.4, -2.387e-08
5377.4, -2.093e-08
5379.4, -2.341e-08
5381.4, -2.271e-08
5383.4, -2.223e-08
5385.4, -2.314e-08
5387.4, -2.274e-08
5389.4, -1.9e-08
5391.4, -2.732e-08
5393.4, -2.286e-08
5395.4, -2.127e-08
5397.4, -2.393e-08
5399.4, -2.404e-08
5401.4, -2.464e-08
5403.4, -2.142e-08
5405.4, -2.337e-08
5407.4, -2.084e-08
5409.4, -2.258e-08
5411.4, -1.988e-08
5413.4, -2.295e-08
5415.4, -2.313e-08
5417.4, -2.418e-08
5419.4, -2.48e-08
5421.4, -2.302e-08
5423.4, -2.25e-08
5425.4, -2.478e-08
5427.4, -2.359e-08
5429.4, -2.452e-08
5431.4, -2.503e-08
5433.4, -2.491e-08
5435.4, -2.679e-08
5437.4, -2.676e-08
5439.4, -2.831e-08
5441.4, -2.352e-08
5443.4, -2.354e-08
5445.4, -2.529e-08
5447.4, -2.659e-08
5449.4, -2.656e-08
5451.4, -2.385e-08
5453.4, -2.562e-08
5455.4, -2.612e-08
5457.5, -2.417e-08
5459.5, -2.283e-08
5461.5, -2.069e-08
5463.5, -1.924e-08
5465.5, -2.247e-08
5467.5, -2.314e-08
5469.5, -2.427e-08
5471.5, -2.666e-08
5473.5, -2.315e-08
5475.5, -2.436e-08
5477.5, -2.381e-08
5479.5, -2.331e-08
5481.5, -2.375e-08
5483.5, -2.415e-08
5485.5, -2.294e-08
5487.5, -2.401e-08
5489.5, -2.41e-08
5491.5, -2.397e-08
5493.5, -2.352e-08
5495.5, -2.098e-08
5497.5, -2.612e-08
5499.5, -2.72e-08
5501.5, 1.9016e-07
5503.5, 3.6564e-07
5505.5, 3.3544e-07
5507.5, 4.2139e-07
5509.5, 4.3174e-07
5511.5, 3.9619e-07
5513.5, 3.5365e-07
5515.5, 3.3106e-07
5517.5, 3.7061e-07
5519.5, 4.0689e-07
5521.5, 4.3157e-07
5523.5, 3.4853e-07
5525.5, 3.2903e-07
5527.5, 3.9735e-07
5529.5, 4.3928e-07
5531.5, 4.0242e-07
5533.5, 3.6806e-07
5535.5, 3.5038e-07
5537.5, 3.7343e-07
5539.5, 3.932e-07
5541.5, 3.8534e-07
5543.5, 3.7086e-07
5545.5, 3.8543e-07
5547.5, 3.6789e-07
5549.5, 3.8928e-07
5551.5, 4.3621e-07
5553.5, 4.2268e-07
5555.5, 3.7406e-07
5557.6, 3.8802e-07
5559.6, 3.8454e-07
5561.6, 3.9422e-07
5563.6, 4.3408e-07
5565.6, 4.3563e-07
5567.6, 3.9381e-07
5569.6, 4.0921e-07
5571.6, 4.2405e-07
5573.6, 3.8633e-07
5575.6, 4.1313e-07
5577.6, 3.8033e-07
5579.6, 4.2353e-07
5581.6, 4.3287e-07
5583.6, 3.6734e-07
5585.6, 3.9507e-07
5587.6, 3.9956e-07
5589.6, 3.9202e-07
5591.6, 4.279e-07
5593.6, 4.0162e-07
5595.6, 3.5747e-07
5597.6, 3.4018e-07
5599.6, 3.9173e-07
5601.6, 3.9648e-07
5603.6, 4.2696e-07
5605.6, 4.2542e-07
5607.6, 4.1193e-07
5609.6, 3.8133e-07
5611.6, 4.2204e-07
5613.6, 3.763e-07
5615.6, 3.7237e-07
5617.6, 3.7187e-07
5619.6, 4.1736e-07
5621.6, 3.9648e-07
5623.6, 4.044e-07
5625.6, 4.4691e-07
5627.6, 3.9785e-07
5629.6, 4.5913e-07
5631.6, 3.8486e-07
5633.6, 4.1316e-07
5635.6, 4.4305e-07
5637.6, 3.9637e-07
5639.6, 4.1855e-07
5641.6, 3.9704e-07
5643.6, 3.9033e-07
5645.6, 3.728e-07
5647.6, 4.2584e-07
5649.6, 4.1634e-07
5651.6, 3.9661e-07
5653.6, 4.552e-07
5655.6, 4.0279e-07
5657.7, 3.9791e-07
5659.7, 4.5306e-07
5661.7, 4.2059e-07
5663.7, 3.8653e-07
5665.7, 4.3829e-07
5667.7, 4.1253e-07
5669.7, 4.3201e-07
5671.7, 3.8639e-07
5673.7, 4.1822e-07
5675.7, 4.171e-07
5677.7, 4.4138e-07
5679.7, 3.837e-07
5681.7, 4.1916e-07
5683.7, 4.0048e-07
5685.7, 3.94e-07
5687.7, 4.0496e-07
5689.7, 4.2211e-07
5691.7, 4.1404e-07
5693.7, 3.8715e-07
5695.7, 4.5959e-07
5697.7, 4.4126e-07
5699.7, 4.4086e-07
5701.7, 4.3155e-07
5703.7, 4.9072e-07
5705.7, 4.0142e-07
5707.7, 4.6503e-07
5709.7, 3.8627e-07
5711.7, 4.0051e-07
5713.7, 4.149e-07
5715.7, 4.0991e-07
5717.7, 4.5934e-07
5719.7, 4.7923e-07
5721.7, 4.8768e-07
5723.7, 4.2634e-07
5725.7, 4.1191e-07
5727.7, 4.2263e-07
5729.7, 4.3196e-07
5731.7, 3.9282e-07
5733.7, 3.9958e-07
5735.7, 4.324e-07
5737.7, 4.1702e-07
5739.7, 4.1003e-07
5741.7, 4.3817e-07
5743.7, 4.2922e-07
5745.7, 4.7231e-07
5747.7, 3.8629e-07
5749.7, 4.1524e-07
5751.7, 4.375e-07
5753.7, 4.2856e-07
5755.7, 4.2564e-07
5757.8, 4.5006e-07
5759.8, 4.2639e-07
5761.8, 4.1422e-07
5763.8, 3.9946e-07
5765.8, 4.1767e-07
5767.8, 4.0731e-07
5769.8, 4.0523e-07
5771.8, 3.5935e-07
5773.8, 3.9954e-07
5775.8, 4.2867e-07
5777.8, 4.3793e-07
5779.8, 4.0936e-07
5781.8, 4.2553e-07
5783.8, 4.7914e-07
5785.8, 4.342e-07
5787.8, 3.9448e-07
5789.8, 4.752e-07
5791.8, 4.4402e-07
5793.8, 4.6786e-07
5795.8, 4.3049e-07
5797.8, 3.8979e-07
5799.8, 4.5161e-07
5801.8, 3.9017e-07
5803.8, 3.7582e-07
5805.8, 4.1001e-07
5807.8, 4.5908e-07
5809.8, 4.4697e-07
5811.8, 4.2192e-07
5813.8, 4.6854e-07
5815.8, 4.409e-07
5817.8, 4.3503e-07
5819.8, 4.4431e-07
5821.8, 3.9518e-07
5823.8, 4.2739e-07
5825.8, 4.3338e-07
5827.8, 4.2422e-07
5829.8, 4.2833e-07
5831.8, 4.3027e-07
5833.8, 4.3125e-07
5835.8, 4.0487e-07
5837.8, 4.7604e-07
5839.8, 4.6353e-07
5841.8, 4.7335e-07
5843.8, 3.9222e-07
5845.8, 4.2693e-07
5847.8, 4.7791e-07
5849.8, 4.1092e-07
5851.8, 3.8014e-07
5853.8, 4.4604e-07
5855.8, 4.7393e-07
5857.9, 4.3771e-07
5859.9, 4.3827e-07
5861.9, 4.3384e-07
5863.9, 4.7826e-07
5865.9, 4.1323e-07
5867.9, 4.6005e-07
5869.9, 4.5082e-07
5871.9, 4.3495e-07
5873.9, 4.571e-07
5875.9, 3.759e-07
5877.9, 4.3354e-07
5879.9, 4.1678e-07
5881.9, 4.661e-07
5883.9, 4.524e-07
5885.9, 4.2033e-07
5887.9, 4.4593e-07
5889.9, 4.2774e-07
5891.9, 4.329e-07
5893.9, 4.0882e-07
5895.9, 4.0398e-07
5897.9, 3.8666e-07
5899.9, 4.5165e-07
5901.9, 4.5568e-07
5903.9, 4.363e-07
5905.9, 4.0868e-07
5907.9, 4.1008e-07
5909.9, 4.3335e-07
5911.9, 4.8466e-07
5913.9, 4.1918e-07
5915.9, 4.3974e-07
5917.9, 4.5509e-07
5919.9, 4.021e-07
5921.9, 4.2417e-07
5923.9, 4.2265e-07
5925.9, 4.2963e-07
5927.9, 4.3423e-07
5929.9, 4.2249e-07
5931.9, 4.4619e-07
5933.9, 4.2795e-07
5935.9, 4.4238e-07
5937.9, 4.7819e-07
5939.9, 4.7006e-07
5941.9, 4.5851e-07
5943.9, 4.2673e-07
5945.9, 4.1127e-07
5947.9, 4.1374e-07
5949.9, 4.7221e-07
5951.9, 4.3477e-07
5953.9, 4.6888e-07
5955.9, 4.7575e-07
5958.0, 4.269e-07
5960.0, 3.958e-07
5962.0, 4.2495e-07
5964.0, 4.5587e-07
5966.0, 4.6195e-07
5968.0, 5.1302e-07
5970.0, 4.4619e-07
5972.0, 4.2003e-07
5974.0, 4.352e-07
5976.0, 4.144e-07
5978.0, 4.6314e-07
5980.0, 4.979e-07
5982.0, 4.5123e-07
5984.0, 4.5628e-07
5986.0, 4.658e-07
5988.0, 3.9843e-07
5990.0, 4.4088e-07
5992.0, 4.2984e-07
5994.0, 3.9357e-07
5996.0, 4.3609e-07
5998.0, 4.6446e-07
6000.0, 4.2676e-07
6002.0, 4.9514e-07
6004.0, 4.3098e-07
6006.0, 4.5333e-07
6008.0, 4.2235e-07
6010.0, 4.4654e-07
6012.0, 4.0061e-07
6014.0, 4.426e-07
6016.0, 4.0422e-07
6018.0, 4.2324e-07
6020.0, 4.5432e-07
6022.0, 4.2256e-07
6024.0, 4.208e-07
6026.0, 4.1663e-07
6028.0, 4.2159e-07
6030.0, 4.419e-07
6032.0, 4.4162e-07
6034.0, 4.2858e-07
6036.0, 4.8363e-07
6038.0, 4.4145e-07
6040.0, 4.6424e-07
6042.0, 4.5276e-07
6044.0, 4.4683e-07
6046.0, 4.5107e-07
6048.0, 4.2265e-07
6050.0, 4.3972e-07
6052.0, 4.6764e-07
6054.0, 4.5202e-07
6056.0, 4.288e-07
6058.1, 4.4843e-07
6060.1, 4.0935e-07
6062.1, 4.4663e-07
6064.1, 4.6074e-07
6066.1, 4.6669e-07
6068.1, 4.1525e-07
6070.1, 4.2314e-07
6072.1, 4.9322e-07
6074.1, 4.3426e-07
6076.1, 4.6524e-07
6078.1, 4.5424e-07
6080.1, 4.517e-07
6082.1, 4.6318e-07
6084.1, 4.5672e-07
6086.1, 4.2609e-07
6088.1, 4.7677e-07
6090.1, 4.6917e-07
6092.1, 4.7368e-07
6094.1, 4.3597e-07
6096.1, 4.1979e-07
6098.1, 4.9887e-07
6100.1, 4.5062e-07
6102.1, 4.7038e-07
6104.1, 4.6047e-07
6106.1, 4.1686e-07
6108.1, 4.832e-07
6110.1, 4.3955e-07
6112.1, 4.2371e-07
6114.1, 4.4534e-07
6116.1, 4.1828e-07
6118.1, 4.2939e-07
6120.1, 4.572e-07
6122.1, 4.7289e-07
6124.1, 4.526e-07
6126.1, 4.4874e-07
6128.1, 4.5054e-07
6130.1, 4.4993e-07
6132.1, 4.4464e-07
6134.1, 4.8566e-07
6136.1, 4.2693e-07
6138.1, 3.9512e-07
6140.1, 4.4499e-07
6142.1, 4.6854e-07
6144.1, 4.2761e-07
6146.1, 4.5523e-07
6148.1, 4.4844e-07
6150.1, 4.7299e-07
6152.1, 4.6243e-07
6154.1, 4.7968e-07
6156.1, 4.4922e-07
6158.2, 5.1535e-07
6160.2, 4.3114e-07
6162.2, 4.3005e-07
6164.2, 4.7712e-07
6166.2, 4.425e-07
6168.2, 4.7156e-07
6170.2, 4.6487e-07
6172.2, 4.4948e-07
6174.2, 5.0671e-07
6176.2, 4.3987e-07
6178.2, 3.5147e-07
6180.2, 4.2606e-07
6182.2, 3.8889e-07
6184.2, 4.1868e-07
6186.2, 4.3186e-07
6188.2, 4.8146e-07
6190.2, 4.3822e-07
6192.2, 4.2567e-07
6194.2, 4.3491e-07
6196.2, 4.6799e-07
6198.2, 4.0784e-07
6200.2, 4.6735e-07
6202.2, 4.1638e-07
6204.2, 4.5773e-07
6206.2, 4.4908e-07
6208.2, 4.6044e-07
6210.2, 4.6064e-07
6212.2, 4.7121e-07
6214.2, 4.2814e-07
6216.2, 4.3854e-07
6218.2, 4.3105e-07
6220.2, 4.8037e-07
6222.2, 4.2887e-07
6224.2, 4.6024e-07
6226.2, 4.7731e-07
6228.2, 4.5487e-07
6230.2, 4.418e-07
6232.2, 4.4365e-07
6234.2, 4.5253e-07
6236.2, 4.6337e-07
6238.2, 4.3979e-07
6240.2, 4.432e-07
6242.2, 4.2469e-07
6244.2, 4.8614e-07
6246.2, 4.4435e-07
6248.2, 3.9482e-07
6250.2, 4.9818e-07
6252.2, 4.2834e-07
6254.2, 4.5416e-07
6256.2, 4.6715e-07
6258.3, 4.3025e-07
6260.3, 4.5037e-07
6262.3, 4.3691e-07
6264.3, 5.0651e-07
6266.3, 4.8081e-07
6268.3, 4.7083e-07
6270.3, 4.5782e-07
6272.3, 4.5773e-07
6274.3, 4.34e-07
6276.3, 4.661e-07
6278.3, 4.4511e-07
6280.3, 4.1625e-07
6282.3, 4.1579e-07
6284.3, 4.9514e-07
6286.3, 4.2771e-07
6288.3, 4.1944e-07
6290.3, 4.163e-07
6292.3, 4.3236e-07
6294.3, 4.6405e-07
6296.3, 4.4003e-07
6298.3, 4.3822e-07
6300.3, 4.1012e-07
6302.3, 4.6974e-07
6304.3, 5.1029e-07
6306.3, 4.3039e-07
6308.3, 4.3506e-07
6310.3, 4.3827e-07
6312.3, 4.3737e-07
6314.3, 4.6764e-07
6316.3, 4.3184e-07
6318.3, 4.5291e-07
6320.3, 4.7073e-07
6322.3, 4.5909e-07
6324.3, 4.4758e-07
6326.3, 4.3678e-07
6328.3, 4.7069e-07
6330.3, 4.0757e-07
6332.3, 4.4899e-07
6334.3, 4.5123e-07
6336.3, 4.5454e-07
6338.3, 4.3315e-07
6340.3, 4.5978e-07
6342.3, 4.7327e-07
6344.3, 4.8122e-07
6346.3, 4.5849e-07
6348.3, 4.739e-07
6350.3, 4.7268e-07
6352.3, 4.6337e-07
6354.3, 4.3331e-07
6356.3, 4.7957e-07
6358.4, 4.4347e-07
6360.4, 5.2494e-07
6362.4, 4.7018e-07
6364.4, 4.6554e-07
6366.4, 4.721e-07
6368.4, 4.7771e-07
6370.4, 4.3314e-07
6372.4, 5.1524e-07
6374.4, 4.6305e-07
6376.4, 5.0573e-07
6378.4, 4.5951e-07
6380.4, 4.2999e-07
6382.4, 4.3758e-07
6384.4, 4.2165e-07
6386.4, 4.3357e-07
6388.4, 4.8543e-07
6390.4, 4.6325e-07
6392.4, 4.7258e-07
6394.4, 4.6622e-07
6396.4, 4.6197e-07
6398.4, 5.1168e-07
6400.4, 4.8609e-07
6402.4, 4.7104e-07
6404.4, 4.8656e-07
6406.4, 4.4843e-07
6408.4, 4.4963e-07
6410.4, 4.8261e-07
6412.4, 5.0522e-07
6414.4, 4.7532e-07
6416.4, 4.5169e-07
6418.4, 4.2894e-07
6420.4, 4.5653e-07
6422.4, 4.7345e-07
6424.4, 4.5923e-07
6426.4, 4.3552e-07
6428.4, 4.3825e-07
6430.4, 4.5654e-07
6432.4, 5.0582e-07
6434.4, 4.129e-07
6436.4, 5.0154e-07
6438.4, 4.2739e-07
6440.4, 4.4647e-07
6442.4, 4.4429e-07
6444.4, 4.5916e-07
6446.4, 4.5228e-07
6448.4, 4.2679e-07
6450.4, 4.8242e-07
6452.4, 4.5664e-07
6454.4, 4.2866e-07
6456.4, 4.5397e-07
6458.5, 4.9282e-07
6460.5, 4.9682e-07
6462.5, 4.0665e-07
6464.5, 4.9659e-07
6466.5, 4.7599e-07
6468.5, 4.5808e-07
6470.5, 3.9797e-07
6472.5, 4.545e-07
6474.5, 4.6233e-07
6476.5, 4.2675e-07
6478.5, 4.8163e-07
6480.5, 4.4553e-07
6482.5, 4.7303e-07
6484.5, 4.1883e-07
6486.5, 4.2058e-07
6488.5, 5.1309e-07
6490.5, 4.5499e-07
6492.5, 4.5565e-07
6494.5, 4.4805e-07
6496.5, 5.1139e-07
6498.5, 3.7405e-07
6500.5, 4.3763e-07
6502.5, 2.3345e-07
6504.5, -2.652e-08
6506.5, -2.868e-08
6508.5, -2.229e-08
6510.5, -2.524e-08
6512.5, -2.412e-08
6514.5, -2.918e-08
6516.5, -2.318e-08
6518.5, -2.26e-08
6520.5, -2.867e-08
6522.5, -2.319e-08
6524.5, -2.514e-08
6526.5, -2.618e-08
6528.5, -2.51e-08
6530.5, -2.823e-08
6532.5, -2.377e-08
6534.5, -2.496e-08
6536.5, -2.471e-08
6538.5, -2.69e-08
6540.5, -2.485e-08
6542.5, -2.552e-08
6544.5, -2.749e-08
6546.5, -2.445e-08
6548.5, -2.738e-08
6550.5, -2.482e-08
6552.5, -2.52e-08
6554.5, -2.23e-08
6556.5, -2.625e-08
6558.6, -2.39e-08
6560.6, -2.467e-08
6562.6, -2.882e-08
6564.6, -2.642e-08
6566.6, -2.696e-08
6568.6, -3.299e-08
6570.6, -2.788e-08
6572.6, -2.965e-08
6574.6, -2.975e-08
6576.6, -2.839e-08
6578.6, -3.042e-08
6580.6, -2.591e-08
6582.6, -3.001e-08
6584.6, -2.773e-08
6586.6, -3.225e-08
6588.6, -3.006e-08
6590.6, -3.161e-08
6592.6, -2.739e-08
6594.6, -2.74e-08
6596.6, -3.213e-08
6598.6, -2.773e-08
6600.6, -3.002e-08
6602.6, -2.652e-08
6604.6, -3.065e-08
6606.6, -3.043e-08
6608.6, -3.162e-08
6610.6, -3.079e-08
6612.6, -2.577e-08
6614.6, -2.461e-08
6616.6, -2.898e-08
6618.6, -2.776e-08
6620.6, -3.387e-08
6622.6, -2.725e-08
6624.6, -2.774e-08
6626.6, -2.473e-08
6628.6, -2.507e-08
6630.6, -2.474e-08
6632.6, -2.821e-08
6634.6, -2.58e-08
6636.6, -2.548e-08
6638.6, -2.386e-08
6640.6, -2.984e-08
6642.6, -2.527e-08
6644.6, -2.45e-08
6646.6, -2.755e-08
6648.6, -2.9e-08
6650.6, -2.819e-08
6652.6, -2.439e-08
6654.6, -3.113e-08
6656.6, -3.365e-08
6658.7, -2.999e-08
6660.7, -3.072e-08
6662.7, -2.922e-08
6664.7, -2.826e-08
6666.7, -2.761e-08
6668.7, -2.697e-08
6670.7, -2.624e-08
6672.7, -2.322e-08
6674.7, -2.599e-08
6676.7, -3.328e-08
6678.7, -2.961e-08
6680.7, -3.018e-08
6682.7, -2.653e-08
6684.7, -2.636e-08
6686.7, -2.556e-08
6688.7, -2.508e-08
6690.7, -2.667e-08
6692.7, -2.85e-08
6694.7, -3.065e-08
6696.7, -3.29e-08
6698.7, -3.542e-08
6700.7, -3.036e-08
6702.7, -2.915e-08
6704.7, -2.855e-08
6706.7, -2.806e-08
6708.7, -3.092e-08
6710.7, -3.104e-08
6712.7, -2.726e-08
6714.7, -2.877e-08
6716.7, -2.575e-08
6718.7, -2.816e-08
6720.7, -2.57e-08
6722.7, -2.881e-08
6724.7, -2.726e-08
6726.7, -2.778e-08
6728.7, -2.946e-08
6730.7, -2.91e-08
6732.7, -2.751e-08
6734.7, -2.993e-08
6736.7, -2.828e-08
6738.7, -2.815e-08
6740.7, -2.759e-08
6742.7, -2.9e-08
6744.7, -2.97e-08
6746.7, -2.617e-08
6748.7, -2.433e-08
6750.7, -2.74e-08
6752.7, -2.651e-08
6754.7, -3.034e-08
6756.7, -2.605e-08
6758.8, -2.877e-08
6760.8, -2.8e-08
6762.8, -2.626e-08
6764.8, -2.519e-08
6766.8, -2.862e-08
6768.8, -2.721e-08
6770.8, -2.619e-08
6772.8, -2.567e-08
6774.8, -2.797e-08
6776.8, -2.466e-08
6778.8, -2.711e-08
6780.8, -2.946e-08
6782.8, -2.971e-08
6784.8, -2.923e-08
6786.8, -2.775e-08
6788.8, -2.928e-08
6790.8, -2.73e-08
6792.8, -2.876e-08
6794.8, -3.083e-08
6796.8, -3.104e-08
6798.8, -3.037e-08
6800.8, -3.015e-08
6802.8, -2.695e-08
6804.8, -2.553e-08
6806.8, -2.483e-08
6808.8, -2.638e-08
6810.8, -2.894e-08
6812.8, -2.8e-08
6814.8, -2.636e-08
6816.8, -2.697e-08
6818.8, -2.665e-08
6820.8, -2.775e-08
6822.8, -2.6e-08
6824.8, -2.888e-08
6826.8, -2.716e-08
6828.8, -2.319e-08
6830.8, -2.573e-08
6832.8, -2.466e-08
6834.8, -2.51e-08
6836.8, -2.443e-08
6838.8, -2.492e-08
6840.8, -2.132e-08
6842.8, -2.045e-08
6844.8, -2.328e-08
6846.8, -2.294e-08
6848.8, -2.458e-08
6850.8, -2.493e-08
6852.8, -3.063e-08
6854.8, -3.047e-08
6856.8, -2.871e-08
6858.9, -2.715e-08
6860.9, -2.723e-08
6862.9, -2.559e-08
6864.9, -2.485e-08
6866.9, -2.171e-08
6868.9, -2.741e-08
6870.9, -2.126e-08
6872.9, -2.453e-08
6874.9, -2.299e-08
6876.9, -2.56e-08
6878.9, -2.538e-08
6880.9, -2.578e-08
6882.9, -2.408e-08
6884.9, -2.371e-08
6886.9, -2.525e-08
6888.9, -2.41e-08
6890.9, -2.479e-08
6892.9, -2.543e-08
6894.9, -2.619e-08
6896.9, -2.523e-08
6898.9, -2.624e-08
6900.9, -2.544e-08
6902.9, -2.764e-08
6904.9, -2.296e-08
6906.9, -2.21e-08
6908.9, -2.525e-08
6910.9, -2.349e-08
6912.9, -2.686e-08
6914.9, -2.705e-08
6916.9, -2.649e-08
6918.9, -2.419e-08
6920.9, -2.427e-08
6922.9, -2.193e-08
6924.9, -2.453e-08
6926.9, -2.377e-08
6928.9, -2.372e-08
6930.9, -2.338e-08
6932.9, -2.027e-08
6934.9, -2.281e-08
6936.9, -2.357e-08
6938.9, -2.324e-08
6940.9, -2.519e-08
6942.9, -2.461e-08
6944.9, -2.093e-08
6946.9, -2.243e-08
6948.9, -2.477e-08
6950.9, -2.475e-08
6952.9, -2.502e-08
6954.9, -2.306e-08
6956.9, -2.222e-08
6959.0, -2.401e-08
6961.0, -2.82e-08
6963.0, -2.256e-08
6965.0, -2.377e-08
6967.0, -2.141e-08
6969.0, -2.28e-08
6971.0, -2.225e-08
6973.0, -2.01e-08
6975.0, -1.916e-08
6977.0, -2.467e-08
6979.0, -2.347e-08
6981.0, -2.013e-08
6983.0, -2.377e-08
6985.0, -2.372e-08
6987.0, -2.449e-08
6989.0, -2.313e-08
6991.0, -2.616e-08
6993.0, -2.794e-08
6995.0, -2.304e-08
6997.0, -2.655e-08
6999.0, -2.436e-08
7001.0, -2.491e-08
7003.0, -2.184e-08
7005.0, -2.461e-08
7007.0, -2.763e-08
7009.0, -2.611e-08
7011.0, -2.538e-08
7013.0, -2.283e-08
7015.0, -2.194e-08
7017.0, -2.384e-08
7019.0, -2.074e-08
7021.0, -2.579e-08
7023.0, -2.543e-08
7025.0, -2.411e-08
7027.0, -2.631e-08
7029.0, -3.175e-08
7031.0, -2.753e-08
7033.0, -2.411e-08
7035.0, -2.854e-08
7037.0, -2.735e-08
7039.0, -2.315e-08
7041.0, -2.452e-08
7043.0, -2.392e-08
7045.0, -2.268e-08
7047.0, -2.406e-08
7049.0, -2.297e-08
7051.0, -2.271e-08
7053.0, -2.229e-08
7055.0, -2.029e-08
7057.0, -2.265e-08
7059.1, -2.239e-08
7061.1, -2.395e-08
7063.1, -2.359e-08
7065.1, -2.573e-08
7067.1, -2.475e-08
7069.1, -2.264e-08
7071.1, -2.724e-08
7073.1, -2.248e-08
7075.1, -2.72e-08
7077.1, -2.422e-08
7079.1, -2.617e-08
7081.1, -2.411e-08
7083.1, -2.436e-08
7085.1, -2.338e-08
7087.1, -2.144e-08
7089.1, -2.358e-08
7091.1, -2.266e-08
7093.1, -2.706e-08
7095.1, -2.885e-08
7097.1, -2.178e-08
7099.1, -2.316e-08
7101.1, -2.363e-08
7103.1, -2.248e-08
7105.1, -2.207e-08
7107.1, -2.506e-08
7109.1, -2.521e-08
7111.1, -2.204e-08
7113.1, -1.985e-08
7115.1, -2.309e-08
7117.1, -2.118e-08
7119.1, -1.792e-08
7121.1, -1.81e-08
7123.1, -1.565e-08
7125.1, -2.296e-08
7127.1, -2.288e-08
7129.1, -1.989e-08
7131.1, -2.41e-08
7133.1, -2.308e-08
7135.1, -2.418e-08
7137.1, -2.006e-08
7139.1, -2.512e-08
7141.1, -2.323e-08
7143.1, -2.402e-08
7145.1, -2.659e-08
7147.1, -2.265e-08
7149.1, -2.377e-08
7151.1, -1.908e-08
7153.1, -2.137e-08
7155.1, -2.527e-08
7157.1, -2.679e-08
7159.2, -2.26e-08
7161.2, -2.527e-08
7163.2, -2.139e-08
7165.2, -2.321e-08
7167.2, -2.098e-08
7169.2, -2.055e-08
7171.2, -2.114e-08
7173.2, -2.315e-08
7175.2, -2.457e-08
7177.2, -1.972e-08
7179.2, -2.21e-08
7181.2, -2.411e-08
7183.2, -1.66e-08
7185.2, -1.95e-08
7187.2, -2.102e-08
7189.2, -2.128e-08
7191.2, -2.148e-08
7193.2, -2.29e-08
7195.2, -2.242e-08
7197.2, -1.861e-08
7199.2, -2.413e-08
7201.2, -2.204e-08
7203.2, -1.904e-08
7205.2, -2.468e-08
7207.2, -2.049e-08
7209.2, -2.23e-08
7211.2, -2.101e-08
7213.2, -1.983e-08
7215.2, -1.991e-08
7217.2, -2.301e-08
7219.2, -2.048e-08
7221.2, -2.521e-08
7223.2, -2.374e-08
7225.2, -2.698e-08
7227.2, -2.512e-08
7229.2, -3.04e-08
7231.2, -2.232e-08
7233.2, -2.417e-08
7235.2, -2.162e-08
7237.2, -2.343e-08
7239.2, -1.985e-08
7241.2, -2.096e-08
7243.2, -2.196e-08
7245.2, -2.365e-08
7247.2, -2.196e-08
7249.2, -2.213e-08
7251.2, -2.415e-08
7253.2, -2.549e-08
7255.2, -2.242e-08
7257.2, -2.296e-08
7259.3, -2.328e-08
7261.3, -2.06e-08
7263.3, -2.408e-08
7265.3, -2.231e-08
7267.3, -2.159e-08
7269.3, -2.489e-08
7271.3, -2.313e-08
7273.3, -2.425e-08
7275.3, -1.762e-08
7277.3, -2.195e-08
7279.3, -1.762e-08
7281.3, -2.074e-08
7283.3, -2.521e-08
7285.3, -2.443e-08
7287.3, -1.932e-08
7289.3, -2.663e-08
7291.3, -2.379e-08
7293.3, -2.556e-08
7295.3, -2.378e-08
7297.3, -2.313e-08
7299.3, -2.529e-08
7301.3, -2.211e-08
7303.3, -2.357e-08
7305.3, -2.408e-08
7307.3, -2.415e-08
7309.3, -2.506e-08
7311.3, -2.972e-08
7313.3, -2.657e-08
7315.3, -3.078e-08
7317.3, -2.804e-08
7319.3, -2.674e-08
7321.3, -2.5e-08
7323.3, -2.903e-08
7325.3, -3.022e-08
7327.3, -2.561e-08
7329.3, -2.619e-08
7331.3, -2.768e-08
7333.3, -2.413e-08
7335.3, -2.466e-08
7337.3, -2.495e-08
7339.3, -1.871e-08
7341.3, -2.856e-08
7343.3, -2.737e-08
7345.3, -2.663e-08
7347.3, -2.648e-08
7349.3, -2.682e-08
7351.3, -2.362e-08
7353.3, -2.412e-08
7355.3, -2.335e-08
7357.3, -2.703e-08
7359.4, -2.706e-08
7361.4, -2.405e-08
7363.4, -2.222e-08
7365.4, -2.239e-08
7367.4, -2.707e-08
7369.4, -2.523e-08
7371.4, -2.482e-08
7373.4, -2.792e-08
7375.4, -2.795e-08
7377.4, -2.433e-08
7379.4, -2.613e-08
7381.4, -2.625e-08
7383.4, -2.682e-08
7385.4, -2.549e-08
7387.4, -2.858e-08
7389.4, -2.698e-08
7391.4, -2.382e-08
7393.4, -2.232e-08
7395.4, -2.248e-08
7397.4, -2.248e-08
7399.4, -2.112e-08
7401.4, -1.843e-08
7403.4, -2.336e-08
7405.4, -2.701e-08
7407.4, -2.334e-08
7409.4, -2.574e-08
7411.4, -2.996e-08
7413.4, -2.707e-08
7415.4, -3.175e-08
7417.4, -2.647e-08
7419.4, -2.575e-08
7421.4, -3.003e-08
7423.4, -2.67e-08
7425.4, -2.977e-08
7427.4, -2.704e-08
7429.4, -2.744e-08
7431.4, -2.647e-08
7433.4, -2.831e-08
7435.4, -2.615e-08
7437.4, -2.802e-08
7439.4, -3.051e-08
7441.4, -2.552e-08
7443.4, -2.402e-08
7445.4, -2.473e-08
7447.4, -2.57e-08
7449.4, -2.649e-08
7451.4, -2.66e-08
7453.4, -2.652e-08
7455.4, -2.628e-08
7457.4, -2.96e-08
7459.5, -2.908e-08
7461.5, -2.647e-08
7463.5, -2.711e-08
7465.5, -2.597e-08
7467.5, -2.773e-08
7469.5, -2.766e-08
7471.5, -2.706e-08
7473.5, -2.595e-08
7475.5, -2.078e-08
7477.5, -2.432e-08
7479.5, -2.539e-08
7481.5, -2.55e-08
7483.5, -2.338e-08
7485.5, -2.651e-08
7487.5, -2.377e-08
7489.5, -2.817e-08
7491.5, -2.556e-08
7493.5, -2.525e-08
7495.5, -2.458e-08
7497.5, -2.642e-08
7499.5, -2.553e-08
7501.5, -2.321e-08
7503.5, -2.518e-08
7505.5, -2.723e-08
7507.5, -2.635e-08
7509.5, -2.37e-08
7511.5, -2.802e-08
7513.5, -2.646e-08
7515.5, -2.441e-08
7517.5, -2.556e-08
7519.5, -2.235e-08
7521.5, -2.593e-08
7523.5, -2.424e-08
7525.5, -2.239e-08
7527.5, -2.359e-08
7529.5, -2.278e-08
7531.5, -2.048e-08
7533.5, -2.312e-08
7535.5, -2.451e-08
7537.5, -2.259e-08
7539.5, -2.732e-08
7541.5, -2.425e-08
7543.5, -2.555e-08
7545.5, -2.099e-08
7547.5, -2.614e-08
7549.5, 2.0617e-07
7551.5, 4.1946e-07
7553.5, 3.6146e-07
7555.5, 4.2995e-07
7557.5, 4.1314e-07
7559.6, 3.8459e-07
7561.6, 3.9385e-07
7563.6, 3.8627e-07
7565.6, 4.0133e-07
7567.6, 3.996e-07
7569.6, 3.5202e-07
7571.6, 3.9146e-07
7573.6, 3.4773e-07
7575.6, 4.2333e-07
7577.6, 3.7109e-07
7579.6, 3.943e-07
7581.6, 4.1076e-07
7583.6, 3.8544e-07
7585.6, 4.0889e-07
7587.6, 4.0213e-07
7589.6, 3.8458e-07
7591.6, 4.2047e-07
7593.6, 3.6938e-07
7595.6, 4.2603e-07
7597.6, 4.0566e-07
7599.6, 3.7833e-07
7601.6, 4.4049e-07
7603.6, 3.7036e-07
7605.6, 3.6081e-07
7607.6, 4.0601e-07
7609.6, 3.9891e-07
7611.6, 4.0589e-07
7613.6, 4.0853e-07
7615.6, 3.6561e-07
7617.6, 4.3277e-07
7619.6, 3.9947e-07
7621.6, 4.068e-07
7623.6, 4.2518e-07
7625.6, 4.2378e-07
7627.6, 3.9184e-07
7629.6, 4.0475e-07
7631.6, 4.0645e-07
7633.6, 4.0503e-07
7635.6, 4.2245e-07
7637.6, 3.9641e-07
7639.6, 3.9107e-07
7641.6, 4.5949e-07
7643.6, 3.9199e-07
7645.6, 3.5016e-07
7647.6, 4.2044e-07
7649.6, 3.8205e-07
7651.6, 3.9294e-07
7653.6, 4.2067e-07
7655.6, 4.0599e-07
7657.6, 4.3331e-07
7659.7, 4.604e-07
7661.7, 3.8351e-07
7663.7, 4.5022e-07
7665.7, 4.0379e-07
7667.7, 4.1179e-07
7669.7, 3.7635e-07
7671.7, 4.1919e-07
7673.7, 4.679e-07
7675.7, 4.3185e-07
7677.7, 4.0701e-07
7679.7, 4.7839e-07
7681.7, 3.9123e-07
7683.7, 3.96e-07
7685.7, 4.5096e-07
7687.7, 4.2565e-07
7689.7, 4.432e-07
7691.7, 3.8006e-07
7693.7, 4.4373e-07
7695.7, 4.1759e-07
7697.7, 4.3757e-07
7699.7, 4.5432e-07
7701.7, 3.8032e-07
7703.7, 4.2587e-07
7705.7, 4.0123e-07
7707.7, 3.8249e-07
7709.7, 4.0677e-07
7711.7, 4.5222e-07
7713.7, 4.5649e-07
7715.7, 4.3097e-07
7717.7, 3.9967e-07
7719.7, 4.2553e-07
7721.7, 4.6709e-07
7723.7, 4.2372e-07
7725.7, 4.2991e-07
7727.7, 4.231e-07
7729.7, 4.0706e-07
7731.7, 3.882e-07
7733.7, 4.3692e-07
7735.7, 4.2473e-07
7737.7, 4.7695e-07
7739.7, 4.036e-07
7741.7, 4.4121e-07
7743.7, 4.1518e-07
7745.7, 4.0902e-07
7747.7, 4.106e-07
7749.7, 4.3575e-07
7751.7, 4.1876e-07
7753.7, 4.4749e-07
7755.7, 4.3858e-07
7757.7, 4.4415e-07
7759.8, 4.1577e-07
7761.8, 3.8949e-07
7763.8, 4.6215e-07
7765.8, 4.1377e-07
7767.8, 3.9152e-07
7769.8, 4.3485e-07
7771.8, 4.255e-07
7773.8, 4.0689e-07
7775.8, 4.6855e-07
7777.8, 4.6413e-07
7779.8, 4.2758e-07
7781.8, 4.2472e-07
7783.8, 4.2081e-07
7785.8, 4.3088e-07
7787.8, 4.1796e-07
7789.8, 4.1765e-07
7791.8, 4.1966e-07
7793.8, 4.7639e-07
7795.8, 4.9024e-07
7797.8, 4.5547e-07
7799.8, 4.0701e-07
7801.8, 4.2214e-07
7803.8, 4.1997e-07
7805.8, 4.1771e-07
7807.8, 4.6933e-07
7809.8, 4.3827e-07
7811.8, 4.5701e-07
7813.8, 4.0769e-07
7815.8, 4.3225e-07
7817.8, 4.1767e-07
7819.8, 4.4313e-07
7821.8, 4.5115e-07
7823.8, 4.161e-07
7825.8, 3.7582e-07
7827.8, 4.2359e-07
7829.8, 4.3275e-07
7831.8, 4.4675e-07
7833.8, 4.1984e-07
7835.8, 4.1001e-07
7837.8, 4.2579e-07
7839.8, 4.377e-07
7841.8, 4.1631e-07
7843.8, 5.1342e-07
7845.8, 4.5195e-07
7847.8, 4.3062e-07
7849.8, 4.6993e-07
7851.8, 4.6227e-07
7853.8, 4.4333e-07
7855.8, 4.7689e-07
7857.8, 4.4074e-07
7859.9, 4.4418e-07
7861.9, 4.5956e-07
7863.9, 4.4616e-07
7865.9, 4.173e-07
7867.9, 4.3072e-07
7869.9, 4.4333e-07
7871.9, 4.1577e-07
7873.9, 4.3975e-07
7875.9, 4.5973e-07
7877.9, 4.036e-07
7879.9, 4.5044e-07
7881.9, 4.2963e-07
7883.9, 3.3395e-07
7885.9, 4.031e-07
7887.9, 4.4961e-07
7889.9, 4.3019e-07
7891.9, 4.1026e-07
7893.9, 4.402e-07
7895.9, 4.2955e-07
7897.9, 4.5039e-07
7899.9, 3.9696e-07
7901.9, 4.585e-07
7903.9, 4.3072e-07
7905.9, 4.3322e-07
7907.9, 4.0012e-07
7909.9, 4.0809e-07
7911.9, 4.1589e-07
7913.9, 4.9254e-07
7915.9, 4.2138e-07
7917.9, 4.3003e-07
7919.9, 4.3111e-07
7921.9, 4.1812e-07
7923.9, 4.3454e-07
7925.9, 4.6982e-07
7927.9, 4.1311e-07
7929.9, 4.5711e-07
7931.9, 4.2446e-07
7933.9, 4.392e-07
7935.9, 4.2286e-07
7937.9, 4.6673e-07
7939.9, 4.4013e-07
7941.9, 4.3509e-07
7943.9, 4.5223e-07
7945.9, 4.6294e-07
7947.9, 4.1582e-07
7949.9, 4.4562e-07
7951.9, 4.1511e-07
7953.9, 4.2914e-07
7955.9, 4.7621e-07
7957.9, 4.7325e-07
7960.0, 4.3409e-07
7962.0, 4.3302e-07
7964.0, 4.414e-07
7966.0, 4.0746e-07
7968.0, 4.1862e-07
7970.0, 4.7287e-07
7972.0, 4.4774e-07
7974.0, 4.2927e-07
7976.0, 4.2656e-07
7978.0, 4.0705e-07
7980.0, 4.6198e-07
7982.0, 3.9822e-07
7984.0, 4.226e-07
7986.0, 4.013e-07
7988.0, 4.5309e-07
7990.0, 4.8144e-07
7992.0, 4.4233e-07
7994.0, 4.6607e-07
7996.0, 4.4464e-07
7998.0, 4.3891e-07
8000.0, 4.5113e-07
8002.0, 4.5598e-07
8004.0, 4.3201e-07
8006.0, 5.0199e-07
8008.0, 4.7307e-07
8010.0, 4.7166e-07
8012.0, 4.5069e-07
8014.0, 4.5107e-07
8016.0, 4.1868e-07
8018.0, 4.275e-07
8020.0, 4.167e-07
8022.0, 4.9204e-07
8024.0, 4.9563e-07
8026.0, 4.6943e-07
8028.0, 5.0041e-07
8030.0, 4.4774e-07
8032.0, 4.3788e-07
8034.0, 4.0317e-07
8036.0, 4.4479e-07
8038.0, 4.319e-07
8040.0, 4.3559e-07
8042.0, 4.4089e-07
8044.0, 4.3778e-07
8046.0, 4.5735e-07
8048.0, 4.12e-07
8050.0, 4.5014e-07
8052.0, 3.8715e-07
8054.0, 4.5931e-07
8056.0, 4.5775e-07
8058.0, 4.5389e-07
8060.1, 4.317e-07
8062.1, 4.1293e-07
8064.1, 4.2308e-07
8066.1, 4.5485e-07
8068.1, 4.3355e-07
8070.1, 4.2686e-07
8072.1, 4.7345e-07
8074.1, 4.3355e-07
8076.1, 4.7304e-07
8078.1, 3.9973e-07
8080.1, 5.2004e-07
8082.1, 4.8488e-07
8084.1, 4.6564e-07
8086.1, 4.1029e-07
8088.1, 4.3343e-07
8090.1, 4.3583e-07
8092.1, 4.7252e-07
8094.1, 4.4245e-07
8096.1, 4.4554e-07
8098.1, 4.5745e-07
8100.1, 4.5477e-07
8102.1, 4.5573e-07
8104.1, 5.1949e-07
8106.1, 4.2873e-07
8108.1, 4.3271e-07
8110.1, 4.138e-07
8112.1, 4.2593e-07
8114.1, 4.7696e-07
8116.1, 4.9682e-07
8118.1, 4.6091e-07
8120.1, 4.2593e-07
8122.1, 4.1231e-07
8124.1, 4.5384e-07
8126.1, 4.7338e-07
8128.1, 4.1619e-07
8130.1, 4.98e-07
8132.1, 4.6219e-07
8134.1, 4.2508e-07
8136.1, 4.7486e-07
8138.1, 4.428e-07
8140.1, 4.5622e-07
8142.1, 4.9688e-07
8144.1, 4.6748e-07
8146.1, 4.4235e-07
8148.1, 4.3859e-07
8150.1, 4.5633e-07
8152.1, 4.9471e-07
8154.1, 4.5949e-07
8156.1, 4.1523e-07
8158.1, 4.9297e-07
8160.2, 4.5556e-07
8162.2, 3.9531e-07
8164.2, 4.9672e-07
8166.2, 4.7297e-07
8168.2, 4.4941e-07
8170.2, 5.2404e-07
8172.2, 4.3992e-07
8174.2, 4.7511e-07
8176.2, 4.7377e-07
8178.2, 4.6773e-07
8180.2, 4.9495e-07
8182.2, 4.1742e-07
8184.2, 4.5715e-07
8186.2, 4.3035e-07
8188.2, 4.937e-07
8190.2, 4.7021e-07
8192.2, 4.7831e-07
8194.2, 4.1321e-07
8196.2, 4.8844e-07
8198.2, 4.7669e-07
8200.2, 4.8796e-07
8202.2, 4.6034e-07
8204.2, 4.0842e-07
8206.2, 4.6759e-07
8208.2, 4.7054e-07
8210.2, 4.9052e-07
8212.2, 4.1306e-07
8214.2, 4.3661e-07
8216.2, 4.7563e-07
8218.2, 4.5916e-07
8220.2, 4.6391e-07
8222.2, 4.4126e-07
8224.2, 4.3798e-07
8226.2, 4.5859e-07
8228.2, 4.1941e-07
8230.2, 4.5672e-07
8232.2, 4.9734e-07
8234.2, 4.4239e-07
8236.2, 4.5609e-07
8238.2, 4.4298e-07
8240.2, 4.1338e-07
8242.2, 4.0306e-07
8244.2, 4.866e-07
8246.2, 4.6987e-07
8248.2, 4.6887e-07
8250.2, 4.8238e-07
8252.2, 4.7672e-07
8254.2, 4.5033e-07
8256.2, 4.4117e-07
8258.2, 4.2549e-07
8260.3, 4.6378e-07
8262.3, 4.5095e-07
8264.3, 4.5242e-07
8266.3, 4.297e-07
8268.3, 4.554e-07
8270.3, 4.5103e-07
8272.3, 4.4961e-07
8274.3, 5.0545e-07
8276.3, 4.6405e-07
8278.3, 4.1448e-07
8280.3, 4.3839e-07
8282.3, 4.134e-07
8284.3, 4.445e-07
8286.3, 4.3232e-07
8288.3, 4.086e-07
8290.3, 4.8813e-07
8292.3, 4.7016e-07
8294.3, 4.3022e-07
8296.3, 4.4947e-07
8298.3, 4.6932e-07
8300.3, 4.5172e-07
8302.3, 4.7851e-07
8304.3, 4.37e-07
8306.3, 4.688e-07
8308.3, 4.4096e-07
8310.3, 4.3951e-07
8312.3, 4.4112e-07
8314.3, 3.8622e-07
8316.3, 4.805e-07
8318.3, 4.5726e-07
8320.3, 4.2134e-07
8322.3, 4.3828e-07
8324.3, 5.3541e-07
8326.3, 4.7931e-07
8328.3, 4.6399e-07
8330.3, 4.2893e-07
8332.3, 4.1353e-07
8334.3, 5.0177e-07
8336.3, 4.7165e-07
8338.3, 4.0227e-07
8340.3, 4.4264e-07
8342.3, 4.759e-07
8344.3, 4.7e-07
8346.3, 4.22e-07
8348.3, 4.2292e-07
8350.3, 5.2291e-07
8352.3, 4.1608e-07
8354.3, 3.9602e-07
8356.3, 4.0185e-07
8358.3, 4.6312e-07
8360.4, 5.0969e-07
8362.4, 4.661e-07
8364.4, 4.5888e-07
8366.4, 4.3428e-07
8368.4, 4.2491e-07
8370.4, 4.38e-07
8372.4, 4.9735e-07
8374.4, 4.7689e-07
8376.4, 4.5857e-07
8378.4, 4.5522e-07
8380.4, 4.6655e-07
8382.4, 4.3829e-07
8384.4, 4.0122e-07
8386.4, 4.2578e-07
8388.4, 4.0453e-07
8390.4, 4.5844e-07
8392.4, 5.0431e-07
8394.4, 4.6622e-07
8396.4, 4.6612e-07
8398.4, 4.8845e-07
8400.4, 4.3875e-07
8402.4, 4.5303e-07
8404.4, 4.5049e-07
8406.4, 4.724e-07
8408.4, 4.4103e-07
8410.4, 4.7442e-07
8412.4, 4.4383e-07
8414.4, 4.7134e-07
8416.4, 4.5767e-07
8418.4, 4.557e-07
8420.4, 4.7406e-07
8422.4, 4.5834e-07
8424.4, 4.4837e-07
8426.4, 4.5813e-07
8428.4, 4.7851e-07
8430.4, 4.362e-07
8432.4, 4.8596e-07
8434.4, 4.2574e-07
8436.4, 5.2228e-07
8438.4, 4.8189e-07
8440.4, 4.4396e-07
8442.4, 4.3893e-07
8444.4, 4.609e-07
8446.4, 4.0595e-07
8448.4, 4.268e-07
8450.4, 4.9818e-07
8452.4, 4.5573e-07
8454.4, 4.3566e-07
8456.4, 5.0534e-07
8458.4, 4.5481e-07
8460.5, 4.2844e-07
8462.5, 4.5035e-07
8464.5, 4.8005e-07
8466.5, 4.551e-07
8468.5, 4.8366e-07
8470.5, 4.4718e-07
8472.5, 4.9733e-07
8474.5, 4.1773e-07
8476.5, 4.6536e-07
8478.5, 4.61e-07
8480.5, 4.6347e-07
8482.5, 4.7669e-07
8484.5, 4.7439e-07
8486.5, 4.9707e-07
8488.5, 4.089e-07
8490.5, 4.9745e-07
8492.5, 4.4881e-07
8494.5, 4.9572e-07
8496.5, 4.3407e-07
8498.5, 4.5532e-07
8500.5, 4.5112e-07
8502.5, 4.0718e-07
8504.5, 4.563e-07
8506.5, 4.77e-07
8508.5, 4.9117e-07
8510.5, 4.5517e-07
8512.5, 5.1463e-07
8514.5, 4.9858e-07
8516.5, 4.3044e-07
8518.5, 4.2261e-07
8520.5, 4.6331e-07
8522.5, 4.3409e-07
8524.5, 4.5564e-07
8526.5, 4.6169e-07
8528.5, 4.6979e-07
8530.5, 4.6959e-07
8532.5, 4.2782e-07
8534.5, 4.2236e-07
8536.5, 4.7233e-07
8538.5, 4.3233e-07
8540.5, 4.5224e-07
8542.5, 4.1223e-07
8544.5, 5.003e-07
8546.5, 4.5108e-07
8548.5, 4.6218e-07
8550.5, 2.2509e-07
8552.5, -2.604e-08
8554.5, -2.512e-08
8556.5, -2.632e-08
8558.5, -3.306e-08
8560.6, -3.094e-08
8562.6, -2.865e-08
8564.6, -2.987e-08
8566.6, -2.669e-08
8568.6, -3.059e-08
8570.6, -2.756e-08
8572.6, -2.805e-08
8574.6, -2.788e-08
8576.6, -2.697e-08
8578.6, -2.84e-08
8580.6, -3.104e-08
8582.6, -2.384e-08
8584.6, -2.526e-08
8586.6, -2.59e-08
8588.6, -2.498e-08
8590.6, -2.702e-08
8592.6, -2.74e-08
8594.6, -2.889e-08
8596.6, -3.051e-08
8598.6, -2.775e-08
8600.6, -2.973e-08
8602.6, -2.635e-08
8604.6, -2.496e-08
8606.6, -2.875e-08
8608.6, -2.898e-08
8610.6, -2.641e-08
8612.6, -2.629e-08
8614.6, -2.968e-08
8616.6, -2.719e-08
8618.6, -2.716e-08
8620.6, -2.989e-08
8622.6, -2.409e-08
8624.6, -2.483e-08
8626.6, -2.544e-08
8628.6, -2.317e-08
8630.6, -2.488e-08
8632.6, -2.458e-08
8634.6, -2.252e-08
8636.6, -2.197e-08
8638.6, -2.503e-08
8640.6, -2.325e-08
8642.6, -2.183e-08
8644.6, -2.55e-08
8646.6, -2.324e-08
8648.6, -2.408e-08
8650.6, -2.656e-08
8652.6, -2.658e-08
8654.6, -2.679e-08
8656.6, -2.181e-08
8658.6, -2.261e-08
8660.7, -2.314e-08
8662.7, -2.547e-08
8664.7, -2.134e-08
8666.7, -2.317e-08
8668.7, -2.299e-08
8670.7, -1.995e-08
8672.7, -2.338e-08
8674.7, -2.191e-08
8676.7, -2.21e-08
8678.7, -2.385e-08
8680.7, -2.633e-08
8682.7, -2.234e-08
8684.7, -2.313e-08
8686.7, -2.333e-08
8688.7, -2.799e-08
8690.7, -3.006e-08
8692.7, -2.694e-08
8694.7, -2.507e-08
8696.7, -2.483e-08
8698.7, -2.522e-08
8700.7, -2.762e-08
8702.7, -2.697e-08
8704.7, -2.637e-08
8706.7, -2.572e-08
8708.7, -2.845e-08
8710.7, -2.778e-08
8712.7, -2.307e-08
8714.7, -2.718e-08
8716.7, -2.661e-08
8718.7, -2.858e-08
8720.7, -2.863e-08
8722.7, -2.58e-08
8724.7, -2.274e-08
8726.7, -2.355e-08
8728.7, -2.582e-08
8730.7, -3.038e-08
8732.7, -2.894e-08
8734.7, -2.873e-08
8736.7, -3.345e-08
8738.7, -3.045e-08
8740.7, -3.146e-08
8742.7, -2.777e-08
8744.7, -2.891e-08
8746.7, -2.932e-08
8748.7, -3.501e-08
8750.7, -2.909e-08
8752.7, -2.956e-08
8754.7, -2.833e-08
8756.7, -3.064e-08
8758.7, -3.133e-08
8760.8, -2.985e-08
8762.8, -2.994e-08
8764.8, -2.46e-08
8766.8, -2.857e-08
8768.8, -3.138e-08
8770.8, -3.042e-08
8772.8, -3.019e-08
8774.8, -2.815e-08
8776.8, -3.148e-08
8778.8, -2.86e-08
8780.8, -3.176e-08
8782.8, -2.815e-08
8784.8, -3.471e-08
8786.8, -2.994e-08
8788.8, -3.149e-08
8790.8, -2.705e-08
8792.8, -2.853e-08
8794.8, -2.939e-08
8796.8, -2.878e-08
8798.8, -2.915e-08
8800.8, -3.121e-08
8802.8, -3.373e-08
8804.8, -3.219e-08
8806.8, -3.261e-08
8808.8, -3.155e-08
8810.8, -2.775e-08
8812.8, -2.711e-08
8814.8, -3.027e-08
8816.8, -3.154e-08
8818.8, -3.006e-08
8820.8, -2.915e-08
8822.8, -3.009e-08
8824.8, -3.083e-08
8826.8, -2.938e-08
8828.8, -2.838e-08
8830.8, -2.907e-08
8832.8, -2.971e-08
8834.8, -3.021e-08
8836.8, -3.18e-08
8838.8, -2.757e-08
8840.8, -2.775e-08
8842.8, -2.83e-08
8844.8, -2.756e-08
8846.8, -3.031e-08
8848.8, -2.623e-08
8850.8, -2.451e-08
8852.8, -2.506e-08
8854.8, -2.522e-08
8856.8, -2.379e-08
8858.8, -2.312e-08
8860.9, -2.497e-08
8862.9, -2.76e-08
8864.9, -2.567e-08
8866.9, -2.631e-08
8868.9, -2.867e-08
8870.9, -2.668e-08
8872.9, -2.25e-08
8874.9, -2.185e-08
8876.9, -2.076e-08
8878.9, -2.466e-08
8880.9, -2.782e-08
8882.9, -2.885e-08
8884.9, -3.08e-08
8886.9, -3.035e-08
8888.9, -2.885e-08
8890.9, -2.897e-08
8892.9, -2.994e-08
8894.9, -2.826e-08
8896.9, -3.114e-08
8898.9, -3.014e-08
8900.9, -3.04e-08
8902.9, -3.013e-08
8904.9, -2.867e-08
8906.9, -2.931e-08
8908.9, -3.132e-08
8910.9, -3.024e-08
8912.9, -2.479e-08
8914.9, -2.403e-08
8916.9, -2.756e-08
8918.9, -2.824e-08
8920.9, -3.066e-08
8922.9, -3.108e-08
8924.9, -2.796e-08
8926.9, -2.834e-08
8928.9, -2.681e-08
8930.9, -2.871e-08
8932.9, -2.363e-08
8934.9, -2.377e-08
8936.9, -2.83e-08
8938.9, -2.545e-08
8940.9, -2.748e-08
8942.9, -2.9e-08
8944.9, -2.961e-08
8946.9, -3.243e-08
8948.9, -2.577e-08
8950.9, -2.624e-08
8952.9, -2.541e-08
8954.9, -2.828e-08
8956.9, -2.717e-08
8958.9, -2.689e-08
8961.0, -2.783e-08
8963.0, -2.321e-08
8965.0, -2.593e-08
8967.0, -2.352e-08
8969.0, -2.732e-08
8971.0, -2.706e-08
8973.0, -2.58e-08
8975.0, -2.146e-08
8977.0, -2.202e-08
8979.0, -2.086e-08
8981.0, -2.668e-08
8983.0, -2.476e-08
8985.0, -2.535e-08
8987.0, -2.51e-08
8989.0, -2.737e-08
8991.0, -2.252e-08
8993.0, -2.42e-08
8995.0, -2.446e-08
8997.0, -2.716e-08
8999.0, -2.317e-08
9001.0, -2.585e-08
9003.0, -2.747e-08
9005.0, -2.586e-08
9007.0, -2.319e-08
9009.0, -2.624e-08
9011.0, -2.414e-08
9013.0, -2.676e-08
9015.0, -2.388e-08
9017.0, -2.438e-08
9019.0, -2.598e-08
9021.0, -2.472e-08
9023.0, -2.31e-08
9025.0, -2.389e-08
9027.0, -2.568e-08
9029.0, -2.596e-08
9031.0, -2.495e-08
9033.0, -2.769e-08
9035.0, -2.481e-08
9037.0, -2.314e-08
9039.0, -2.302e-08
9041.0, -2.24e-08
9043.0, -2.158e-08
9045.0, -2.094e-08
9047.0, -2.556e-08
9049.0, -2.525e-08
9051.0, -2.256e-08
9053.0, -2.191e-08
9055.0, -2.514e-08
9057.0, -2.625e-08
9059.0, -2.658e-08
9061.1, -2.819e-08
9063.1, -2.644e-08
9065.1, -2.31e-08
9067.1, -2.672e-08
9069.1, -2.24e-08
9071.1, -2.236e-08
9073.1, -2.596e-08
9075.1, -2.644e-08
9077.1, -2.269e-08
9079.1, -1.998e-08
9081.1, -2.594e-08
9083.1, -2.554e-08
9085.1, -2.206e-08
9087.1, -2.252e-08
9089.1, -2.156e-08
9091.1, -2.391e-08
9093.1, -2.546e-08
9095.1, -2.568e-08
9097.1, -2.28e-08
9099.1, -2.522e-08
9101.1, -2.265e-08
9103.1, -2.429e-08
9105.1, -2.488e-08
9107.1, -2.73e-08
9109.1, -2.603e-08
9111.1, -2.337e-08
9113.1, -2.134e-08
9115.1, -2.193e-08
9117.1, -2.348e-08
9119.1, -2.351e-08
9121.1, -2.377e-08
9123.1, -2.348e-08
9125.1, -2.443e-08
9127.1, -1.936e-08
9129.1, -2.465e-08
9131.1, -2.274e-08
9133.1, -2.306e-08
9135.1, -2.519e-08
9137.1, -2.661e-08
9139.1, -2.74e-08
9141.1, -2.506e-08
9143.1, -2.239e-08
9145.1, -2.625e-08
9147.1, -2.579e-08
9149.1, -2.373e-08
9151.1, -2.346e-08
9153.1, -2.842e-08
9155.1, -2.208e-08
9157.1, -2.6e-08
9159.1, -2.8e-08
9161.2, -2.848e-08
9163.2, -2.803e-08
9165.2, -2.215e-08
9167.2, -2.161e-08
9169.2, -2.606e-08
9171.2, -2.087e-08
9173.2, -2.339e-08
9175.2, -1.992e-08
9177.2, -2.323e-08
9179.2, -2.246e-08
9181.2, -2.332e-08
9183.2, -2.403e-08
9185.2, -2.332e-08
9187.2, -2.07e-08
9189.2, -2.353e-08
9191.2, -2.628e-08
9193.2, -2.295e-08
9195.2, -2.08e-08
9197.2, -2.519e-08
9199.2, -2.705e-08
9201.2, -2.544e-08
9203.2, -2.459e-08
9205.2, -2.881e-08
9207.2, -3.013e-08
9209.2, -2.949e-08
9211.2, -3.083e-08
9213.2, -2.952e-08
9215.2, -2.795e-08
9217.2, -2.856e-08
9219.2, -2.871e-08
9221.2, -2.456e-08
9223.2, -2.684e-08
9225.2, -3.062e-08
9227.2, -2.64e-08
9229.2, -2.677e-08
9231.2, -2.743e-08
9233.2, -2.556e-08
9235.2, -2.772e-08
9237.2, -2.374e-08
9239.2, -2.628e-08
9241.2, -2.557e-08
9243.2, -2.579e-08
9245.2, -2.559e-08
9247.2, -2.327e-08
9249.2, -2.424e-08
9251.2, -2.537e-08
9253.2, -2.671e-08
9255.2, -2.564e-08
9257.2, -2.515e-08
9259.2, -2.213e-08
9261.3, -2.391e-08
9263.3, -2.598e-08
9265.3, -2.669e-08
9267.3, -2.715e-08
9269.3, -2.771e-08
9271.3, -2.879e-08
9273.3, -2.207e-08
9275.3, -2.311e-08
9277.3, -2.569e-08
9279.3, -2.499e-08
9281.3, -2.628e-08
9283.3, -2.749e-08
9285.3, -2.845e-08
9287.3, -2.861e-08
9289.3, -2.65e-08
9291.3, -2.9e-08
9293.3, -3.298e-08
9295.3, -2.618e-08
9297.3, -2.029e-08
9299.3, -2.532e-08
9301.3, -2.418e-08
9303.3, -2.55e-08
9305.3, -2.384e-08
9307.3, -2.408e-08
9309.3, -2.123e-08
9311.3, -2.831e-08
9313.3, -2.488e-08
9315.3, -2.524e-08
9317.3, -2.762e-08
9319.3, -2.947e-08
9321.3, -2.707e-08
9323.3, -2.487e-08
9325.3, -2.372e-08
9327.3, -2.615e-08
9329.3, -2.379e-08
9331.3, -2.429e-08
9333.3, -2.242e-08
9335.3, -2.618e-08
9337.3, -3.023e-08
9339.3, -2.713e-08
9341.3, -2.779e-08
9343.3, -2.462e-08
9345.3, -2.678e-08
9347.3, -2.733e-08
9349.3, -3.119e-08
9351.3, -2.857e-08
9353.3, -2.79e-08
9355.3, -2.53e-08
9357.3, -2.543e-08
9359.3, -2.492e-08
9361.4, -2.56e-08
9363.4, -2.335e-08
9365.4, -2.153e-08
9367.4, -2.325e-08
9369.4, -2.627e-08
9371.4, -2.587e-08
9373.4, -2.681e-08
9375.4, -2.157e-08
9377.4, -2.403e-08
9379.4, -2.331e-08
9381.4, -2.34e-08
9383.4, -2.568e-08
9385.4, -2.612e-08
9387.4, -2.382e-08
9389.4, -2.592e-08
9391.4, -2.842e-08
9393.4, -2.525e-08
9395.4, -2.793e-08
9397.4, -2.65e-08
9399.4, -2.548e-08
9401.4, -2.453e-08
9403.4, -2.855e-08
9405.4, -2.58e-08
9407.4, -2.528e-08
9409.4, -2.617e-08
9411.4, -2.472e-08
9413.4, -2.701e-08
9415.4, -2.797e-08
9417.4, -3.026e-08
9419.4, -3.041e-08
9421.4, -3.026e-08
9423.4, -2.912e-08
9425.4, -2.655e-08
9427.4, -2.81e-08
9429.4, -2.639e-08
9431.4, -2.764e-08
9433.4, -2.925e-08
9435.4, -2.944e-08
9437.4, -2.866e-08
9439.4, -2.941e-08
9441.4, -2.994e-08
9443.4, -2.858e-08
9445.4, -2.545e-08
9447.4, -3.309e-08
9449.4, -3.005e-08
9451.4, -2.644e-08
9453.4, -2.575e-08
9455.4, -2.672e-08
9457.4, -2.658e-08
9459.4, -2.535e-08
9461.5, -2.359e-08
9463.5, -2.592e-08
9465.5, -2.683e-08
9467.5, -2.798e-08
9469.5, -3.029e-08
9471.5, -2.324e-08
9473.5, -2.51e-08
9475.5, -2.571e-08
9477.5, -2.764e-08
9479.5, -2.566e-08
9481.5, -2.529e-08
9483.5, -2.33e-08
9485.5, -2.423e-08
9487.5, -2.432e-08
9489.5, -2.713e-08
9491.5, -2.888e-08
9493.5, -2.969e-08
9495.5, -2.791e-08
9497.5, -2.758e-08
9499.5, -2.865e-08
9501.5, -2.753e-08
9503.5, -2.725e-08
9505.5, -2.633e-08
9507.5, -2.688e-08
9509.5, -2.631e-08
9511.5, -2.786e-08
9513.5, -2.367e-08
9515.5, -2.229e-08
9517.5, -2.8e-08
9519.5, -2.933e-08
9521.5, -2.46e-08
9523.5, -2.411e-08
9525.5, -2.354e-08
9527.5, -2.384e-08
9529.5, -2.988e-08
9531.5, -2.728e-08
9533.5, -2.649e-08
9535.5, -2.683e-08
9537.5, -2.885e-08
9539.5, -2.999e-08
9541.5, -2.756e-08
9543.5, -2.591e-08
9545.5, -3.015e-08
9547.5, -2.313e-08
9549.5, -3.024e-08
9551.5, -2.511e-08
9553.5, -3.108e-08
9555.5, -2.974e-08
9557.5, -2.633e-08
9559.5, -2.732e-08
9561.6, -2.873e-08
9563.6, -2.984e-08
9565.6, -2.842e-08
9567.6, -2.772e-08
9569.6, -2.894e-08
9571.6, -2.702e-08
9573.6, -2.814e-08
9575.6, -2.663e-08
9577.6, -2.856e-08
9579.6, -2.85e-08
9581.6, -2.886e-08
9583.6, -2.723e-08
9585.6, -2.769e-08
9587.6, -2.741e-08
9589.6, -2.836e-08
9591.6, -3.033e-08
9593.6, -3.036e-08
9595.6, -3.071e-08
9597.6, -2.929e-08
9599.6, -2.823e-08
9601.6, -2.259e-08
9603.6, -2.39e-08
9605.6, -2.414e-08
9607.6, -2.702e-08
9609.6, -2.815e-08
9611.6, -2.989e-08
9613.6, -2.69e-08
9615.6, -2.819e-08
9617.6, -2.432e-08
9619.6, -2.882e-08
9621.6, -2.796e-08
9623.6, -2.778e-08
9625.6, -2.885e-08
9627.6, -2.997e-08
9629.6, -2.755e-08
9631.6, -2.524e-08
9633.6, -2.442e-08
9635.6, -2.503e-08
9637.6, -2.42e-08
9639.6, -2.52e-08
9641.6, -2.692e-08
9643.6, -2.001e-08
9645.6, -2.396e-08
9647.6, -2.535e-08
9649.6, -2.751e-08
9651.6, -2.382e-08
9653.6, -2.458e-08
9655.6, -2.221e-08
9657.6, -2.395e-08
9659.6, -2.391e-08
9661.7, -2.89e-08
9663.7, -2.387e-08
9665.7, -2.378e-08
9667.7, -2.315e-08
9669.7, -2.466e-08
9671.7, -2.373e-08
9673.7, -2.63e-08
9675.7, -2.456e-08
9677.7, -2.581e-08
9679.7, -2.744e-08
9681.7, -2.615e-08
9683.7, -2.464e-08
9685.7, -2.28e-08
9687.7, -2.746e-08
9689.7, -2.529e-08
9691.7, -2.461e-08
9693.7, -2.394e-08
9695.7, -2.721e-08
9697.7, -2.429e-08
9699.7, -2.314e-08
9701.7, -2.578e-08
9703.7, -2.298e-08
9705.7, -2.41e-08
9707.7, -2.69e-08
9709.7, -2.163e-08
9711.7, -2.248e-08
9713.7, -2.695e-08
9715.7, -2.025e-08
9717.7, -2.604e-08
9719.7, -2.761e-08
9721.7, -2.301e-08
9723.7, -2.152e-08
9725.7, -2.688e-08
9727.7, -2.504e-08
9729.7, -2.409e-08
9731.7, -2.336e-08
9733.7, -2.597e-08
9735.7, -2.329e-08
9737.7, -2.485e-08
9739.7, -2.753e-08
9741.7, -2.535e-08
9743.7, -2.55e-08
9745.7, -2.735e-08
9747.7, -2.572e-08
9749.7, -2.778e-08
9751.7, -2.559e-08
9753.7, -2.079e-08
9755.7, -2.364e-08
9757.7, -2.72e-08
9759.7, -3.122e-08
9761.8, -3.011e-08
9763.8, -2.727e-08
9765.8, -2.001e-08
9767.8, -2.62e-08
9769.8, -2.695e-08
9771.8, -2.268e-08
9773.8, -2.555e-08
9775.8, -2.687e-08
9777.8, -2.676e-08
9779.8, -2.515e-08
9781.8, -2.984e-08
9783.8, -2.642e-08
9785.8, -2.731e-08
9787.8, -2.718e-08
9789.8, -2.853e-08
9791.8, -2.684e-08
9793.8, -2.956e-08
9795.8, -2.681e-08
9797.8, -2.743e-08
9799.8, -3.016e-08
9801.8, -3.208e-08
9803.8, -3.092e-08
9805.8, -3.222e-08
9807.8, -2.867e-08
9809.8, -3.222e-08
9811.8, -2.618e-08
9813.8, -3.271e-08
9815.8, -2.745e-08
9817.8, -2.917e-08
9819.8, -2.89e-08
9821.8, -2.872e-08
9823.8, -2.671e-08
9825.8, -2.553e-08
9827.8, -2.473e-08
9829.8, -2.678e-08
9831.8, -2.755e-08
9833.8, -2.453e-08
9835.8, -2.186e-08
9837.8, -3.083e-08
9839.8, -2.646e-08
9841.8, -2.66e-08
9843.8, -2.358e-08
9845.8, -2.462e-08
9847.8, -2.636e-08
9849.8, -2.458e-08
9851.8, -2.82e-08
9853.8, -2.774e-08
9855.8, -2.726e-08
9857.8, -2.876e-08
9859.8, -2.313e-08
9861.9, -2.486e-08
9863.9, -3.059e-08
9865.9, -2.916e-08
9867.9, -2.564e-08
9869.9, -2.781e-08
9871.9, -2.67e-08
9873.9, -2.765e-08
9875.9, -2.414e-08
9877.9, -2.424e-08
9879.9, -2.487e-08
9881.9, -2.318e-08
9883.9, -2.524e-08
9885.9, -2.369e-08
9887.9, -2.394e-08
9889.9, -2.478e-08
9891.9, -2.45e-08
9893.9, -2.053e-08
9895.9, -2.463e-08
9897.9, -2.442e-08
9899.9, -2.93e-08
9901.9, -2.579e-08
9903.9, -2.73e-08
9905.9, -2.298e-08
9907.9, -2.344e-08
9909.9, -2.322e-08
9911.9, -2.236e-08
9913.9, -2.413e-08
9915.9, -2.808e-08
9917.9, -2.888e-08
9919.9, -2.509e-08
9921.9, -3.008e-08
9923.9, -2.797e-08
9925.9, -2.513e-08
9927.9, -2.679e-08
9929.9, -2.662e-08
9931.9, -2.367e-08
9933.9, -2.452e-08
9935.9, -2.546e-08
9937.9, -2.443e-08
9939.9, -2.494e-08
9941.9, -2.28e-08
9943.9, -2.485e-08
9945.9, -2.393e-08
9947.9, -2.463e-08
9949.9, -2.537e-08
9951.9, -2.481e-08
9953.9, -2.516e-08
9955.9, -2.113e-08
9957.9, -2.173e-08
9959.9, -2.51e-08
9962.0, -2.254e-08
9964.0, -2.273e-08
9966.0, -2.462e-08
9968.0, -2.684e-08
9970.0, -2.195e-08
9972.0, -2.95e-08
9974.0, -2.904e-08
9976.0, -2.672e-08
9978.0, -2.597e-08
9980.0, -2.879e-08
9982.0, -2.662e-08
9984.0, -2.427e-08
9986.0, -2.667e-08
9988.0, -2.373e-08
9990.0, -2.612e-08
9992.0, -2.814e-08
9994.0, -2.554e-08
9996.0, -2.584e-08
9998.0, -2.586e-08
10000.0, -2.569e-08
10002.0, -2.801e-08
10004.0, -2.496e-08
10006.0, -2.368e-08
10008.0, -2.908e-08
