Time sep (ms?), Current (A)
0.0, -2.754e-08
2.002, -2.471e-08
4.004, -2.206e-08
6.006, -2.471e-08
8.008, -2.695e-08
10.01, -2.405e-08
12.012, -2.475e-08
14.014, -2.354e-08
16.016, -2.534e-08
18.018, -1.885e-08
20.02, -2.343e-08
22.022, -2.286e-08
24.024, -2.017e-08
26.026, -2.245e-08
28.028, -1.995e-08
30.03, -2.342e-08
32.032, -2.242e-08
34.034, -2.465e-08
36.036, -2.047e-08
38.038, -2.446e-08
40.04, -2.308e-08
42.042, -2.271e-08
44.044, -2.407e-08
46.046, -2.056e-08
48.048, -2.793e-08
50.05, -2.706e-08
52.052, -2.834e-08
54.054, -2.84e-08
56.056, -2.672e-08
58.058, -2.531e-08
60.06, -2.301e-08
62.062, -2.311e-08
64.064, -2.174e-08
66.066, -2.161e-08
68.068, -2.499e-08
70.07, -2.519e-08
72.072, -2.59e-08
74.074, -2.491e-08
76.076, -2.546e-08
78.078, -2.583e-08
80.08, -2.624e-08
82.082, -2.166e-08
84.084, -2.456e-08
86.086, -2.201e-08
88.088, -2.531e-08
90.09, -2.961e-08
92.092, -2.611e-08
94.094, -2.291e-08
96.096, -2.593e-08
98.098, -2.278e-08
100.1, -2.075e-08
102.1, -2.298e-08
104.1, -2.759e-08
106.11, -2.656e-08
108.11, -2.929e-08
110.11, -2.529e-08
112.11, -2.64e-08
114.11, -2.462e-08
116.12, -2.4e-08
118.12, -2.439e-08
120.12, -2.082e-08
122.12, -2.31e-08
124.12, -2.398e-08
126.13, -2.355e-08
128.13, -2.429e-08
130.13, -2.25e-08
132.13, -2.407e-08
134.13, -2.646e-08
136.14, -2.564e-08
138.14, -2.674e-08
140.14, -2.504e-08
142.14, -2.175e-08
144.14, -2.353e-08
146.15, -2.002e-08
148.15, -2.946e-08
150.15, -2.534e-08
152.15, -2.069e-08
154.15, -2.223e-08
156.16, -2.325e-08
158.16, -2.45e-08
160.16, -2.545e-08
162.16, -2.528e-08
164.16, -2.365e-08
166.17, -2.646e-08
168.17, -2.501e-08
170.17, -2.383e-08
172.17, -2.641e-08
174.17, -2.414e-08
176.18, -2.624e-08
178.18, -2.45e-08
180.18, -2.404e-08
182.18, -2.154e-08
184.18, -2.34e-08
186.19, -2.279e-08
188.19, -2.194e-08
190.19, -2.537e-08
192.19, -2.399e-08
194.19, -2.258e-08
196.2, -2.69e-08
198.2, -2.9e-08
200.2, -2.133e-08
202.2, -2.479e-08
204.2, -2.092e-08
206.21, -2.219e-08
208.21, -2.053e-08
210.21, -2.018e-08
212.21, -2.103e-08
214.21, -2.274e-08
216.22, -2.511e-08
218.22, -2.404e-08
220.22, -2.591e-08
222.22, -2.297e-08
224.22, -1.853e-08
226.23, -2.574e-08
228.23, -2.043e-08
230.23, -2.136e-08
232.23, -2.532e-08
234.23, -2.467e-08
236.24, -2.263e-08
238.24, -2.322e-08
240.24, -2.25e-08
242.24, -2.511e-08
244.24, -2.002e-08
246.25, -2.381e-08
248.25, -2.192e-08
250.25, -2.569e-08
252.25, -2.285e-08
254.25, -2.452e-08
256.26, -2.663e-08
258.26, -2.307e-08
260.26, -2.305e-08
262.26, -1.991e-08
264.26, -2.253e-08
266.27, -2.046e-08
268.27, -2.666e-08
270.27, -2.596e-08
272.27, -2.371e-08
274.27, -2.227e-08
276.28, -2.383e-08
278.28, -2.221e-08
280.28, -2.487e-08
282.28, -2.212e-08
284.28, -2.289e-08
286.29, -2.303e-08
288.29, -2.32e-08
290.29, -2.417e-08
292.29, -2.134e-08
294.29, -2.416e-08
296.3, -2.651e-08
298.3, -2.469e-08
300.3, -2.599e-08
302.3, -2.709e-08
304.3, -2.368e-08
306.31, -2.36e-08
308.31, -2.435e-08
310.31, -2.788e-08
312.31, -2.094e-08
314.31, -2.477e-08
316.32, -2.643e-08
318.32, -2.398e-08
320.32, -2.627e-08
322.32, -2.079e-08
324.32, -2.057e-08
326.33, -2.045e-08
328.33, -1.966e-08
330.33, -2.147e-08
332.33, -2.399e-08
334.33, -2.379e-08
336.34, -2.239e-08
338.34, -2.251e-08
340.34, -2.203e-08
342.34, -2.091e-08
344.34, -2.088e-08
346.35, -2.348e-08
348.35, -2.165e-08
350.35, -2.129e-08
352.35, -2.239e-08
354.35, -2.454e-08
356.36, -1.98e-08
358.36, -2.49e-08
360.36, -2.268e-08
362.36, -2.447e-08
364.36, -2.615e-08
366.37, -2.516e-08
368.37, -2.034e-08
370.37, -2.155e-08
372.37, -2.182e-08
374.37, -1.757e-08
376.38, -1.939e-08
378.38, -1.87e-08
380.38, -2.338e-08
382.38, -2.39e-08
384.38, -2.322e-08
386.39, -2.039e-08
388.39, -2.353e-08
390.39, -2.255e-08
392.39, -2.495e-08
394.39, -2.381e-08
396.4, -2.633e-08
398.4, -2.261e-08
400.4, -2.424e-08
402.4, -2.015e-08
404.4, -2.421e-08
406.41, -2.296e-08
408.41, -2.752e-08
410.41, -2.431e-08
412.41, -2.05e-08
414.41, -2.307e-08
416.42, -2.386e-08
418.42, -2.488e-08
420.42, -2.144e-08
422.42, -2.204e-08
424.42, -2.302e-08
426.43, -2.43e-08
428.43, -2.499e-08
430.43, -2.234e-08
432.43, -2.257e-08
434.43, -2.548e-08
436.44, -2.434e-08
438.44, -2.151e-08
440.44, -2.547e-08
442.44, -2.46e-08
444.44, -2.379e-08
446.45, -2.519e-08
448.45, -2.591e-08
450.45, -2.489e-08
452.45, -2.628e-08
454.45, -2.58e-08
456.46, -2.489e-08
458.46, -2.616e-08
460.46, -2.527e-08
462.46, -2.19e-08
464.46, -2.648e-08
466.47, -3.02e-08
468.47, -2.967e-08
470.47, -3.172e-08
472.47, -2.701e-08
474.47, -2.214e-08
476.48, -2.46e-08
478.48, -2.096e-08
480.48, -2.395e-08
482.48, -2.364e-08
484.48, -2.248e-08
486.49, -2.332e-08
488.49, -2.609e-08
490.49, -2.632e-08
492.49, -2.679e-08
494.49, -2.887e-08
496.5, -2.881e-08
498.5, -3.063e-08
500.5, -2.985e-08
502.5, -2.833e-08
504.5, -2.648e-08
506.51, -3.16e-08
508.51, -3.071e-08
510.51, -2.889e-08
512.51, -2.613e-08
514.51, -2.639e-08
516.52, -2.792e-08
518.52, -3.147e-08
520.52, -2.701e-08
522.52, -2.821e-08
524.52, -3.009e-08
526.53, -2.557e-08
528.53, -2.54e-08
530.53, -3.121e-08
532.53, -2.735e-08
534.53, -2.676e-08
536.54, -2.486e-08
538.54, -2.541e-08
540.54, -3.013e-08
542.54, -2.637e-08
544.54, -2.575e-08
546.55, -2.308e-08
548.55, -2.538e-08
550.55, -2.388e-08
552.55, -2.087e-08
554.55, -1.897e-08
556.56, -1.948e-08
558.56, -2.318e-08
560.56, -2.332e-08
562.56, -2.006e-08
564.56, -2.191e-08
566.57, -2.174e-08
568.57, -2.015e-08
570.57, -2.333e-08
572.57, -2.081e-08
574.57, -2.42e-08
576.58, -2.707e-08
578.58, -2.497e-08
580.58, -2.365e-08
582.58, -2.337e-08
584.58, -2.039e-08
586.59, -2.327e-08
588.59, -2.597e-08
590.59, -2.831e-08
592.59, -2.604e-08
594.59, -2.393e-08
596.6, -2.301e-08
598.6, -2.461e-08
600.6, -2.827e-08
602.6, -2.861e-08
604.6, -2.696e-08
606.61, -2.869e-08
608.61, -2.957e-08
610.61, -2.649e-08
612.61, -2.884e-08
614.61, -2.58e-08
616.62, -2.598e-08
618.62, -2.647e-08
620.62, -2.892e-08
622.62, -2.553e-08
624.62, -2.541e-08
626.63, -2.573e-08
628.63, -2.601e-08
630.63, -2.71e-08
632.63, -2.694e-08
634.63, -2.529e-08
636.64, -2.426e-08
638.64, -2.479e-08
640.64, -2.269e-08
642.64, -2.725e-08
644.64, -2.535e-08
646.65, -2.267e-08
648.65, -2.711e-08
650.65, -2.717e-08
652.65, -2.401e-08
654.65, -2.816e-08
656.66, -2.422e-08
658.66, -2.855e-08
660.66, -2.824e-08
662.66, -2.909e-08
664.66, -2.417e-08
666.67, -2.403e-08
668.67, -2.677e-08
670.67, -2.453e-08
672.67, -2.307e-08
674.67, -2.237e-08
676.68, -2.327e-08
678.68, -2.573e-08
680.68, -2.259e-08
682.68, -2.121e-08
684.68, -2.39e-08
686.69, -2.183e-08
688.69, -2.249e-08
690.69, -2.329e-08
692.69, -2.259e-08
694.69, -2.197e-08
696.7, -2.194e-08
698.7, -2.416e-08
700.7, -2.115e-08
702.7, -2.237e-08
704.7, -1.99e-08
706.71, -1.946e-08
708.71, -2.006e-08
710.71, -2.324e-08
712.71, -2.46e-08
714.71, -2.244e-08
716.72, -2.556e-08
718.72, -2.458e-08
720.72, -2.374e-08
722.72, -2.284e-08
724.72, -2.347e-08
726.73, -2.976e-08
728.73, -2.778e-08
730.73, -2.426e-08
732.73, -2.289e-08
734.73, -2.127e-08
736.74, -2.497e-08
738.74, -2.185e-08
740.74, -2.315e-08
742.74, -1.863e-08
744.74, -2.425e-08
746.75, -1.992e-08
748.75, -2.386e-08
750.75, -2.452e-08
752.75, -1.844e-08
754.75, -2.278e-08
756.76, -2.254e-08
758.76, -2.456e-08
760.76, -2.158e-08
762.76, -2.366e-08
764.76, -2.5e-08
766.77, -2.472e-08
768.77, -2.244e-08
770.77, -2.587e-08
772.77, -2.328e-08
774.77, -2.412e-08
776.78, -2.171e-08
778.78, -2.468e-08
780.78, -2.345e-08
782.78, -2.319e-08
784.78, -2.224e-08
786.79, -2.196e-08
788.79, -2.276e-08
790.79, -2.542e-08
792.79, -2.347e-08
794.79, -2.379e-08
796.8, -2.549e-08
798.8, -2.186e-08
800.8, -2.342e-08
802.8, -2.368e-08
804.8, -1.998e-08
806.81, -2.08e-08
808.81, -2.496e-08
810.81, -2.042e-08
812.81, -2.502e-08
814.81, -2.224e-08
816.82, -1.989e-08
818.82, -2.276e-08
820.82, -2.314e-08
822.82, -2.165e-08
824.82, -2.195e-08
826.83, -2.223e-08
828.83, -2.219e-08
830.83, -2.107e-08
832.83, -2.273e-08
834.83, -2.226e-08
836.84, -2.311e-08
838.84, -2.569e-08
840.84, -2.354e-08
842.84, -2.271e-08
844.84, -1.604e-08
846.85, -2.134e-08
848.85, -2.045e-08
850.85, -2.276e-08
852.85, -2.205e-08
854.85, -2.039e-08
856.86, -2.011e-08
858.86, -2.184e-08
860.86, -2.241e-08
862.86, -2.164e-08
864.86, -2.057e-08
866.87, -2.103e-08
868.87, -2.392e-08
870.87, -2.548e-08
872.87, -2.378e-08
874.87, -2.127e-08
876.88, -1.85e-08
878.88, -2.172e-08
880.88, -1.702e-08
882.88, -1.62e-08
884.88, -2.073e-08
886.89, -1.934e-08
888.89, -1.901e-08
890.89, -2.228e-08
892.89, -2.11e-08
894.89, -2.21e-08
896.9, -2.035e-08
898.9, -2.313e-08
900.9, -1.994e-08
902.9, -2.176e-08
904.9, -2.037e-08
906.91, -2.03e-08
908.91, -2.447e-08
910.91, -2.506e-08
912.91, -2.351e-08
914.91, -2.365e-08
916.92, -2.372e-08
918.92, -2.341e-08
920.92, -2.265e-08
922.92, -1.712e-08
924.92, -2.014e-08
926.93, -2.041e-08
928.93, -1.776e-08
930.93, -1.91e-08
932.93, -1.797e-08
934.93, -2.041e-08
936.94, -2.163e-08
938.94, -2.272e-08
940.94, -2.415e-08
942.94, -2.28e-08
944.94, -2.505e-08
946.95, -2.054e-08
948.95, -2.232e-08
950.95, -2.078e-08
952.95, -2.052e-08
954.95, -1.81e-08
956.96, -1.973e-08
958.96, -2.029e-08
960.96, -2.105e-08
962.96, -2.04e-08
964.96, -1.939e-08
966.97, -1.83e-08
968.97, -1.928e-08
970.97, -1.972e-08
972.97, -2.148e-08
974.97, -1.905e-08
976.98, -1.799e-08
978.98, -2.161e-08
980.98, -2.39e-08
982.98, -2.446e-08
984.98, -2.263e-08
986.99, -2.018e-08
988.99, -1.953e-08
990.99, -2.304e-08
992.99, -2.206e-08
994.99, -2.066e-08
997.0, -1.88e-08
999.0, -1.759e-08
1001.0, -2.174e-08
1003.0, -1.716e-08
1005.0, -1.828e-08
1007.0, -2.101e-08
1009.0, -1.952e-08
1011.0, -1.796e-08
1013.0, -2.005e-08
1015.0, -1.788e-08
1017.0, -1.932e-08
1019.0, -1.918e-08
1021.0, -1.411e-08
1023.0, -1.984e-08
1025.0, -2.264e-08
1027.0, -1.963e-08
1029.0, -2.143e-08
1031.0, -1.983e-08
1033.0, -2.01e-08
1035.0, -1.605e-08
1037.0, -1.699e-08
1039.0, -1.965e-08
1041.0, -1.751e-08
1043.0, -1.909e-08
1045.0, -1.67e-08
1047.0, -1.84e-08
1049.0, -1.653e-08
1051.0, 4.5224e-07
1053.1, 3.6524e-07
1055.1, 3.7289e-07
1057.1, 3.7176e-07
1059.1, 4.0089e-07
1061.1, 4.0229e-07
1063.1, 3.9475e-07
1065.1, 3.9043e-07
1067.1, 3.9768e-07
1069.1, 4.2687e-07
1071.1, 4.1508e-07
1073.1, 3.9272e-07
1075.1, 4.3276e-07
1077.1, 3.7589e-07
1079.1, 3.9303e-07
1081.1, 3.9077e-07
1083.1, 3.8934e-07
1085.1, 3.9325e-07
1087.1, 4.4094e-07
1089.1, 3.9136e-07
1091.1, 4.0612e-07
1093.1, 4.2637e-07
1095.1, 3.8466e-07
1097.1, 4.1528e-07
1099.1, 3.8521e-07
1101.1, 4.0401e-07
1103.1, 3.7526e-07
1105.1, 4.0342e-07
1107.1, 3.7261e-07
1109.1, 3.8788e-07
1111.1, 3.8055e-07
1113.1, 4.8589e-07
1115.1, 4.1185e-07
1117.1, 4.0854e-07
1119.1, 3.9848e-07
1121.1, 4.3455e-07
1123.1, 3.6925e-07
1125.1, 3.9238e-07
1127.1, 3.9449e-07
1129.1, 4.3888e-07
1131.1, 4.0539e-07
1133.1, 4.1558e-07
1135.1, 4.2694e-07
1137.1, 4.0721e-07
1139.1, 4.1295e-07
1141.1, 3.9402e-07
1143.1, 4.225e-07
1145.1, 3.7229e-07
1147.1, 4.52e-07
1149.1, 4.1768e-07
1151.1, 4.2245e-07
1153.2, 4.01e-07
1155.2, 3.7709e-07
1157.2, 4.0168e-07
1159.2, 4.073e-07
1161.2, 4.1065e-07
1163.2, 4.1001e-07
1165.2, 4.2316e-07
1167.2, 3.8933e-07
1169.2, 4.4084e-07
1171.2, 4.3627e-07
1173.2, 4.1027e-07
1175.2, 4.0035e-07
1177.2, 4.0603e-07
1179.2, 4.1913e-07
1181.2, 4.0078e-07
1183.2, 3.9091e-07
1185.2, 4.57e-07
1187.2, 4.217e-07
1189.2, 4.3581e-07
1191.2, 3.9003e-07
1193.2, 4.3279e-07
1195.2, 4.2298e-07
1197.2, 4.3294e-07
1199.2, 4.3701e-07
1201.2, 4.5219e-07
1203.2, 3.9914e-07
1205.2, 3.9712e-07
1207.2, 3.9604e-07
1209.2, 4.622e-07
1211.2, 4.0792e-07
1213.2, 4.0886e-07
1215.2, 4.29e-07
1217.2, 4.6971e-07
1219.2, 3.7235e-07
1221.2, 4.2729e-07
1223.2, 4.2355e-07
1225.2, 4.7709e-07
1227.2, 3.8127e-07
1229.2, 4.3061e-07
1231.2, 4.0805e-07
1233.2, 4.3699e-07
1235.2, 4.2495e-07
1237.2, 4.3993e-07
1239.2, 3.9651e-07
1241.2, 4.4211e-07
1243.2, 4.1925e-07
1245.2, 4.0364e-07
1247.2, 4.2822e-07
1249.2, 4.5075e-07
1251.2, 4.312e-07
1253.3, 4.5077e-07
1255.3, 4.1859e-07
1257.3, 4.4217e-07
1259.3, 4.2734e-07
1261.3, 4.1789e-07
1263.3, 4.1038e-07
1265.3, 3.9577e-07
1267.3, 4.29e-07
1269.3, 3.834e-07
1271.3, 3.8719e-07
1273.3, 3.9944e-07
1275.3, 4.5516e-07
1277.3, 4.7784e-07
1279.3, 4.2407e-07
1281.3, 4.5791e-07
1283.3, 4.3937e-07
1285.3, 3.958e-07
1287.3, 4.0755e-07
1289.3, 4.3469e-07
1291.3, 4.2721e-07
1293.3, 4.0254e-07
1295.3, 4.8047e-07
1297.3, 4.1323e-07
1299.3, 4.57e-07
1301.3, 3.9324e-07
1303.3, 4.2365e-07
1305.3, 4.692e-07
1307.3, 4.5832e-07
1309.3, 4.184e-07
1311.3, 4.6253e-07
1313.3, 3.9414e-07
1315.3, 4.2752e-07
1317.3, 3.9666e-07
1319.3, 4.4876e-07
1321.3, 4.4793e-07
1323.3, 3.9244e-07
1325.3, 4.2049e-07
1327.3, 4.4463e-07
1329.3, 4.7249e-07
1331.3, 4.8019e-07
1333.3, 4.7643e-07
1335.3, 4.5874e-07
1337.3, 4.7139e-07
1339.3, 4.5867e-07
1341.3, 4.8436e-07
1343.3, 4.8668e-07
1345.3, 4.5622e-07
1347.3, 4.2495e-07
1349.3, 4.182e-07
1351.3, 4.1522e-07
1353.4, 4.7279e-07
1355.4, 4.5147e-07
1357.4, 3.9205e-07
1359.4, 4.7561e-07
1361.4, 4.2881e-07
1363.4, 4.1584e-07
1365.4, 4.4658e-07
1367.4, 4.4346e-07
1369.4, 4.5193e-07
1371.4, 4.266e-07
1373.4, 4.2914e-07
1375.4, 4.3543e-07
1377.4, 4.4832e-07
1379.4, 4.6751e-07
1381.4, 4.9209e-07
1383.4, 4.2165e-07
1385.4, 4.1419e-07
1387.4, 4.4693e-07
1389.4, 4.639e-07
1391.4, 4.7212e-07
1393.4, 4.2813e-07
1395.4, 4.9176e-07
1397.4, 4.4643e-07
1399.4, 4.3592e-07
1401.4, 4.522e-07
1403.4, 4.5502e-07
1405.4, 4.7002e-07
1407.4, 4.9913e-07
1409.4, 4.2137e-07
1411.4, 4.5949e-07
1413.4, 4.5366e-07
1415.4, 4.6976e-07
1417.4, 4.4669e-07
1419.4, 4.0859e-07
1421.4, 4.3219e-07
1423.4, 4.5408e-07
1425.4, 4.5281e-07
1427.4, 4.4011e-07
1429.4, 3.6943e-07
1431.4, 4.3248e-07
1433.4, 4.5303e-07
1435.4, 4.1792e-07
1437.4, 3.8612e-07
1439.4, 4.8088e-07
1441.4, 3.7019e-07
1443.4, 4.0518e-07
1445.4, 3.822e-07
1447.4, 4.1563e-07
1449.4, 4.5239e-07
1451.4, 4.7584e-07
1453.5, 4.7317e-07
1455.5, 4.6305e-07
1457.5, 4.3326e-07
1459.5, 4.3855e-07
1461.5, 4.546e-07
1463.5, 4.0389e-07
1465.5, 4.4778e-07
1467.5, 4.4457e-07
1469.5, 4.2643e-07
1471.5, 4.3284e-07
1473.5, 4.1457e-07
1475.5, 4.5423e-07
1477.5, 4.2965e-07
1479.5, 4.2977e-07
1481.5, 4.6068e-07
1483.5, 4.9516e-07
1485.5, 4.4475e-07
1487.5, 4.4102e-07
1489.5, 5.0834e-07
1491.5, 4.2184e-07
1493.5, 4.2694e-07
1495.5, 4.4676e-07
1497.5, 4.3821e-07
1499.5, 4.3937e-07
1501.5, 4.0562e-07
1503.5, 4.5189e-07
1505.5, 4.4281e-07
1507.5, 4.5568e-07
1509.5, 4.3038e-07
1511.5, 4.1223e-07
1513.5, 4.7589e-07
1515.5, 4.3703e-07
1517.5, 4.7753e-07
1519.5, 4.781e-07
1521.5, 4.6171e-07
1523.5, 4.423e-07
1525.5, 4.6114e-07
1527.5, 3.7891e-07
1529.5, 4.3615e-07
1531.5, 4.252e-07
1533.5, 4.3585e-07
1535.5, 4.6979e-07
1537.5, 4.3465e-07
1539.5, 4.6265e-07
1541.5, 4.3259e-07
1543.5, 4.7998e-07
1545.5, 4.2945e-07
1547.5, 4.5849e-07
1549.5, 4.6672e-07
1551.5, 4.3104e-07
1553.6, 4.3283e-07
1555.6, 4.5011e-07
1557.6, 4.3506e-07
1559.6, 4.2294e-07
1561.6, 4.0492e-07
1563.6, 4.2815e-07
1565.6, 4.1452e-07
1567.6, 4.3813e-07
1569.6, 4.3503e-07
1571.6, 4.556e-07
1573.6, 4.519e-07
1575.6, 4.829e-07
1577.6, 4.3539e-07
1579.6, 4.6373e-07
1581.6, 4.6806e-07
1583.6, 4.6335e-07
1585.6, 4.744e-07
1587.6, 4.9626e-07
1589.6, 4.5097e-07
1591.6, 4.1745e-07
1593.6, 4.7093e-07
1595.6, 4.3509e-07
1597.6, 4.5878e-07
1599.6, 4.3444e-07
1601.6, 4.4776e-07
1603.6, 4.6909e-07
1605.6, 4.8355e-07
1607.6, 4.3377e-07
1609.6, 4.4024e-07
1611.6, 4.6817e-07
1613.6, 4.371e-07
1615.6, 4.4007e-07
1617.6, 4.2442e-07
1619.6, 4.5162e-07
1621.6, 4.1425e-07
1623.6, 4.8806e-07
1625.6, 4.5904e-07
1627.6, 4.4533e-07
1629.6, 4.4626e-07
1631.6, 4.4139e-07
1633.6, 4.2173e-07
1635.6, 4.5999e-07
1637.6, 4.2503e-07
1639.6, 4.5673e-07
1641.6, 4.1559e-07
1643.6, 4.6208e-07
1645.6, 4.0419e-07
1647.6, 4.2807e-07
1649.6, 3.9525e-07
1651.6, 4.8174e-07
1653.7, 4.5835e-07
1655.7, 4.081e-07
1657.7, 4.6503e-07
1659.7, 4.7194e-07
1661.7, 4.1749e-07
1663.7, 5.1708e-07
1665.7, 4.3977e-07
1667.7, 4.8913e-07
1669.7, 4.4999e-07
1671.7, 4.1736e-07
1673.7, 3.8871e-07
1675.7, 4.8238e-07
1677.7, 4.7331e-07
1679.7, 4.8069e-07
1681.7, 4.4586e-07
1683.7, 4.5181e-07
1685.7, 4.0581e-07
1687.7, 4.8898e-07
1689.7, 4.3055e-07
1691.7, 4.4162e-07
1693.7, 4.335e-07
1695.7, 4.6899e-07
1697.7, 4.8945e-07
1699.7, 4.7321e-07
1701.7, 4.7368e-07
1703.7, 4.6358e-07
1705.7, 4.4948e-07
1707.7, 4.3951e-07
1709.7, 4.6434e-07
1711.7, 4.1894e-07
1713.7, 4.5719e-07
1715.7, 4.0874e-07
1717.7, 4.3939e-07
1719.7, 4.4474e-07
1721.7, 4.0473e-07
1723.7, 4.5562e-07
1725.7, 4.5386e-07
1727.7, 4.6889e-07
1729.7, 4.3703e-07
1731.7, 4.12e-07
1733.7, 4.2915e-07
1735.7, 4.5922e-07
1737.7, 4.7339e-07
1739.7, 4.4915e-07
1741.7, 4.1337e-07
1743.7, 4.514e-07
1745.7, 4.4291e-07
1747.7, 4.1616e-07
1749.7, 4.1982e-07
1751.7, 4.3203e-07
1753.8, 4.7234e-07
1755.8, 4.3175e-07
1757.8, 4.2635e-07
1759.8, 4.4386e-07
1761.8, 4.5479e-07
1763.8, 4.3226e-07
1765.8, 4.4268e-07
1767.8, 4.6281e-07
1769.8, 4.646e-07
1771.8, 4.0925e-07
1773.8, 4.386e-07
1775.8, 4.1454e-07
1777.8, 4.1453e-07
1779.8, 4.3403e-07
1781.8, 4.3754e-07
1783.8, 4.2839e-07
1785.8, 4.494e-07
1787.8, 4.5437e-07
1789.8, 4.5826e-07
1791.8, 4.4267e-07
1793.8, 4.3852e-07
1795.8, 4.684e-07
1797.8, 4.0885e-07
1799.8, 4.4003e-07
1801.8, 4.26e-07
1803.8, 4.4277e-07
1805.8, 4.0178e-07
1807.8, 4.3731e-07
1809.8, 4.5707e-07
1811.8, 4.1306e-07
1813.8, 4.2042e-07
1815.8, 4.4358e-07
1817.8, 4.504e-07
1819.8, 4.8527e-07
1821.8, 4.4801e-07
1823.8, 4.2403e-07
1825.8, 4.2942e-07
1827.8, 4.5504e-07
1829.8, 4.589e-07
1831.8, 4.7219e-07
1833.8, 4.7354e-07
1835.8, 4.5236e-07
1837.8, 4.7149e-07
1839.8, 4.7359e-07
1841.8, 4.2346e-07
1843.8, 4.3397e-07
1845.8, 4.8347e-07
1847.8, 4.5982e-07
1849.8, 4.3497e-07
1851.8, 4.5226e-07
1853.9, 4.2923e-07
1855.9, 4.3884e-07
1857.9, 4.7098e-07
1859.9, 4.7862e-07
1861.9, 4.0757e-07
1863.9, 4.1926e-07
1865.9, 4.5642e-07
1867.9, 4.2415e-07
1869.9, 4.5222e-07
1871.9, 4.5481e-07
1873.9, 4.6773e-07
1875.9, 4.6126e-07
1877.9, 4.596e-07
1879.9, 4.2692e-07
1881.9, 4.7602e-07
1883.9, 4.3541e-07
1885.9, 4.1605e-07
1887.9, 4.2915e-07
1889.9, 4.9333e-07
1891.9, 4.2269e-07
1893.9, 4.4832e-07
1895.9, 4.1682e-07
1897.9, 4.477e-07
1899.9, 4.2657e-07
1901.9, 4.4124e-07
1903.9, 4.3465e-07
1905.9, 4.6025e-07
1907.9, 4.0987e-07
1909.9, 3.8355e-07
1911.9, 4.3326e-07
1913.9, 4.6256e-07
1915.9, 4.5262e-07
1917.9, 4.0832e-07
1919.9, 4.443e-07
1921.9, 4.8442e-07
1923.9, 4.4787e-07
1925.9, 4.6467e-07
1927.9, 4.2211e-07
1929.9, 4.5026e-07
1931.9, 4.4514e-07
1933.9, 4.4051e-07
1935.9, 4.4755e-07
1937.9, 4.4005e-07
1939.9, 4.1846e-07
1941.9, 3.9646e-07
1943.9, 4.088e-07
1945.9, 4.4685e-07
1947.9, 4.3407e-07
1949.9, 4.6402e-07
1951.9, 4.7498e-07
1954.0, 4.069e-07
1956.0, 4.6466e-07
1958.0, 4.4115e-07
1960.0, 4.5276e-07
1962.0, 4.1408e-07
1964.0, 4.4962e-07
1966.0, 4.5286e-07
1968.0, 4.3519e-07
1970.0, 4.2329e-07
1972.0, 4.1271e-07
1974.0, 4.8027e-07
1976.0, 4.2461e-07
1978.0, 4.4514e-07
1980.0, 4.0896e-07
1982.0, 4.3688e-07
1984.0, 4.1628e-07
1986.0, 4.3661e-07
1988.0, 4.2561e-07
1990.0, 4.2816e-07
1992.0, 4.3408e-07
1994.0, 4.7371e-07
1996.0, 4.149e-07
1998.0, 4.3341e-07
2000.0, 4.6658e-07
2002.0, 4.6182e-07
2004.0, 4.636e-07
2006.0, 4.5687e-07
2008.0, 4.6248e-07
2010.0, 4.4939e-07
2012.0, 4.6878e-07
2014.0, 4.0777e-07
2016.0, 4.7138e-07
2018.0, 4.7198e-07
2020.0, 4.5591e-07
2022.0, 4.1375e-07
2024.0, 4.6115e-07
2026.0, 4.2858e-07
2028.0, 4.7653e-07
2030.0, 5.1435e-07
2032.0, 4.6563e-07
2034.0, 4.8183e-07
2036.0, 4.5412e-07
2038.0, 4.2307e-07
2040.0, 4.2155e-07
2042.0, 4.7563e-07
2044.0, 4.5214e-07
2046.0, 4.7815e-07
2048.0, 4.063e-07
2050.0, 4.5595e-07
2052.0, -2.285e-08
2054.1, -1.717e-08
2056.1, -2.454e-08
2058.1, -2.127e-08
2060.1, -2.454e-08
2062.1, -2.677e-08
2064.1, -2.108e-08
2066.1, -1.807e-08
2068.1, -2.099e-08
2070.1, -2.08e-08
2072.1, -2.169e-08
2074.1, -2.28e-08
2076.1, -2.207e-08
2078.1, -2.2e-08
2080.1, -2.307e-08
2082.1, -2.543e-08
2084.1, -2.184e-08
2086.1, -2.118e-08
2088.1, -2.252e-08
2090.1, -2.275e-08
2092.1, -2.333e-08
2094.1, -2.592e-08
2096.1, -2.523e-08
2098.1, -2.34e-08
2100.1, -2.443e-08
2102.1, -2.914e-08
2104.1, -2.537e-08
2106.1, -2.306e-08
2108.1, -2.56e-08
2110.1, -2.687e-08
2112.1, -2.449e-08
2114.1, -2.391e-08
2116.1, -2.078e-08
2118.1, -2.517e-08
2120.1, -2.146e-08
2122.1, -2.543e-08
2124.1, -2.755e-08
2126.1, -2.429e-08
2128.1, -2.725e-08
2130.1, -2.317e-08
2132.1, -2.589e-08
2134.1, -2.6e-08
2136.1, -2.39e-08
2138.1, -2.403e-08
2140.1, -2.686e-08
2142.1, -2.646e-08
2144.1, -2.687e-08
2146.1, -2.897e-08
2148.1, -2.768e-08
2150.1, -3.18e-08
2152.1, -2.441e-08
2154.2, -2.588e-08
2156.2, -2.677e-08
2158.2, -2.889e-08
2160.2, -2.593e-08
2162.2, -2.402e-08
2164.2, -2.439e-08
2166.2, -2.413e-08
2168.2, -2.433e-08
2170.2, -2.334e-08
2172.2, -2.365e-08
2174.2, -2.794e-08
2176.2, -2.405e-08
2178.2, -2.677e-08
2180.2, -2.467e-08
2182.2, -2.502e-08
2184.2, -2.192e-08
2186.2, -2.296e-08
2188.2, -2.426e-08
2190.2, -2.717e-08
2192.2, -2.522e-08
2194.2, -2.656e-08
2196.2, -2.953e-08
2198.2, -2.755e-08
2200.2, -2.839e-08
2202.2, -3.077e-08
2204.2, -2.499e-08
2206.2, -2.665e-08
2208.2, -2.128e-08
2210.2, -2.53e-08
2212.2, -2.796e-08
2214.2, -2.459e-08
2216.2, -2.511e-08
2218.2, -2.503e-08
2220.2, -2.454e-08
2222.2, -2.22e-08
2224.2, -2.106e-08
2226.2, -2.054e-08
2228.2, -2.425e-08
2230.2, -2.304e-08
2232.2, -2.397e-08
2234.2, -2.177e-08
2236.2, -2.073e-08
2238.2, -2.131e-08
2240.2, -2.092e-08
2242.2, -2.04e-08
2244.2, -2.734e-08
2246.2, -2.631e-08
2248.2, -2.603e-08
2250.2, -2.625e-08
2252.2, -2.028e-08
2254.3, -2.385e-08
2256.3, -2.324e-08
2258.3, -2.422e-08
2260.3, -2.387e-08
2262.3, -2.419e-08
2264.3, -2.75e-08
2266.3, -2.298e-08
2268.3, -2.642e-08
2270.3, -2.865e-08
2272.3, -2.711e-08
2274.3, -2.689e-08
2276.3, -2.61e-08
2278.3, -2.53e-08
2280.3, -2.396e-08
2282.3, -2.676e-08
2284.3, -2.539e-08
2286.3, -2.431e-08
2288.3, -2.765e-08
2290.3, -2.467e-08
2292.3, -2.49e-08
2294.3, -2.584e-08
2296.3, -2.597e-08
2298.3, -2.735e-08
2300.3, -2.296e-08
2302.3, -2.524e-08
2304.3, -2.112e-08
2306.3, -2.267e-08
2308.3, -2.329e-08
2310.3, -2.37e-08
2312.3, -2.326e-08
2314.3, -2.234e-08
2316.3, -2.517e-08
2318.3, -2.431e-08
2320.3, -2.62e-08
2322.3, -2.408e-08
2324.3, -2.657e-08
2326.3, -2.667e-08
2328.3, -2.666e-08
2330.3, -2.847e-08
2332.3, -2.779e-08
2334.3, -2.351e-08
2336.3, -2.6e-08
2338.3, -2.481e-08
2340.3, -2.897e-08
2342.3, -2.447e-08
2344.3, -2.555e-08
2346.3, -2.172e-08
2348.3, -2.426e-08
2350.3, -2.409e-08
2352.3, -2.646e-08
2354.4, -2.533e-08
2356.4, -2.636e-08
2358.4, -2.416e-08
2360.4, -2.659e-08
2362.4, -2.326e-08
2364.4, -2.109e-08
2366.4, -2.302e-08
2368.4, -2.48e-08
2370.4, -2.291e-08
2372.4, -2.402e-08
2374.4, -2.633e-08
2376.4, -2.368e-08
2378.4, -2.605e-08
2380.4, -2.751e-08
2382.4, -2.809e-08
2384.4, -2.565e-08
2386.4, -2.707e-08
2388.4, -2.639e-08
2390.4, -2.783e-08
2392.4, -2.548e-08
2394.4, -2.584e-08
2396.4, -2.866e-08
2398.4, -2.635e-08
2400.4, -3.355e-08
2402.4, -2.797e-08
2404.4, -2.827e-08
2406.4, -2.486e-08
2408.4, -2.751e-08
2410.4, -2.526e-08
2412.4, -2.809e-08
2414.4, -2.69e-08
2416.4, -2.614e-08
2418.4, -2.711e-08
2420.4, -2.584e-08
2422.4, -2.504e-08
2424.4, -2.417e-08
2426.4, -2.422e-08
2428.4, -2.34e-08
2430.4, -2.204e-08
2432.4, -2.404e-08
2434.4, -2.433e-08
2436.4, -2.216e-08
2438.4, -2.41e-08
2440.4, -2.385e-08
2442.4, -2.29e-08
2444.4, -2.22e-08
2446.4, -2.285e-08
2448.4, -2.44e-08
2450.4, -2.436e-08
2452.4, -2.199e-08
2454.5, -2.266e-08
2456.5, -2.578e-08
2458.5, -2.369e-08
2460.5, -2.621e-08
2462.5, -2.422e-08
2464.5, -2.484e-08
2466.5, -2.256e-08
2468.5, -1.938e-08
2470.5, -2.217e-08
2472.5, -2.197e-08
2474.5, -2.294e-08
2476.5, -2.759e-08
2478.5, -2.328e-08
2480.5, -2.732e-08
2482.5, -2.217e-08
2484.5, -2.712e-08
2486.5, -2.144e-08
2488.5, -2.326e-08
2490.5, -2.015e-08
2492.5, -2.566e-08
2494.5, -2.777e-08
2496.5, -2.36e-08
2498.5, -2.549e-08
2500.5, -2.95e-08
2502.5, -2.426e-08
2504.5, -2.335e-08
2506.5, -2.511e-08
2508.5, -1.967e-08
2510.5, -2.484e-08
2512.5, -2.74e-08
2514.5, -2.916e-08
2516.5, -2.972e-08
2518.5, -2.815e-08
2520.5, -2.634e-08
2522.5, -2.546e-08
2524.5, -2.998e-08
2526.5, -2.886e-08
2528.5, -2.671e-08
2530.5, -2.681e-08
2532.5, -2.839e-08
2534.5, -2.6e-08
2536.5, -2.574e-08
2538.5, -2.405e-08
2540.5, -2.591e-08
2542.5, -2.27e-08
2544.5, -2.573e-08
2546.5, -2.56e-08
2548.5, -2.452e-08
2550.5, -2.818e-08
2552.5, -2.75e-08
2554.6, -2.49e-08
2556.6, -2.433e-08
2558.6, -2.717e-08
2560.6, -3.047e-08
2562.6, -2.976e-08
2564.6, -3.112e-08
2566.6, -2.736e-08
2568.6, -2.805e-08
2570.6, -3.124e-08
2572.6, -3.008e-08
2574.6, -2.917e-08
2576.6, -2.828e-08
2578.6, -2.948e-08
2580.6, -2.833e-08
2582.6, -2.529e-08
2584.6, -2.326e-08
2586.6, -2.571e-08
2588.6, -2.649e-08
2590.6, -2.64e-08
2592.6, -2.764e-08
2594.6, -2.443e-08
2596.6, -2.382e-08
2598.6, -2.766e-08
2600.6, -2.514e-08
2602.6, -2.523e-08
2604.6, -2.57e-08
2606.6, -2.35e-08
2608.6, -2.677e-08
2610.6, -2.864e-08
2612.6, -2.636e-08
2614.6, -2.642e-08
2616.6, -3.524e-08
2618.6, -3.075e-08
2620.6, -2.837e-08
2622.6, -2.487e-08
2624.6, -2.752e-08
2626.6, -2.985e-08
2628.6, -2.602e-08
2630.6, -3.149e-08
2632.6, -2.945e-08
2634.6, -3.157e-08
2636.6, -2.779e-08
2638.6, -2.744e-08
2640.6, -2.442e-08
2642.6, -2.609e-08
2644.6, -2.271e-08
2646.6, -2.696e-08
2648.6, -2.302e-08
2650.6, -2.669e-08
2652.6, -2.742e-08
2654.7, -2.629e-08
2656.7, -2.232e-08
2658.7, -2.647e-08
2660.7, -2.788e-08
2662.7, -2.671e-08
2664.7, -2.252e-08
2666.7, -2.63e-08
2668.7, -2.709e-08
2670.7, -3.069e-08
2672.7, -2.866e-08
2674.7, -2.711e-08
2676.7, -2.407e-08
2678.7, -2.667e-08
2680.7, -2.642e-08
2682.7, -2.886e-08
2684.7, -3.031e-08
2686.7, -2.891e-08
2688.7, -3.159e-08
2690.7, -3.038e-08
2692.7, -3.133e-08
2694.7, -3e-08
2696.7, -2.948e-08
2698.7, -2.873e-08
2700.7, -2.363e-08
2702.7, -2.833e-08
2704.7, -2.504e-08
2706.7, -2.527e-08
2708.7, -2.514e-08
2710.7, -2.907e-08
2712.7, -2.505e-08
2714.7, -2.777e-08
2716.7, -2.647e-08
2718.7, -2.5e-08
2720.7, -2.434e-08
2722.7, -2.452e-08
2724.7, -2.286e-08
2726.7, -2.206e-08
2728.7, -2.534e-08
2730.7, -2.896e-08
2732.7, -2.541e-08
2734.7, -2.707e-08
2736.7, -2.266e-08
2738.7, -2.483e-08
2740.7, -2.655e-08
2742.7, -2.916e-08
2744.7, -2.789e-08
2746.7, -2.165e-08
2748.7, -2.619e-08
2750.7, -2.656e-08
2752.7, -2.388e-08
2754.8, -2.539e-08
2756.8, -2.734e-08
2758.8, -2.728e-08
2760.8, -2.236e-08
2762.8, -2.622e-08
2764.8, -1.831e-08
2766.8, -2.65e-08
2768.8, -2.164e-08
2770.8, -2.299e-08
2772.8, -2.363e-08
2774.8, -2.305e-08
2776.8, -2.477e-08
2778.8, -2.352e-08
2780.8, -2.465e-08
2782.8, -2.419e-08
2784.8, -2.512e-08
2786.8, -2.473e-08
2788.8, -2.161e-08
2790.8, -2.142e-08
2792.8, -2.485e-08
2794.8, -2.277e-08
2796.8, -2.318e-08
2798.8, -2.263e-08
2800.8, -2.41e-08
2802.8, -2.412e-08
2804.8, -2.348e-08
2806.8, -2.319e-08
2808.8, -2.139e-08
2810.8, -2.368e-08
2812.8, -2.444e-08
2814.8, -2.169e-08
2816.8, -2.293e-08
2818.8, -2.286e-08
2820.8, -2.299e-08
2822.8, -2.364e-08
2824.8, -2.608e-08
2826.8, -2.808e-08
2828.8, -2.525e-08
2830.8, -2.505e-08
2832.8, -2.51e-08
2834.8, -2.41e-08
2836.8, -2.439e-08
2838.8, -2.49e-08
2840.8, -2.681e-08
2842.8, -2.335e-08
2844.8, -2.423e-08
2846.8, -2.272e-08
2848.8, -2.517e-08
2850.8, -2.685e-08
2852.8, -2.503e-08
2854.9, -2.53e-08
2856.9, -2.497e-08
2858.9, -2.583e-08
2860.9, -2.582e-08
2862.9, -2.748e-08
2864.9, -2.695e-08
2866.9, -2.442e-08
2868.9, -2.408e-08
2870.9, -2.945e-08
2872.9, -2.265e-08
2874.9, -2.612e-08
2876.9, -2.48e-08
2878.9, -2.667e-08
2880.9, -2.675e-08
2882.9, -2.695e-08
2884.9, -2.329e-08
2886.9, -2.157e-08
2888.9, -2.23e-08
2890.9, -2.342e-08
2892.9, -2.306e-08
2894.9, -2.447e-08
2896.9, -2.431e-08
2898.9, -2.259e-08
2900.9, -2.286e-08
2902.9, -2.407e-08
2904.9, -2.237e-08
2906.9, -2.472e-08
2908.9, -2.828e-08
2910.9, -2.235e-08
2912.9, -2.501e-08
2914.9, -2.385e-08
2916.9, -2.659e-08
2918.9, -2.542e-08
2920.9, -2.558e-08
2922.9, -2.694e-08
2924.9, -2.829e-08
2926.9, -2.572e-08
2928.9, -2.239e-08
2930.9, -2.126e-08
2932.9, -2.36e-08
2934.9, -2.153e-08
2936.9, -2.186e-08
2938.9, -2.48e-08
2940.9, -2.346e-08
2942.9, -2.299e-08
2944.9, -2.28e-08
2946.9, -1.827e-08
2948.9, -1.845e-08
2950.9, -1.984e-08
2952.9, -1.78e-08
2955.0, -1.581e-08
2957.0, -1.874e-08
2959.0, -1.547e-08
2961.0, -2.155e-08
2963.0, -1.926e-08
2965.0, -1.619e-08
2967.0, -2.177e-08
2969.0, -2.229e-08
2971.0, -1.896e-08
2973.0, -2.055e-08
2975.0, -1.835e-08
2977.0, -2.122e-08
2979.0, -2.167e-08
2981.0, -2.216e-08
2983.0, -2.681e-08
2985.0, -2.492e-08
2987.0, -2.219e-08
2989.0, -2.499e-08
2991.0, -2.407e-08
2993.0, -2.328e-08
2995.0, -2.031e-08
2997.0, -2.292e-08
2999.0, -2.154e-08
3001.0, -2.385e-08
3003.0, -2.609e-08
3005.0, -2.245e-08
3007.0, -2.736e-08
3009.0, -2.197e-08
3011.0, -2.798e-08
3013.0, -2.86e-08
3015.0, -2.82e-08
3017.0, -2.443e-08
3019.0, -2.483e-08
3021.0, -2.512e-08
3023.0, -2.179e-08
3025.0, -2.379e-08
3027.0, -2.488e-08
3029.0, -2.578e-08
3031.0, -2.666e-08
3033.0, -2.696e-08
3035.0, -2.586e-08
3037.0, -2.357e-08
3039.0, -1.981e-08
3041.0, -2.338e-08
3043.0, -2.709e-08
3045.0, -2.238e-08
3047.0, -2.297e-08
3049.0, -2.643e-08
3051.0, -2.854e-08
3053.0, -2.53e-08
3055.1, -2.656e-08
3057.1, -2.009e-08
3059.1, -2.31e-08
3061.1, -2.634e-08
3063.1, -2.527e-08
3065.1, -2.499e-08
3067.1, -2.423e-08
3069.1, -2.599e-08
3071.1, -2.699e-08
3073.1, -2.57e-08
3075.1, -2.604e-08
3077.1, -2.686e-08
3079.1, -2.65e-08
3081.1, -2.675e-08
3083.1, -2.108e-08
3085.1, -2.322e-08
3087.1, -2.056e-08
3089.1, -2.558e-08
3091.1, -2.769e-08
3093.1, -2.364e-08
3095.1, -2.428e-08
3097.1, -2.556e-08
3099.1, -2.27e-08
3101.1, -2.568e-08
3103.1, -2.57e-08
3105.1, -2.359e-08
3107.1, -2.361e-08
3109.1, -2.194e-08
3111.1, -2.736e-08
3113.1, -2.244e-08
3115.1, -1.895e-08
3117.1, -2.273e-08
3119.1, -2.031e-08
3121.1, -1.903e-08
3123.1, -2.268e-08
3125.1, -2.291e-08
3127.1, -2.184e-08
3129.1, -2e-08
3131.1, -1.891e-08
3133.1, -2.313e-08
3135.1, -1.921e-08
3137.1, -2.1e-08
3139.1, -2.113e-08
3141.1, -2.12e-08
3143.1, -2.121e-08
3145.1, -1.867e-08
3147.1, -1.788e-08
3149.1, -1.922e-08
3151.1, -2.046e-08
3153.1, -2.038e-08
3155.2, -2.097e-08
3157.2, -2.079e-08
3159.2, -2.239e-08
3161.2, -2.083e-08
3163.2, -2.515e-08
3165.2, -1.937e-08
3167.2, -2.061e-08
3169.2, -1.86e-08
3171.2, -2.254e-08
3173.2, -2.052e-08
3175.2, -1.912e-08
3177.2, -2.04e-08
3179.2, -2.423e-08
3181.2, -2.059e-08
3183.2, -2.285e-08
3185.2, -1.72e-08
3187.2, -2.187e-08
3189.2, -2.588e-08
3191.2, -2.296e-08
3193.2, -2.028e-08
3195.2, -2.437e-08
3197.2, -2.427e-08
3199.2, -1.996e-08
3201.2, -2.64e-08
3203.2, -2.446e-08
3205.2, -1.824e-08
3207.2, -1.847e-08
3209.2, -2.232e-08
3211.2, -2.231e-08
3213.2, -1.503e-08
3215.2, -2.038e-08
3217.2, -2.193e-08
3219.2, -2.147e-08
3221.2, -2.002e-08
3223.2, -2.56e-08
3225.2, -2.306e-08
3227.2, -2.612e-08
3229.2, -2.749e-08
3231.2, -2.61e-08
3233.2, -2.652e-08
3235.2, -2.399e-08
3237.2, -2.542e-08
3239.2, -2.2e-08
3241.2, -2.596e-08
3243.2, -2.279e-08
3245.2, -2.351e-08
3247.2, -2.214e-08
3249.2, -2.183e-08
3251.2, -2.086e-08
3253.2, -3.029e-08
3255.3, -2.705e-08
3257.3, -2.169e-08
3259.3, -2.082e-08
3261.3, -2.266e-08
3263.3, -2.217e-08
3265.3, -2.548e-08
3267.3, -2.371e-08
3269.3, -2.179e-08
3271.3, -2.445e-08
3273.3, -2.215e-08
3275.3, -2.413e-08
3277.3, -2.486e-08
3279.3, -2.712e-08
3281.3, -2.587e-08
3283.3, -2.273e-08
3285.3, -2.863e-08
3287.3, -2.556e-08
3289.3, -2.264e-08
3291.3, -2.289e-08
3293.3, -2.28e-08
3295.3, -2.216e-08
3297.3, -2.527e-08
3299.3, -2.319e-08
3301.3, -1.885e-08
3303.3, -2.114e-08
3305.3, -2.389e-08
3307.3, -2.318e-08
3309.3, -2.084e-08
3311.3, -2.926e-08
3313.3, -2.172e-08
3315.3, -2.67e-08
3317.3, -2.228e-08
3319.3, -2.166e-08
3321.3, -1.913e-08
3323.3, -1.753e-08
3325.3, -1.725e-08
3327.3, -2.012e-08
3329.3, -2.169e-08
3331.3, -1.985e-08
3333.3, -2.091e-08
3335.3, -2.015e-08
3337.3, -2.078e-08
3339.3, -2.048e-08
3341.3, -2.161e-08
3343.3, -2.142e-08
3345.3, -2.257e-08
3347.3, -2.114e-08
3349.3, -2.223e-08
3351.3, -2.4e-08
3353.3, -2.132e-08
3355.4, -2.221e-08
3357.4, -2.533e-08
3359.4, -2.652e-08
3361.4, -3.022e-08
3363.4, -2.652e-08
3365.4, -2.507e-08
3367.4, -2.583e-08
3369.4, -2.517e-08
3371.4, -2.491e-08
3373.4, -2.459e-08
3375.4, -2.572e-08
3377.4, -2.625e-08
3379.4, -2.575e-08
3381.4, -3.094e-08
3383.4, -2.49e-08
3385.4, -2.8e-08
3387.4, -2.239e-08
3389.4, -2.158e-08
3391.4, -2.53e-08
3393.4, -2.303e-08
3395.4, -2.433e-08
3397.4, -2.267e-08
3399.4, -2.167e-08
3401.4, -2.396e-08
3403.4, -2.416e-08
3405.4, -2.341e-08
3407.4, -2.298e-08
3409.4, -2.646e-08
3411.4, -2.34e-08
3413.4, -2.639e-08
3415.4, -2.623e-08
3417.4, -2.707e-08
3419.4, -2.318e-08
3421.4, -2.74e-08
3423.4, -2.201e-08
3425.4, -2.43e-08
3427.4, -2.199e-08
3429.4, -2.577e-08
3431.4, -2.672e-08
3433.4, -2.819e-08
3435.4, -2.869e-08
3437.4, -2.408e-08
3439.4, -2.52e-08
3441.4, -2.54e-08
3443.4, -2.945e-08
3445.4, -2.304e-08
3447.4, -2.79e-08
3449.4, -2.759e-08
3451.4, -2.368e-08
3453.4, -2.327e-08
3455.5, -2.678e-08
3457.5, -2.114e-08
3459.5, -2.508e-08
3461.5, -2.689e-08
3463.5, -2.277e-08
3465.5, -2.61e-08
3467.5, -1.807e-08
3469.5, -2.638e-08
3471.5, -2.035e-08
3473.5, -2.369e-08
3475.5, -2.269e-08
3477.5, -2.577e-08
3479.5, -2.5e-08
3481.5, -2.421e-08
3483.5, -2.275e-08
3485.5, -2.795e-08
3487.5, -2.531e-08
3489.5, -2.391e-08
3491.5, -2.205e-08
3493.5, -2.452e-08
3495.5, -2.317e-08
3497.5, -2.51e-08
3499.5, -2.587e-08
3501.5, -2.614e-08
3503.5, -2.52e-08
3505.5, -2.819e-08
3507.5, -2.808e-08
3509.5, -3.118e-08
3511.5, -3.035e-08
3513.5, -3.033e-08
3515.5, -3.094e-08
3517.5, -2.599e-08
3519.5, -2.475e-08
3521.5, -2.868e-08
3523.5, -2.546e-08
3525.5, -2.93e-08
3527.5, -2.905e-08
3529.5, -2.905e-08
3531.5, -2.95e-08
3533.5, -2.527e-08
3535.5, -2.565e-08
3537.5, -2.308e-08
3539.5, -2.256e-08
3541.5, -2.109e-08
3543.5, -2.264e-08
3545.5, -2.35e-08
3547.5, -2.64e-08
3549.5, -2.923e-08
3551.5, -2.783e-08
3553.5, -2.653e-08
3555.6, -2.636e-08
3557.6, -2.276e-08
3559.6, -2.616e-08
3561.6, -2.297e-08
3563.6, -2.408e-08
3565.6, -2.425e-08
3567.6, -2.484e-08
3569.6, -2.245e-08
3571.6, -2.595e-08
3573.6, -2.369e-08
3575.6, -2.574e-08
3577.6, -2.616e-08
3579.6, -2.888e-08
3581.6, -2.598e-08
3583.6, -2.45e-08
3585.6, -2.063e-08
3587.6, -2.161e-08
3589.6, -2.22e-08
3591.6, -2.36e-08
3593.6, -1.974e-08
3595.6, -1.789e-08
3597.6, -2.408e-08
3599.6, -2.271e-08
3601.6, -2.398e-08
3603.6, -1.792e-08
3605.6, -2.155e-08
3607.6, -2.301e-08
3609.6, -2.068e-08
3611.6, -2.352e-08
3613.6, -2.456e-08
3615.6, -2.315e-08
3617.6, -2.19e-08
3619.6, -2.088e-08
3621.6, -2.816e-08
3623.6, -2.536e-08
3625.6, -2.927e-08
3627.6, -2.529e-08
3629.6, -2.512e-08
3631.6, -2.697e-08
3633.6, -2.367e-08
3635.6, -2.987e-08
3637.6, -2.462e-08
3639.6, -2.297e-08
3641.6, -2.535e-08
3643.6, -2.301e-08
3645.6, -2.078e-08
3647.6, -2.621e-08
3649.6, -2.505e-08
3651.6, -1.973e-08
3653.6, -2.387e-08
3655.7, -2.067e-08
3657.7, -2.466e-08
3659.7, -2.586e-08
3661.7, -2.642e-08
3663.7, -2.463e-08
3665.7, -2.388e-08
3667.7, -2.651e-08
3669.7, -2.605e-08
3671.7, -2.776e-08
3673.7, -2.703e-08
3675.7, -2.391e-08
3677.7, -2.679e-08
3679.7, -2.826e-08
3681.7, -2.566e-08
3683.7, -2.452e-08
3685.7, -2.507e-08
3687.7, -2.852e-08
3689.7, -2.866e-08
3691.7, -2.991e-08
3693.7, -2.947e-08
3695.7, -2.445e-08
3697.7, -2.13e-08
3699.7, -1.907e-08
3701.7, -2.258e-08
3703.7, -2.435e-08
3705.7, -2.275e-08
3707.7, -2.417e-08
3709.7, -2.466e-08
3711.7, -2.397e-08
3713.7, -2.392e-08
3715.7, -2.741e-08
3717.7, -2.718e-08
3719.7, -2.261e-08
3721.7, -2.311e-08
3723.7, -2.302e-08
3725.7, -2.073e-08
3727.7, -2.118e-08
3729.7, -2.219e-08
3731.7, -2.081e-08
3733.7, -2.113e-08
3735.7, -2.076e-08
3737.7, -2.05e-08
3739.7, -2.487e-08
3741.7, -2.588e-08
3743.7, -2.389e-08
3745.7, -2.658e-08
3747.7, -2.767e-08
3749.7, -2.432e-08
3751.7, -2.761e-08
3753.7, -2.653e-08
3755.8, -2.646e-08
3757.8, -2.783e-08
3759.8, -2.407e-08
3761.8, -2.15e-08
3763.8, -2.41e-08
3765.8, -3.017e-08
3767.8, -2.692e-08
3769.8, -2.539e-08
3771.8, -2.536e-08
3773.8, -2.819e-08
3775.8, -2.745e-08
3777.8, -2.704e-08
3779.8, -2.448e-08
3781.8, -2.602e-08
3783.8, -2.406e-08
3785.8, -2.251e-08
3787.8, -2.548e-08
3789.8, -2.436e-08
3791.8, -2.403e-08
3793.8, -2.269e-08
3795.8, -2.291e-08
3797.8, -2.28e-08
3799.8, -2.539e-08
3801.8, -2.755e-08
3803.8, -2.483e-08
3805.8, -2.489e-08
3807.8, -2.692e-08
3809.8, -2.576e-08
3811.8, -2.816e-08
3813.8, -2.957e-08
3815.8, -2.728e-08
3817.8, -2.488e-08
3819.8, 1.8806e-07
3821.8, 3.8093e-07
3823.8, 4.0041e-07
3825.8, 3.6436e-07
3827.8, 3.8057e-07
3829.8, 3.7556e-07
3831.8, 4.3217e-07
3833.8, 3.7926e-07
3835.8, 3.9398e-07
3837.8, 3.714e-07
3839.8, 3.5759e-07
3841.8, 4.1055e-07
3843.8, 4.0404e-07
3845.8, 3.7249e-07
3847.8, 3.6797e-07
3849.8, 3.8867e-07
3851.8, 3.9225e-07
3853.8, 3.5469e-07
3855.9, 4.136e-07
3857.9, 4.3084e-07
3859.9, 3.9642e-07
3861.9, 3.6056e-07
3863.9, 4.0079e-07
3865.9, 4.3399e-07
3867.9, 3.9342e-07
3869.9, 4.1921e-07
3871.9, 3.7138e-07
3873.9, 3.7329e-07
3875.9, 4.2984e-07
3877.9, 4.3994e-07
3879.9, 3.9053e-07
3881.9, 4.0472e-07
3883.9, 3.7786e-07
3885.9, 4.1345e-07
3887.9, 3.9888e-07
3889.9, 4.297e-07
3891.9, 3.8083e-07
3893.9, 3.864e-07
3895.9, 4.6091e-07
3897.9, 4.0949e-07
3899.9, 3.9025e-07
3901.9, 3.8421e-07
3903.9, 4.2023e-07
3905.9, 4.343e-07
3907.9, 4.484e-07
3909.9, 4.07e-07
3911.9, 4.2115e-07
3913.9, 3.8633e-07
3915.9, 4.1745e-07
3917.9, 4.1846e-07
3919.9, 4.2412e-07
3921.9, 3.7394e-07
3923.9, 3.8669e-07
3925.9, 4.2512e-07
3927.9, 4.0971e-07
3929.9, 4.5728e-07
3931.9, 3.8491e-07
3933.9, 4.076e-07
3935.9, 4.187e-07
3937.9, 4.3756e-07
3939.9, 4.394e-07
3941.9, 4.7243e-07
3943.9, 3.9896e-07
3945.9, 3.6964e-07
3947.9, 4.1045e-07
3949.9, 4.1815e-07
3951.9, 4.1665e-07
3953.9, 4.0316e-07
3956.0, 4.2153e-07
3958.0, 3.9965e-07
3960.0, 3.8813e-07
3962.0, 4.2169e-07
3964.0, 4.2366e-07
3966.0, 4.1328e-07
3968.0, 4.6112e-07
3970.0, 3.7983e-07
3972.0, 4.2585e-07
3974.0, 4.6642e-07
3976.0, 4.7569e-07
3978.0, 4.4522e-07
3980.0, 3.8866e-07
3982.0, 3.8803e-07
3984.0, 3.9708e-07
3986.0, 4.2306e-07
3988.0, 4.2e-07
3990.0, 4.4384e-07
3992.0, 3.9777e-07
3994.0, 3.9038e-07
3996.0, 4.5119e-07
3998.0, 4.2986e-07
4000.0, 4.1747e-07
4002.0, 4.5333e-07
4004.0, 4.5127e-07
4006.0, 4.3138e-07
4008.0, 4.0775e-07
4010.0, 4.2779e-07
4012.0, 4.0193e-07
4014.0, 4.3139e-07
4016.0, 4.4038e-07
4018.0, 3.9563e-07
4020.0, 4.5878e-07
4022.0, 4.1899e-07
4024.0, 3.9492e-07
4026.0, 4.3015e-07
4028.0, 4.1855e-07
4030.0, 4.2549e-07
4032.0, 4.1402e-07
4034.0, 4.1712e-07
4036.0, 4.3543e-07
4038.0, 4.0223e-07
4040.0, 4.4519e-07
4042.0, 3.7344e-07
4044.0, 4.1159e-07
4046.0, 3.9717e-07
4048.0, 4.5581e-07
4050.0, 4.1362e-07
4052.0, 3.4759e-07
4054.0, 4.4328e-07
4056.1, 4.7227e-07
4058.1, 4.2114e-07
4060.1, 4.1784e-07
4062.1, 4.4508e-07
4064.1, 4.3367e-07
4066.1, 4.1116e-07
4068.1, 4.4974e-07
4070.1, 4.3004e-07
4072.1, 4.2814e-07
4074.1, 4.2028e-07
4076.1, 4.2676e-07
4078.1, 4.0287e-07
4080.1, 4.1674e-07
4082.1, 4.6658e-07
4084.1, 4.0408e-07
4086.1, 4.1561e-07
4088.1, 3.8933e-07
4090.1, 4.2059e-07
4092.1, 4.4723e-07
4094.1, 4.21e-07
4096.1, 4.4133e-07
4098.1, 4.6976e-07
4100.1, 4.3874e-07
4102.1, 4.1995e-07
4104.1, 3.5928e-07
4106.1, 4.1618e-07
4108.1, 4.2764e-07
4110.1, 3.9374e-07
4112.1, 3.8232e-07
4114.1, 4.1631e-07
4116.1, 3.8194e-07
4118.1, 3.9864e-07
4120.1, 4.162e-07
4122.1, 4.1045e-07
4124.1, 4.1473e-07
4126.1, 4.623e-07
4128.1, 4.4355e-07
4130.1, 3.6933e-07
4132.1, 4.6759e-07
4134.1, 4.0522e-07
4136.1, 4.4292e-07
4138.1, 3.9733e-07
4140.1, 4.2096e-07
4142.1, 4.2855e-07
4144.1, 4.2914e-07
4146.1, 4.3945e-07
4148.1, 4.2172e-07
4150.1, 4.8376e-07
4152.1, 4.5241e-07
4154.1, 3.8955e-07
4156.2, 4.0186e-07
4158.2, 4.3214e-07
4160.2, 4.0684e-07
4162.2, 3.8487e-07
4164.2, 4.3227e-07
4166.2, 4.6311e-07
4168.2, 4.9583e-07
4170.2, 4.4775e-07
4172.2, 4.3513e-07
4174.2, 4.3589e-07
4176.2, 4.1083e-07
4178.2, 4.237e-07
4180.2, 4.2311e-07
4182.2, 4.3744e-07
4184.2, 4.0041e-07
4186.2, 4.5359e-07
4188.2, 4.3826e-07
4190.2, 4.757e-07
4192.2, 3.8815e-07
4194.2, 4.3104e-07
4196.2, 4.4141e-07
4198.2, 4.1773e-07
4200.2, 4.1769e-07
4202.2, 4.3859e-07
4204.2, 3.9635e-07
4206.2, 4.7584e-07
4208.2, 4.5104e-07
4210.2, 4.6429e-07
4212.2, 4.2712e-07
4214.2, 4.3935e-07
4216.2, 4.1603e-07
4218.2, 4.4927e-07
4220.2, 4.5536e-07
4222.2, 4.2472e-07
4224.2, 4.4712e-07
4226.2, 4.6204e-07
4228.2, 4.2178e-07
4230.2, 4.8414e-07
4232.2, 4.4807e-07
4234.2, 4.2469e-07
4236.2, 4.4983e-07
4238.2, 5.09e-07
4240.2, 4.3443e-07
4242.2, 4.414e-07
4244.2, 4.527e-07
4246.2, 4.9344e-07
4248.2, 3.9512e-07
4250.2, 4.4904e-07
4252.2, 4.3146e-07
4254.2, 4.3227e-07
4256.3, 4.2818e-07
4258.3, 4.1147e-07
4260.3, 4.3195e-07
4262.3, 4.617e-07
4264.3, 4.6553e-07
4266.3, 4.5747e-07
4268.3, 4.4522e-07
4270.3, 4.2125e-07
4272.3, 4.2935e-07
4274.3, 4.074e-07
4276.3, 4.4983e-07
4278.3, 4.2861e-07
4280.3, 4.7072e-07
4282.3, 4.9285e-07
4284.3, 4.3343e-07
4286.3, 4.3063e-07
4288.3, 4.1659e-07
4290.3, 4.0348e-07
4292.3, 4.3196e-07
4294.3, 4.9311e-07
4296.3, 4.3868e-07
4298.3, 4.4447e-07
4300.3, 4.1606e-07
4302.3, 4.4855e-07
4304.3, 4.4351e-07
4306.3, 4.3098e-07
4308.3, 4.556e-07
4310.3, 4.2694e-07
4312.3, 3.9027e-07
4314.3, 4.6906e-07
4316.3, 4.6469e-07
4318.3, 4.2947e-07
4320.3, 4.6975e-07
4322.3, 4.7605e-07
4324.3, 4.3234e-07
4326.3, 4.6023e-07
4328.3, 5.0454e-07
4330.3, 4.1077e-07
4332.3, 4.2106e-07
4334.3, 4.2945e-07
4336.3, 4.1731e-07
4338.3, 4.4896e-07
4340.3, 4.186e-07
4342.3, 4.3665e-07
4344.3, 4.7189e-07
4346.3, 4.3389e-07
4348.3, 4.8328e-07
4350.3, 4.648e-07
4352.3, 4.5661e-07
4354.3, 4.5684e-07
4356.4, 4.5041e-07
4358.4, 4.2144e-07
4360.4, 4.4938e-07
4362.4, 4.1735e-07
4364.4, 4.4483e-07
4366.4, 4.1681e-07
4368.4, 5.1598e-07
4370.4, 4.2035e-07
4372.4, 4.8041e-07
4374.4, 4.4919e-07
4376.4, 4.9066e-07
4378.4, 4.7276e-07
4380.4, 5.3042e-07
4382.4, 4.3502e-07
4384.4, 4.2451e-07
4386.4, 4.4808e-07
4388.4, 4.4846e-07
4390.4, 4.1015e-07
4392.4, 3.9891e-07
4394.4, 4.6437e-07
4396.4, 4.3361e-07
4398.4, 4.2913e-07
4400.4, 4.308e-07
4402.4, 4.6106e-07
4404.4, 4.5147e-07
4406.4, 4.3092e-07
4408.4, 4.5497e-07
4410.4, 4.637e-07
4412.4, 4.8894e-07
4414.4, 4.5739e-07
4416.4, 4.6628e-07
4418.4, 4.543e-07
4420.4, 4.5245e-07
4422.4, 4.5322e-07
4424.4, 4.3707e-07
4426.4, 4.2101e-07
4428.4, 4.2788e-07
4430.4, 4.695e-07
4432.4, 4.6689e-07
4434.4, 4.2105e-07
4436.4, 4.433e-07
4438.4, 4.5126e-07
4440.4, 4.6869e-07
4442.4, 4.3691e-07
4444.4, 4.4575e-07
4446.4, 4.1224e-07
4448.4, 4.5626e-07
4450.4, 4.6604e-07
4452.4, 4.7951e-07
4454.4, 4.2626e-07
4456.5, 3.9214e-07
4458.5, 4.4677e-07
4460.5, 4.6863e-07
4462.5, 4.7172e-07
4464.5, 4.6256e-07
4466.5, 4.6746e-07
4468.5, 4.1525e-07
4470.5, 4.2725e-07
4472.5, 4.7289e-07
4474.5, 4.3601e-07
4476.5, 4.7743e-07
4478.5, 4.4863e-07
4480.5, 4.347e-07
4482.5, 4.6279e-07
4484.5, 4.4535e-07
4486.5, 4.4948e-07
4488.5, 4.3015e-07
4490.5, 4.6765e-07
4492.5, 4.4059e-07
4494.5, 4.4132e-07
4496.5, 4.5462e-07
4498.5, 4.4472e-07
4500.5, 4.0459e-07
4502.5, 4.355e-07
4504.5, 4.1916e-07
4506.5, 4.0395e-07
4508.5, 4.6806e-07
4510.5, 4.7624e-07
4512.5, 4.0127e-07
4514.5, 4.2728e-07
4516.5, 4.4568e-07
4518.5, 4.5449e-07
4520.5, 4.2557e-07
4522.5, 4.6931e-07
4524.5, 4.6038e-07
4526.5, 4.4043e-07
4528.5, 4.6418e-07
4530.5, 5.1194e-07
4532.5, 4.5349e-07
4534.5, 4.1839e-07
4536.5, 4.5879e-07
4538.5, 4.577e-07
4540.5, 4.9037e-07
4542.5, 4.4814e-07
4544.5, 4.5023e-07
4546.5, 4.2433e-07
4548.5, 5.1598e-07
4550.5, 4.3541e-07
4552.5, 4.3659e-07
4554.5, 4.3121e-07
4556.6, 4.2813e-07
4558.6, 4.5459e-07
4560.6, 4.472e-07
4562.6, 4.4639e-07
4564.6, 4.9788e-07
4566.6, 4.3676e-07
4568.6, 4.4669e-07
4570.6, 4.7103e-07
4572.6, 4.1112e-07
4574.6, 4.3281e-07
4576.6, 4.4076e-07
4578.6, 4.3565e-07
4580.6, 4.0292e-07
4582.6, 4.4032e-07
4584.6, 4.3224e-07
4586.6, 4.8626e-07
4588.6, 4.5142e-07
4590.6, 4.5261e-07
4592.6, 4.4145e-07
4594.6, 4.4673e-07
4596.6, 4.6273e-07
4598.6, 5.0041e-07
4600.6, 4.722e-07
4602.6, 4.6746e-07
4604.6, 4.7748e-07
4606.6, 4.7501e-07
4608.6, 4.1557e-07
4610.6, 4.6238e-07
4612.6, 4.1151e-07
4614.6, 4.3736e-07
4616.6, 4.0242e-07
4618.6, 4.3785e-07
4620.6, 4.4487e-07
4622.6, 4.7374e-07
4624.6, 4.2185e-07
4626.6, 4.5084e-07
4628.6, 4.8367e-07
4630.6, 4.1198e-07
4632.6, 4.8947e-07
4634.6, 4.7371e-07
4636.6, 4.3186e-07
4638.6, 4.4166e-07
4640.6, 4.6452e-07
4642.6, 4.2583e-07
4644.6, 4.6862e-07
4646.6, 4.7083e-07
4648.6, 4.4006e-07
4650.6, 4.5968e-07
4652.6, 4.4729e-07
4654.6, 4.4788e-07
4656.7, 4.8023e-07
4658.7, 4.6248e-07
4660.7, 4.6585e-07
4662.7, 4.3966e-07
4664.7, 4.3563e-07
4666.7, 4.7906e-07
4668.7, 4.5301e-07
4670.7, 4.271e-07
4672.7, 3.9383e-07
4674.7, 4.1906e-07
4676.7, 4.2242e-07
4678.7, 4.9631e-07
4680.7, 4.2658e-07
4682.7, 5.1387e-07
4684.7, 4.447e-07
4686.7, 4.8844e-07
4688.7, 4.4306e-07
4690.7, 4.2519e-07
4692.7, 4.5331e-07
4694.7, 3.8432e-07
4696.7, 4.6165e-07
4698.7, 4.4948e-07
4700.7, 4.8785e-07
4702.7, 4.7495e-07
4704.7, 4.6304e-07
4706.7, 4.3976e-07
4708.7, 4.4065e-07
4710.7, 4.7489e-07
4712.7, 4.0532e-07
4714.7, 4.4094e-07
4716.7, 4.9764e-07
4718.7, 4.2005e-07
4720.7, 4.7789e-07
4722.7, 4.7451e-07
4724.7, 4.6723e-07
4726.7, 4.6896e-07
4728.7, 4.4033e-07
4730.7, 5.0285e-07
4732.7, 4.9673e-07
4734.7, 4.3517e-07
4736.7, 4.8111e-07
4738.7, 5.0849e-07
4740.7, 4.934e-07
4742.7, 3.8245e-07
4744.7, 4.1133e-07
4746.7, 4.2959e-07
4748.7, 4.7183e-07
4750.7, 4.5595e-07
4752.7, 4.6103e-07
4754.7, 4.3563e-07
4756.8, 4.6156e-07
4758.8, 4.0027e-07
4760.8, 4.4821e-07
4762.8, 4.9119e-07
4764.8, 4.5481e-07
4766.8, 4.8573e-07
4768.8, 4.7719e-07
4770.8, 4.7754e-07
4772.8, 4.35e-07
4774.8, 4.7976e-07
4776.8, 4.9179e-07
4778.8, 4.4204e-07
4780.8, 4.765e-07
4782.8, 4.5279e-07
4784.8, 4.6007e-07
4786.8, 4.3712e-07
4788.8, 4.5777e-07
4790.8, 4.5559e-07
4792.8, 4.9675e-07
4794.8, 4.449e-07
4796.8, 4.865e-07
4798.8, 4.7618e-07
4800.8, 4.683e-07
4802.8, 4.3864e-07
4804.8, 4.7409e-07
4806.8, 4.7662e-07
4808.8, 4.6276e-07
4810.8, 4.4003e-07
4812.8, 4.5988e-07
4814.8, 4.3013e-07
4816.8, 4.6159e-07
4818.8, 4.1581e-07
4820.8, 2.1627e-07
4822.8, -2.422e-08
4824.8, -2.492e-08
4826.8, -2.297e-08
4828.8, -2.077e-08
4830.8, -2.317e-08
4832.8, -2.221e-08
4834.8, -2.235e-08
4836.8, -2.202e-08
4838.8, -2.06e-08
4840.8, -2.065e-08
4842.8, -1.903e-08
4844.8, -2.006e-08
4846.8, -2.569e-08
4848.8, -2.233e-08
4850.8, -2.637e-08
4852.8, -2.556e-08
4854.8, -2.054e-08
4856.9, -2.385e-08
4858.9, -2.102e-08
4860.9, -2.509e-08
4862.9, -2.297e-08
4864.9, -2.632e-08
4866.9, -2.11e-08
4868.9, -2.79e-08
4870.9, -2.58e-08
4872.9, -2.4e-08
4874.9, -2.444e-08
4876.9, -2.534e-08
4878.9, -2.725e-08
4880.9, -3.061e-08
4882.9, -2.732e-08
4884.9, -2.48e-08
4886.9, -2.254e-08
4888.9, -2.06e-08
4890.9, -2.255e-08
4892.9, -2.205e-08
4894.9, -2.256e-08
4896.9, -2.213e-08
4898.9, -2.316e-08
4900.9, -2.584e-08
4902.9, -2.742e-08
4904.9, -2.26e-08
4906.9, -2.386e-08
4908.9, -2.661e-08
4910.9, -2.6e-08
4912.9, -2.505e-08
4914.9, -2.508e-08
4916.9, -2.65e-08
4918.9, -2.741e-08
4920.9, -2.583e-08
4922.9, -2.519e-08
4924.9, -2.435e-08
4926.9, -2.694e-08
4928.9, -2.617e-08
4930.9, -2.39e-08
4932.9, -2.954e-08
4934.9, -2.43e-08
4936.9, -2.813e-08
4938.9, -2.348e-08
4940.9, -2.526e-08
4942.9, -2.152e-08
4944.9, -2.567e-08
4946.9, -2.467e-08
4948.9, -2.591e-08
4950.9, -2.459e-08
4952.9, -2.611e-08
4954.9, -2.484e-08
4957.0, -2.635e-08
4959.0, -2.453e-08
4961.0, -2.628e-08
4963.0, -2.446e-08
4965.0, -2.653e-08
4967.0, -2.535e-08
4969.0, -2.463e-08
4971.0, -2.272e-08
4973.0, -2.287e-08
4975.0, -2.486e-08
4977.0, -1.955e-08
4979.0, -1.987e-08
4981.0, -2.374e-08
4983.0, -2.175e-08
4985.0, -2.405e-08
4987.0, -2.405e-08
4989.0, -1.896e-08
4991.0, -2.168e-08
4993.0, -2.162e-08
4995.0, -2.257e-08
4997.0, -2.049e-08
4999.0, -2.337e-08
5001.0, -2.316e-08
5003.0, -2.285e-08
5005.0, -2.385e-08
5007.0, -3.071e-08
5009.0, -2.774e-08
5011.0, -2.526e-08
5013.0, -3.219e-08
5015.0, -2.637e-08
5017.0, -2.254e-08
5019.0, -2.256e-08
5021.0, -2.61e-08
5023.0, -2.383e-08
5025.0, -2.555e-08
5027.0, -2.62e-08
5029.0, -2.695e-08
5031.0, -2.323e-08
5033.0, -2.306e-08
5035.0, -2.47e-08
5037.0, -2.171e-08
5039.0, -2.091e-08
5041.0, -2.334e-08
5043.0, -2.176e-08
5045.0, -2.177e-08
5047.0, -2.299e-08
5049.0, -2.504e-08
5051.0, -2.649e-08
5053.0, -2.475e-08
5055.0, -2.52e-08
5057.1, -2.372e-08
5059.1, -2.525e-08
5061.1, -2.066e-08
5063.1, -2.366e-08
5065.1, -1.912e-08
5067.1, -2.49e-08
5069.1, -2.145e-08
5071.1, -1.89e-08
5073.1, -2.392e-08
5075.1, -2.382e-08
5077.1, -2.33e-08
5079.1, -2.021e-08
5081.1, -2.474e-08
5083.1, -2.249e-08
5085.1, -2.704e-08
5087.1, -2.364e-08
5089.1, -2.215e-08
5091.1, -2.42e-08
5093.1, -2.598e-08
5095.1, -2.22e-08
5097.1, -2.148e-08
5099.1, -2.277e-08
5101.1, -2.606e-08
5103.1, -2.252e-08
5105.1, -2.363e-08
5107.1, -2.534e-08
5109.1, -2.385e-08
5111.1, -2.418e-08
5113.1, -2.407e-08
5115.1, -2.534e-08
5117.1, -2.304e-08
5119.1, -2.592e-08
5121.1, -2.95e-08
5123.1, -2.637e-08
5125.1, -2.684e-08
5127.1, -2.657e-08
5129.1, -2.784e-08
5131.1, -2.63e-08
5133.1, -2.872e-08
5135.1, -3.054e-08
5137.1, -2.751e-08
5139.1, -3.012e-08
5141.1, -2.942e-08
5143.1, -3.143e-08
5145.1, -2.639e-08
5147.1, -2.646e-08
5149.1, -2.496e-08
5151.1, -2.481e-08
5153.1, -2.612e-08
5155.1, -2.68e-08
5157.2, -2.641e-08
5159.2, -2.82e-08
5161.2, -2.582e-08
5163.2, -2.566e-08
5165.2, -2.424e-08
5167.2, -2.569e-08
5169.2, -2.503e-08
5171.2, -2.511e-08
5173.2, -2.552e-08
5175.2, -2.645e-08
5177.2, -2.68e-08
5179.2, -2.223e-08
5181.2, -2.455e-08
5183.2, -2.473e-08
5185.2, -2.483e-08
5187.2, -2.447e-08
5189.2, -2.457e-08
5191.2, -2.493e-08
5193.2, -2.359e-08
5195.2, -1.867e-08
5197.2, -2.349e-08
5199.2, -2.618e-08
5201.2, -2.683e-08
5203.2, -2.715e-08
5205.2, -3.045e-08
5207.2, -2.389e-08
5209.2, -2.72e-08
5211.2, -2.221e-08
5213.2, -2.975e-08
5215.2, -2.656e-08
5217.2, -2.461e-08
5219.2, -2.842e-08
5221.2, -2.73e-08
5223.2, -3.007e-08
5225.2, -2.897e-08
5227.2, -2.777e-08
5229.2, -2.62e-08
5231.2, -2.437e-08
5233.2, -2.341e-08
5235.2, -2.456e-08
5237.2, -2.766e-08
5239.2, -2.45e-08
5241.2, -2.737e-08
5243.2, -2.487e-08
5245.2, -2.363e-08
5247.2, -2.327e-08
5249.2, -1.893e-08
5251.2, -1.939e-08
5253.2, -2.375e-08
5255.2, -2.595e-08
5257.3, -2.651e-08
5259.3, -2.669e-08
5261.3, -3.211e-08
5263.3, -2.895e-08
5265.3, -2.603e-08
5267.3, -2.871e-08
5269.3, -2.619e-08
5271.3, -2.955e-08
5273.3, -2.7e-08
5275.3, -2.674e-08
5277.3, -2.657e-08
5279.3, -2.633e-08
5281.3, -2.407e-08
5283.3, -2.702e-08
5285.3, -2.428e-08
5287.3, -2.228e-08
5289.3, -2.365e-08
5291.3, -2.14e-08
5293.3, -2.706e-08
5295.3, -2.712e-08
5297.3, -2.364e-08
5299.3, -2.571e-08
5301.3, -2.405e-08
5303.3, -2.483e-08
5305.3, -2.805e-08
5307.3, -2.623e-08
5309.3, -2.708e-08
5311.3, -2.553e-08
5313.3, -2.631e-08
5315.3, -2.722e-08
5317.3, -2.437e-08
5319.3, -2.587e-08
5321.3, -2.675e-08
5323.3, -2.619e-08
5325.3, -2.804e-08
5327.3, -2.324e-08
5329.3, -2.837e-08
5331.3, -2.897e-08
5333.3, -2.658e-08
5335.3, -2.658e-08
5337.3, -2.664e-08
5339.3, -2.581e-08
5341.3, -2.644e-08
5343.3, -2.74e-08
5345.3, -2.746e-08
5347.3, -2.357e-08
5349.3, -2.437e-08
5351.3, -2.892e-08
5353.3, -2.525e-08
5355.3, -2.645e-08
5357.4, -2.56e-08
5359.4, -2.642e-08
5361.4, -2.758e-08
5363.4, -2.48e-08
5365.4, -2.612e-08
5367.4, -2.362e-08
5369.4, -2.469e-08
5371.4, -2.758e-08
5373.4, -2.708e-08
5375.4, -2.904e-08
5377.4, -2.054e-08
5379.4, -2.489e-08
5381.4, -2.485e-08
5383.4, -2.297e-08
5385.4, -2.503e-08
5387.4, -2.989e-08
5389.4, -2.69e-08
5391.4, -2.852e-08
5393.4, -2.622e-08
5395.4, -2.648e-08
5397.4, -2.749e-08
5399.4, -2.798e-08
5401.4, -2.692e-08
5403.4, -2.833e-08
5405.4, -2.338e-08
5407.4, -2.713e-08
5409.4, -2.826e-08
5411.4, -2.945e-08
5413.4, -3.134e-08
5415.4, -2.914e-08
5417.4, -2.495e-08
5419.4, -2.891e-08
5421.4, -2.553e-08
5423.4, -2.882e-08
5425.4, -2.585e-08
5427.4, -2.655e-08
5429.4, -2.637e-08
5431.4, -2.731e-08
5433.4, -2.667e-08
5435.4, -2.901e-08
5437.4, -2.709e-08
5439.4, -2.948e-08
5441.4, -3.099e-08
5443.4, -3.131e-08
5445.4, -3.091e-08
5447.4, -2.896e-08
5449.4, -2.708e-08
5451.4, -2.481e-08
5453.4, -2.892e-08
5455.4, -2.684e-08
5457.5, -2.577e-08
5459.5, -2.872e-08
5461.5, -2.475e-08
5463.5, -2.531e-08
5465.5, -2.589e-08
5467.5, -2.469e-08
5469.5, -2.732e-08
5471.5, -2.674e-08
5473.5, -2.655e-08
5475.5, -2.567e-08
5477.5, -2.662e-08
5479.5, -2.346e-08
5481.5, -2.614e-08
5483.5, -2.725e-08
5485.5, -2.75e-08
5487.5, -2.655e-08
5489.5, -2.388e-08
5491.5, -2.43e-08
5493.5, -2.618e-08
5495.5, -3.21e-08
5497.5, -2.557e-08
5499.5, -2.752e-08
5501.5, -2.721e-08
5503.5, -2.853e-08
5505.5, -2.484e-08
5507.5, -2.885e-08
5509.5, -2.927e-08
5511.5, -3.007e-08
5513.5, -2.665e-08
5515.5, -3.023e-08
5517.5, -3.256e-08
5519.5, -2.707e-08
5521.5, -3.011e-08
5523.5, -2.861e-08
5525.5, -2.512e-08
5527.5, -2.562e-08
5529.5, -2.508e-08
5531.5, -2.694e-08
5533.5, -2.758e-08
5535.5, -2.605e-08
5537.5, -2.739e-08
5539.5, -2.415e-08
5541.5, -2.074e-08
5543.5, -2.901e-08
5545.5, -2.263e-08
5547.5, -2.906e-08
5549.5, -2.807e-08
5551.5, -2.831e-08
5553.5, -2.839e-08
5555.5, -3.138e-08
5557.6, -3.044e-08
5559.6, -2.795e-08
5561.6, -2.964e-08
5563.6, -2.844e-08
5565.6, -2.733e-08
5567.6, -2.803e-08
5569.6, -2.7e-08
5571.6, -2.728e-08
5573.6, -2.615e-08
5575.6, -2.645e-08
5577.6, -2.491e-08
5579.6, -2.603e-08
5581.6, -2.477e-08
5583.6, -2.265e-08
5585.6, -2.353e-08
5587.6, -1.97e-08
5589.6, -2.473e-08
5591.6, -2.583e-08
5593.6, -2.68e-08
5595.6, -2.491e-08
5597.6, -2.148e-08
5599.6, -2.029e-08
5601.6, -2.106e-08
5603.6, -1.862e-08
5605.6, -2.178e-08
5607.6, -2.207e-08
5609.6, -2.256e-08
5611.6, -2.655e-08
5613.6, -2.057e-08
5615.6, -2.433e-08
5617.6, -2.192e-08
5619.6, -2.275e-08
5621.6, -2.091e-08
5623.6, -2.357e-08
5625.6, -2.664e-08
5627.6, -2.632e-08
5629.6, -2.503e-08
5631.6, -2.481e-08
5633.6, -2.605e-08
5635.6, -2.639e-08
5637.6, -2.59e-08
5639.6, -2.811e-08
5641.6, -2.557e-08
5643.6, -2.297e-08
5645.6, -2.599e-08
5647.6, -2.705e-08
5649.6, -2.565e-08
5651.6, -2.688e-08
5653.6, -2.561e-08
5655.6, -2.586e-08
5657.7, -2.322e-08
5659.7, -2.844e-08
5661.7, -2.685e-08
5663.7, -2.409e-08
5665.7, -2.602e-08
5667.7, -2.786e-08
5669.7, -2.955e-08
5671.7, -2.892e-08
5673.7, -2.982e-08
5675.7, -2.469e-08
5677.7, -2.386e-08
5679.7, -2.331e-08
5681.7, -2.723e-08
5683.7, -2.613e-08
5685.7, -2.553e-08
5687.7, -2.312e-08
5689.7, -2.566e-08
5691.7, -2.656e-08
5693.7, -2.53e-08
5695.7, -2.548e-08
5697.7, -2.511e-08
5699.7, -2.683e-08
5701.7, -2.542e-08
5703.7, -2.515e-08
5705.7, -2.299e-08
5707.7, -2.762e-08
5709.7, -2.559e-08
5711.7, -2.354e-08
5713.7, -2.741e-08
5715.7, -2.54e-08
5717.7, -2.687e-08
5719.7, -2.519e-08
5721.7, -2.776e-08
5723.7, -2.465e-08
5725.7, -2.824e-08
5727.7, -2.483e-08
5729.7, -2.546e-08
5731.7, -2.345e-08
5733.7, -2.349e-08
5735.7, -2.731e-08
5737.7, -2.529e-08
5739.7, -2.535e-08
5741.7, -2.827e-08
5743.7, -2.449e-08
5745.7, -2.375e-08
5747.7, -2.25e-08
5749.7, -2.718e-08
5751.7, -2.634e-08
5753.7, -2.564e-08
5755.7, -2.275e-08
5757.8, -2.425e-08
5759.8, -2.593e-08
5761.8, -2.515e-08
5763.8, -2.933e-08
5765.8, -2.567e-08
5767.8, -2.426e-08
5769.8, -2.455e-08
5771.8, -2.193e-08
5773.8, -2.572e-08
5775.8, -2.396e-08
5777.8, -2.061e-08
5779.8, -2.276e-08
5781.8, -2.149e-08
5783.8, -2.45e-08
5785.8, -2.081e-08
5787.8, -1.89e-08
5789.8, -1.829e-08
5791.8, -2.236e-08
5793.8, -2.5e-08
5795.8, -2.311e-08
5797.8, -2.286e-08
5799.8, -1.996e-08
5801.8, -2.4e-08
5803.8, -2.366e-08
5805.8, -1.822e-08
5807.8, -2.366e-08
5809.8, -2.363e-08
5811.8, -2.478e-08
5813.8, -2.382e-08
5815.8, -2.43e-08
5817.8, -2.49e-08
5819.8, -2.61e-08
5821.8, -2.582e-08
5823.8, -2.79e-08
5825.8, -2.385e-08
5827.8, -2.345e-08
5829.8, -2.255e-08
5831.8, -2.595e-08
5833.8, -1.947e-08
5835.8, -2.568e-08
5837.8, -2.558e-08
5839.8, -2.2e-08
5841.8, -2.014e-08
5843.8, -2.276e-08
5845.8, -2.354e-08
5847.8, -2.218e-08
5849.8, -2.515e-08
5851.8, -2.527e-08
5853.8, -2.308e-08
5855.8, -2.429e-08
5857.9, -2.272e-08
5859.9, -2.024e-08
5861.9, -2.186e-08
5863.9, -2.497e-08
5865.9, -1.906e-08
5867.9, -2.191e-08
5869.9, -2.522e-08
5871.9, -2.272e-08
5873.9, -2.092e-08
5875.9, -2.018e-08
5877.9, -1.931e-08
5879.9, -2.221e-08
5881.9, -2.145e-08
5883.9, -2.284e-08
5885.9, -2.068e-08
5887.9, 4.206e-07
5889.9, 3.9413e-07
5891.9, 3.4844e-07
5893.9, 4.2539e-07
5895.9, 4.0738e-07
5897.9, 4.0786e-07
5899.9, 3.7524e-07
5901.9, 4.101e-07
5903.9, 3.9184e-07
5905.9, 4.3494e-07
5907.9, 4.3357e-07
5909.9, 4.3787e-07
5911.9, 3.9138e-07
5913.9, 3.6869e-07
5915.9, 3.8197e-07
5917.9, 3.7332e-07
5919.9, 4.1371e-07
5921.9, 3.9359e-07
5923.9, 3.9381e-07
5925.9, 4.2043e-07
5927.9, 4.0764e-07
5929.9, 3.7835e-07
5931.9, 4.1942e-07
5933.9, 3.6467e-07
5935.9, 3.7914e-07
5937.9, 4.4738e-07
5939.9, 4.5771e-07
5941.9, 4.2867e-07
5943.9, 4.6093e-07
5945.9, 4.4197e-07
5947.9, 4.324e-07
5949.9, 4.2873e-07
5951.9, 4.0277e-07
5953.9, 3.6771e-07
5955.9, 3.8854e-07
5958.0, 3.9499e-07
5960.0, 4.125e-07
5962.0, 3.8181e-07
5964.0, 4.5726e-07
5966.0, 4.0373e-07
5968.0, 4.1845e-07
5970.0, 4.1028e-07
5972.0, 4.0855e-07
5974.0, 4.3187e-07
5976.0, 4.2424e-07
5978.0, 4.46e-07
5980.0, 4.3503e-07
5982.0, 4.1451e-07
5984.0, 4.5569e-07
5986.0, 4.1209e-07
5988.0, 4.2473e-07
5990.0, 4.3169e-07
5992.0, 4.3822e-07
5994.0, 4.2029e-07
5996.0, 4.0227e-07
5998.0, 4.6581e-07
6000.0, 4.5702e-07
6002.0, 4.3938e-07
6004.0, 4.0362e-07
6006.0, 4.5144e-07
6008.0, 4.6988e-07
6010.0, 4.5398e-07
6012.0, 4.5413e-07
6014.0, 3.9173e-07
6016.0, 4.1467e-07
6018.0, 4.4611e-07
6020.0, 4.2683e-07
6022.0, 4.3521e-07
6024.0, 4.2615e-07
6026.0, 4.031e-07
6028.0, 4.2611e-07
6030.0, 4.2183e-07
6032.0, 3.6386e-07
6034.0, 3.9195e-07
6036.0, 4.1681e-07
6038.0, 4.2343e-07
6040.0, 4.1152e-07
6042.0, 4.7702e-07
6044.0, 4.1965e-07
6046.0, 4.1034e-07
6048.0, 3.9484e-07
6050.0, 4.5164e-07
6052.0, 4.2418e-07
6054.0, 4.5255e-07
6056.0, 4.06e-07
6058.1, 4.4898e-07
6060.1, 4.3144e-07
6062.1, 4.6167e-07
6064.1, 4.044e-07
6066.1, 4.3386e-07
6068.1, 4.6865e-07
6070.1, 3.9492e-07
6072.1, 4.0276e-07
6074.1, 3.987e-07
6076.1, 4.3996e-07
6078.1, 4.5264e-07
6080.1, 4.5438e-07
6082.1, 4.311e-07
6084.1, 4.1846e-07
6086.1, 4.9156e-07
6088.1, 4.3896e-07
6090.1, 3.886e-07
6092.1, 4.4529e-07
6094.1, 4.0156e-07
6096.1, 4.9603e-07
6098.1, 4.7545e-07
6100.1, 3.9242e-07
6102.1, 4.2111e-07
6104.1, 4.3188e-07
6106.1, 4.2678e-07
6108.1, 3.937e-07
6110.1, 3.8654e-07
6112.1, 4.5285e-07
6114.1, 4.655e-07
6116.1, 4.4266e-07
6118.1, 4.5879e-07
6120.1, 4.4385e-07
6122.1, 4.1162e-07
6124.1, 4.5947e-07
6126.1, 4.426e-07
6128.1, 4.4491e-07
6130.1, 4.1395e-07
6132.1, 4.3086e-07
6134.1, 4.8396e-07
6136.1, 4.1912e-07
6138.1, 4.2579e-07
6140.1, 4.1059e-07
6142.1, 4.8014e-07
6144.1, 4.1011e-07
6146.1, 4.7349e-07
6148.1, 4.4967e-07
6150.1, 4.623e-07
6152.1, 4.4429e-07
6154.1, 4.1996e-07
6156.1, 4.8487e-07
6158.2, 4.4596e-07
6160.2, 4.4069e-07
6162.2, 4.4833e-07
6164.2, 4.3733e-07
6166.2, 4.5306e-07
6168.2, 4.0828e-07
6170.2, 4.0356e-07
6172.2, 4.563e-07
6174.2, 4.4714e-07
6176.2, 4.6675e-07
6178.2, 4.4465e-07
6180.2, 4.0164e-07
6182.2, 4.2654e-07
6184.2, 4.0835e-07
6186.2, 4.483e-07
6188.2, 4.2509e-07
6190.2, 4.5064e-07
6192.2, 4.2726e-07
6194.2, 4.0193e-07
6196.2, 4.3997e-07
6198.2, 4.658e-07
6200.2, 4.0404e-07
6202.2, 4.2156e-07
6204.2, 4.391e-07
6206.2, 4.977e-07
6208.2, 4.5295e-07
6210.2, 4.2883e-07
6212.2, 4.4184e-07
6214.2, 4.6688e-07
6216.2, 4.8095e-07
6218.2, 4.6427e-07
6220.2, 4.4949e-07
6222.2, 4.3315e-07
6224.2, 4.5559e-07
6226.2, 4.5815e-07
6228.2, 4.9321e-07
6230.2, 4.3164e-07
6232.2, 4.7287e-07
6234.2, 4.4599e-07
6236.2, 4.6535e-07
6238.2, 4.285e-07
6240.2, 4.4392e-07
6242.2, 4.8871e-07
6244.2, 4.4965e-07
6246.2, 3.9988e-07
6248.2, 4.6147e-07
6250.2, 4.3869e-07
6252.2, 4.605e-07
6254.2, 4.7729e-07
6256.2, 4.4426e-07
6258.3, 4.7145e-07
6260.3, 4.6721e-07
6262.3, 4.0434e-07
6264.3, 4.6128e-07
6266.3, 4.1007e-07
6268.3, 4.5119e-07
6270.3, 4.47e-07
6272.3, 4.2851e-07
6274.3, 3.8398e-07
6276.3, 4.87e-07
6278.3, 4.5462e-07
6280.3, 4.5062e-07
6282.3, 4.5352e-07
6284.3, 4.6889e-07
6286.3, 4.7651e-07
6288.3, 4.4092e-07
6290.3, 4.648e-07
6292.3, 4.852e-07
6294.3, 4.5372e-07
6296.3, 4.6944e-07
6298.3, 4.0656e-07
6300.3, 4.6596e-07
6302.3, 4.7103e-07
6304.3, 4.1505e-07
6306.3, 3.9833e-07
6308.3, 4.4628e-07
6310.3, 4.4508e-07
6312.3, 4.3674e-07
6314.3, 4.3884e-07
6316.3, 4.2556e-07
6318.3, 4.611e-07
6320.3, 4.5008e-07
6322.3, 4.3222e-07
6324.3, 4.7824e-07
6326.3, 4.3635e-07
6328.3, 5.1161e-07
6330.3, 4.7263e-07
6332.3, 4.452e-07
6334.3, 4.4245e-07
6336.3, 4.462e-07
6338.3, 4.5567e-07
6340.3, 4.0444e-07
6342.3, 4.3851e-07
6344.3, 4.3857e-07
6346.3, 4.6354e-07
6348.3, 4.6347e-07
6350.3, 4.6819e-07
6352.3, 5.0094e-07
6354.3, 4.7076e-07
6356.3, 4.1921e-07
6358.4, 4.3381e-07
6360.4, 4.648e-07
6362.4, 4.0995e-07
6364.4, 4.5454e-07
6366.4, 4.5242e-07
6368.4, 4.3599e-07
6370.4, 4.4712e-07
6372.4, 4.4853e-07
6374.4, 4.5954e-07
6376.4, 4.7161e-07
6378.4, 5.0925e-07
6380.4, 4.6384e-07
6382.4, 4.8775e-07
6384.4, 4.8874e-07
6386.4, 4.5755e-07
6388.4, 4.0939e-07
6390.4, 4.8647e-07
6392.4, 4.4224e-07
6394.4, 4.5156e-07
6396.4, 4.4976e-07
6398.4, 4.4064e-07
6400.4, 4.2835e-07
6402.4, 4.3058e-07
6404.4, 4.7383e-07
6406.4, 3.8395e-07
6408.4, 4.188e-07
6410.4, 4.2782e-07
6412.4, 4.5672e-07
6414.4, 4.4166e-07
6416.4, 4.6438e-07
6418.4, 4.3662e-07
6420.4, 4.6765e-07
6422.4, 4.6896e-07
6424.4, 4.256e-07
6426.4, 4.6589e-07
6428.4, 4.2761e-07
6430.4, 4.5902e-07
6432.4, 4.1503e-07
6434.4, 4.5499e-07
6436.4, 5.1776e-07
6438.4, 4.8426e-07
6440.4, 4.3709e-07
6442.4, 5.0008e-07
6444.4, 4.937e-07
6446.4, 4.4287e-07
6448.4, 4.7064e-07
6450.4, 4.3591e-07
6452.4, 4.4856e-07
6454.4, 4.3299e-07
6456.4, 4.9357e-07
6458.5, 4.5794e-07
6460.5, 4.7833e-07
6462.5, 4.4495e-07
6464.5, 4.6926e-07
6466.5, 4.4162e-07
6468.5, 4.5635e-07
6470.5, 4.7588e-07
6472.5, 4.5348e-07
6474.5, 4.7144e-07
6476.5, 4.8208e-07
6478.5, 4.1679e-07
6480.5, 4.4675e-07
6482.5, 4.782e-07
6484.5, 4.3784e-07
6486.5, 4.625e-07
6488.5, 4.7142e-07
6490.5, 4.0903e-07
6492.5, 5.0591e-07
6494.5, 4.8772e-07
6496.5, 4.4056e-07
6498.5, 4.698e-07
6500.5, 4.3208e-07
6502.5, 4.6763e-07
6504.5, 4.4855e-07
6506.5, 4.8596e-07
6508.5, 4.4353e-07
6510.5, 4.9944e-07
6512.5, 3.932e-07
6514.5, 4.5736e-07
6516.5, 4.7389e-07
6518.5, 4.8745e-07
6520.5, 4.5176e-07
6522.5, 4.3019e-07
6524.5, 4.5734e-07
6526.5, 4.3857e-07
6528.5, 4.4731e-07
6530.5, 4.3149e-07
6532.5, 4.9659e-07
6534.5, 4.205e-07
6536.5, 4.6053e-07
6538.5, 4.224e-07
6540.5, 4.7017e-07
6542.5, 4.4637e-07
6544.5, 4.4315e-07
6546.5, 4.633e-07
6548.5, 4.5927e-07
6550.5, 4.429e-07
6552.5, 4.5464e-07
6554.5, 4.6715e-07
6556.5, 4.8405e-07
6558.6, 4.3854e-07
6560.6, 4.5516e-07
6562.6, 4.6434e-07
6564.6, 4.7181e-07
6566.6, 4.1971e-07
6568.6, 4.8116e-07
6570.6, 4.8354e-07
6572.6, 4.7009e-07
6574.6, 4.4428e-07
6576.6, 4.8669e-07
6578.6, 4.4319e-07
6580.6, 4.2617e-07
6582.6, 4.7053e-07
6584.6, 4.6449e-07
6586.6, 4.4873e-07
6588.6, 4.4249e-07
6590.6, 4.3699e-07
6592.6, 4.5395e-07
6594.6, 4.4726e-07
6596.6, 4.8123e-07
6598.6, 4.5753e-07
6600.6, 4.5685e-07
6602.6, 4.4863e-07
6604.6, 4.4212e-07
6606.6, 4.7978e-07
6608.6, 4.165e-07
6610.6, 4.3196e-07
6612.6, 4.6748e-07
6614.6, 4.9999e-07
6616.6, 4.4958e-07
6618.6, 4.332e-07
6620.6, 4.8326e-07
6622.6, 4.9824e-07
6624.6, 4.7736e-07
6626.6, 4.096e-07
6628.6, 4.528e-07
6630.6, 4.7168e-07
6632.6, 4.8681e-07
6634.6, 4.681e-07
6636.6, 4.4623e-07
6638.6, 4.8159e-07
6640.6, 4.4477e-07
6642.6, 4.8358e-07
6644.6, 4.9576e-07
6646.6, 4.8921e-07
6648.6, 4.4637e-07
6650.6, 4.4964e-07
6652.6, 4.7669e-07
6654.6, 4.3149e-07
6656.6, 4.7001e-07
6658.7, 4.6683e-07
6660.7, 4.7264e-07
6662.7, 4.5704e-07
6664.7, 4.9575e-07
6666.7, 4.3524e-07
6668.7, 4.7745e-07
6670.7, 4.697e-07
6672.7, 4.6868e-07
6674.7, 4.2289e-07
6676.7, 4.6489e-07
6678.7, 4.2894e-07
6680.7, 4.7501e-07
6682.7, 4.8447e-07
6684.7, 4.5072e-07
6686.7, 4.5847e-07
6688.7, 4.5969e-07
6690.7, 4.7916e-07
6692.7, 4.6497e-07
6694.7, 4.3465e-07
6696.7, 4.5852e-07
6698.7, 4.6709e-07
6700.7, 4.7091e-07
6702.7, 4.9386e-07
6704.7, 4.4552e-07
6706.7, 4.5136e-07
6708.7, 5.1933e-07
6710.7, 4.5587e-07
6712.7, 4.505e-07
6714.7, 4.3377e-07
6716.7, 4.4496e-07
6718.7, 4.8885e-07
6720.7, 5.0171e-07
6722.7, 4.8379e-07
6724.7, 4.6398e-07
6726.7, 4.9013e-07
6728.7, 4.1205e-07
6730.7, 4.5314e-07
6732.7, 4.336e-07
6734.7, 4.7407e-07
6736.7, 4.3836e-07
6738.7, 4.7057e-07
6740.7, 4.8991e-07
6742.7, 4.1365e-07
6744.7, 4.5104e-07
6746.7, 5.0015e-07
6748.7, 4.9231e-07
6750.7, 4.3451e-07
6752.7, 4.61e-07
6754.7, 4.3341e-07
6756.7, 4.7012e-07
6758.8, 4.2004e-07
6760.8, 5.0332e-07
6762.8, 4.8465e-07
6764.8, 4.8218e-07
6766.8, 4.7386e-07
6768.8, 4.7296e-07
6770.8, 4.2563e-07
6772.8, 4.8868e-07
6774.8, 4.8996e-07
6776.8, 4.7743e-07
6778.8, 5.1007e-07
6780.8, 5.0561e-07
6782.8, 4.3834e-07
6784.8, 4.5569e-07
6786.8, 5.2281e-07
6788.8, 4.7552e-07
6790.8, 4.6884e-07
6792.8, 4.4779e-07
6794.8, 4.4811e-07
6796.8, 4.3456e-07
6798.8, 4.524e-07
6800.8, 4.2474e-07
6802.8, 4.5941e-07
6804.8, 4.6438e-07
6806.8, 4.6778e-07
6808.8, 5.0201e-07
6810.8, 5.1843e-07
6812.8, 4.5309e-07
6814.8, 4.5425e-07
6816.8, 4.3212e-07
6818.8, 4.7241e-07
6820.8, 4.6804e-07
6822.8, 4.6755e-07
6824.8, 4.5533e-07
6826.8, 4.5872e-07
6828.8, 4.3608e-07
6830.8, 4.2429e-07
6832.8, 4.8915e-07
6834.8, 4.9428e-07
6836.8, 4.6716e-07
6838.8, 4.7547e-07
6840.8, 4.7379e-07
6842.8, 4.9889e-07
6844.8, 4.4454e-07
6846.8, 4.9078e-07
6848.8, 4.6131e-07
6850.8, 4.4157e-07
6852.8, 4.3063e-07
6854.8, 4.628e-07
6856.8, 4.6356e-07
6858.9, 4.3884e-07
6860.9, 5.1007e-07
6862.9, 5.0278e-07
6864.9, 4.5782e-07
6866.9, 5.2498e-07
6868.9, 4.3501e-07
6870.9, 5.1382e-07
6872.9, 4.5983e-07
6874.9, 4.6385e-07
6876.9, 4.64e-07
6878.9, 4.7517e-07
6880.9, 4.5621e-07
6882.9, 4.3762e-07
6884.9, 4.753e-07
6886.9, 5.0579e-07
6888.9, -2.206e-08
6890.9, -2.429e-08
6892.9, -2.293e-08
6894.9, -2.836e-08
6896.9, -2.476e-08
6898.9, -2.009e-08
6900.9, -1.73e-08
6902.9, -2.181e-08
6904.9, -2.239e-08
6906.9, -1.883e-08
6908.9, -2.104e-08
6910.9, -2.091e-08
6912.9, -2.02e-08
6914.9, -2.447e-08
6916.9, -2.142e-08
6918.9, -1.864e-08
6920.9, -2.14e-08
6922.9, -2.066e-08
6924.9, -1.669e-08
6926.9, -1.732e-08
6928.9, -1.847e-08
6930.9, -2.003e-08
6932.9, -1.969e-08
6934.9, -1.922e-08
6936.9, -1.805e-08
6938.9, -1.987e-08
6940.9, -2.292e-08
6942.9, -2.055e-08
6944.9, -2.483e-08
6946.9, -2.37e-08
6948.9, -2.266e-08
6950.9, -2.393e-08
6952.9, -2.04e-08
6954.9, -2.584e-08
6956.9, -2.475e-08
6959.0, -2.325e-08
6961.0, -2.432e-08
6963.0, -2.233e-08
6965.0, -2.421e-08
6967.0, -2.359e-08
6969.0, -2.245e-08
6971.0, -2.255e-08
6973.0, -2.033e-08
6975.0, -2.388e-08
6977.0, -2.604e-08
6979.0, -2.322e-08
6981.0, -2.359e-08
6983.0, -2.267e-08
6985.0, -2.235e-08
6987.0, -2.563e-08
6989.0, -2.467e-08
6991.0, -2.299e-08
6993.0, -2.593e-08
6995.0, -2.444e-08
6997.0, -2.216e-08
6999.0, -2.095e-08
7001.0, -2.371e-08
7003.0, -2.623e-08
7005.0, -1.993e-08
7007.0, -1.941e-08
7009.0, -2.047e-08
7011.0, -2.009e-08
7013.0, -2.313e-08
7015.0, -2.17e-08
7017.0, -1.991e-08
7019.0, -2.146e-08
7021.0, -2.26e-08
7023.0, -1.766e-08
7025.0, -2.001e-08
7027.0, -2.02e-08
7029.0, -2.169e-08
7031.0, -1.869e-08
7033.0, -1.722e-08
7035.0, -2.098e-08
7037.0, -1.985e-08
7039.0, -1.91e-08
7041.0, -1.951e-08
7043.0, -1.831e-08
7045.0, -2.06e-08
7047.0, -1.929e-08
7049.0, -1.613e-08
7051.0, -2.304e-08
7053.0, -2.09e-08
7055.0, -1.75e-08
7057.0, -1.611e-08
7059.1, -1.45e-08
7061.1, -1.625e-08
7063.1, -1.931e-08
7065.1, -1.811e-08
7067.1, -2.202e-08
7069.1, -2.409e-08
7071.1, -2.019e-08
7073.1, -2.261e-08
7075.1, -2.016e-08
7077.1, -1.875e-08
7079.1, -1.746e-08
7081.1, -1.767e-08
7083.1, -1.597e-08
7085.1, -1.751e-08
7087.1, -2.246e-08
7089.1, -1.864e-08
7091.1, -1.635e-08
7093.1, -2.136e-08
7095.1, -1.763e-08
7097.1, -1.483e-08
7099.1, -1.732e-08
7101.1, -1.52e-08
7103.1, -1.876e-08
7105.1, -1.903e-08
7107.1, -1.56e-08
7109.1, -1.761e-08
7111.1, -1.853e-08
7113.1, -1.71e-08
7115.1, -2.044e-08
7117.1, -2.235e-08
7119.1, -2.042e-08
7121.1, -2.196e-08
7123.1, -1.76e-08
7125.1, -2.031e-08
7127.1, -1.726e-08
7129.1, -1.71e-08
7131.1, -1.586e-08
7133.1, -1.737e-08
7135.1, -2.086e-08
7137.1, -2.248e-08
7139.1, -1.929e-08
7141.1, -1.689e-08
7143.1, -2.025e-08
7145.1, -1.376e-08
7147.1, -1.646e-08
7149.1, -1.434e-08
7151.1, -1.944e-08
7153.1, -2.063e-08
7155.1, -2.26e-08
7157.1, -2.342e-08
7159.2, -1.731e-08
7161.2, -2.118e-08
7163.2, -2.275e-08
7165.2, -2.442e-08
7167.2, -2.513e-08
7169.2, -2.082e-08
7171.2, -1.993e-08
7173.2, -2.35e-08
7175.2, -2.363e-08
7177.2, -1.638e-08
7179.2, -1.726e-08
7181.2, -2.008e-08
7183.2, -2.293e-08
7185.2, -1.899e-08
7187.2, -2.427e-08
7189.2, -1.264e-08
7191.2, -1.685e-08
7193.2, -2.006e-08
7195.2, -2.002e-08
7197.2, -2.162e-08
7199.2, -1.915e-08
7201.2, -1.988e-08
7203.2, -1.743e-08
7205.2, -1.88e-08
7207.2, -1.746e-08
7209.2, -1.777e-08
7211.2, -1.46e-08
7213.2, -1.726e-08
7215.2, -1.92e-08
7217.2, -2.086e-08
7219.2, -2.1e-08
7221.2, -2.079e-08
7223.2, -2.076e-08
7225.2, -2.148e-08
7227.2, -1.506e-08
7229.2, -1.824e-08
7231.2, -1.619e-08
7233.2, -2.015e-08
7235.2, -1.578e-08
7237.2, -1.986e-08
7239.2, -2.081e-08
7241.2, -1.808e-08
7243.2, -1.972e-08
7245.2, -1.82e-08
7247.2, -1.642e-08
7249.2, -1.926e-08
7251.2, -1.958e-08
7253.2, -2.01e-08
7255.2, -1.963e-08
7257.2, -2.212e-08
7259.3, -1.616e-08
7261.3, -2.149e-08
7263.3, -2.008e-08
7265.3, -2.178e-08
7267.3, -2.207e-08
7269.3, -1.989e-08
7271.3, -2.071e-08
7273.3, -2.227e-08
7275.3, -1.946e-08
7277.3, -2.037e-08
7279.3, -2.081e-08
7281.3, -2.247e-08
7283.3, -2.476e-08
7285.3, -2.283e-08
7287.3, -2.027e-08
7289.3, -1.863e-08
7291.3, -1.971e-08
7293.3, -1.922e-08
7295.3, -2.149e-08
7297.3, -1.9e-08
7299.3, -2.108e-08
7301.3, -1.917e-08
7303.3, -2.209e-08
7305.3, -2.035e-08
7307.3, -2.527e-08
7309.3, -2.229e-08
7311.3, -2.154e-08
7313.3, -1.986e-08
7315.3, -1.829e-08
7317.3, -1.696e-08
7319.3, -1.7e-08
7321.3, -2.317e-08
7323.3, -2.209e-08
7325.3, -2.126e-08
7327.3, -2.031e-08
7329.3, -2.189e-08
7331.3, -2.298e-08
7333.3, -2.126e-08
7335.3, -1.705e-08
7337.3, -1.991e-08
7339.3, -1.973e-08
7341.3, -1.733e-08
7343.3, -2.185e-08
7345.3, -2.031e-08
7347.3, -1.853e-08
7349.3, -1.803e-08
7351.3, -2.05e-08
7353.3, -1.75e-08
7355.3, -2.381e-08
7357.3, -2.422e-08
7359.4, -1.879e-08
7361.4, -2.171e-08
7363.4, -2.006e-08
7365.4, -2.343e-08
7367.4, -1.783e-08
7369.4, -1.774e-08
7371.4, -2.206e-08
7373.4, -2.132e-08
7375.4, -2.255e-08
7377.4, -2.04e-08
7379.4, -1.714e-08
7381.4, -1.856e-08
7383.4, -1.939e-08
7385.4, -1.814e-08
7387.4, -1.827e-08
7389.4, -1.835e-08
7391.4, -2.145e-08
7393.4, -1.886e-08
7395.4, -1.897e-08
7397.4, -2.164e-08
7399.4, -1.892e-08
7401.4, -2.091e-08
7403.4, -1.959e-08
7405.4, -1.641e-08
7407.4, -1.669e-08
7409.4, -1.824e-08
7411.4, -1.42e-08
7413.4, -1.731e-08
7415.4, -2.021e-08
7417.4, -1.542e-08
7419.4, -1.499e-08
7421.4, -1.54e-08
7423.4, -1.623e-08
7425.4, -1.574e-08
7427.4, -1.704e-08
7429.4, -1.782e-08
7431.4, -1.754e-08
7433.4, -1.603e-08
7435.4, -2.086e-08
7437.4, -1.879e-08
7439.4, -1.865e-08
7441.4, -1.886e-08
7443.4, -2.077e-08
7445.4, -2.101e-08
7447.4, -2.057e-08
7449.4, -2.154e-08
7451.4, -1.98e-08
7453.4, -1.868e-08
7455.4, -2.051e-08
7457.4, -1.836e-08
7459.5, -1.574e-08
7461.5, -1.754e-08
7463.5, -1.851e-08
7465.5, -1.781e-08
7467.5, -1.957e-08
7469.5, -1.886e-08
7471.5, -2.087e-08
7473.5, -1.991e-08
7475.5, -1.756e-08
7477.5, -1.964e-08
7479.5, -1.871e-08
7481.5, -1.413e-08
7483.5, -1.686e-08
7485.5, -1.541e-08
7487.5, -2.006e-08
7489.5, -1.976e-08
7491.5, -2.018e-08
7493.5, -1.921e-08
7495.5, -2.053e-08
7497.5, -1.711e-08
7499.5, -1.93e-08
7501.5, -2.151e-08
7503.5, -2.219e-08
7505.5, -1.7e-08
7507.5, -2.546e-08
7509.5, -2.298e-08
7511.5, -2.406e-08
7513.5, -2.36e-08
7515.5, -2.073e-08
7517.5, -2.117e-08
7519.5, -1.97e-08
7521.5, -2.1e-08
7523.5, -1.802e-08
7525.5, -1.797e-08
7527.5, -1.43e-08
7529.5, -2.035e-08
7531.5, -2.287e-08
7533.5, -2.335e-08
7535.5, -2.493e-08
7537.5, -2.297e-08
7539.5, -2.033e-08
7541.5, -2.235e-08
7543.5, -2.344e-08
7545.5, -2.485e-08
7547.5, -2.388e-08
7549.5, -2.211e-08
7551.5, -2.363e-08
7553.5, -2.149e-08
7555.5, -2.373e-08
7557.5, -2.294e-08
7559.6, -2.002e-08
7561.6, -2.003e-08
7563.6, -2.242e-08
7565.6, -2.084e-08
7567.6, -2.506e-08
7569.6, -2.039e-08
7571.6, -2.307e-08
7573.6, -2.261e-08
7575.6, -2.447e-08
7577.6, -2.36e-08
7579.6, -2.443e-08
7581.6, -1.853e-08
7583.6, -2.23e-08
7585.6, -2.055e-08
7587.6, -2.151e-08
7589.6, -2.101e-08
7591.6, -2.005e-08
7593.6, -1.896e-08
7595.6, -2.137e-08
7597.6, -2.101e-08
7599.6, -2.557e-08
7601.6, -2.276e-08
7603.6, -2.13e-08
7605.6, -2.178e-08
7607.6, -1.955e-08
7609.6, -2.3e-08
7611.6, -2.339e-08
7613.6, -2.491e-08
7615.6, -2.309e-08
7617.6, -2.363e-08
7619.6, -2.067e-08
7621.6, -1.985e-08
7623.6, -2.611e-08
7625.6, -2.42e-08
7627.6, -2.265e-08
7629.6, -2.173e-08
7631.6, -2.17e-08
7633.6, -2.311e-08
7635.6, -2.568e-08
7637.6, -2.424e-08
7639.6, -2.916e-08
7641.6, -2.485e-08
7643.6, -2.626e-08
7645.6, -2.105e-08
7647.6, -2.457e-08
7649.6, -2.211e-08
7651.6, -2.217e-08
7653.6, -2.359e-08
7655.6, -2.451e-08
7657.6, -2.194e-08
7659.7, -2.092e-08
7661.7, -2.081e-08
7663.7, -2.018e-08
7665.7, -2.128e-08
7667.7, -2.343e-08
7669.7, -2.31e-08
7671.7, -2.307e-08
7673.7, -2.533e-08
7675.7, -2.349e-08
7677.7, -2.125e-08
7679.7, -2.082e-08
7681.7, -1.888e-08
7683.7, -2.158e-08
7685.7, -1.76e-08
7687.7, -2.144e-08
7689.7, -1.955e-08
7691.7, -2.142e-08
7693.7, -1.978e-08
7695.7, -2.201e-08
7697.7, -1.854e-08
7699.7, -1.934e-08
7701.7, -1.891e-08
7703.7, -1.821e-08
7705.7, -2.191e-08
7707.7, -2.125e-08
7709.7, -2.378e-08
7711.7, -1.921e-08
7713.7, -2.387e-08
7715.7, -2.571e-08
7717.7, -2.56e-08
7719.7, -2.158e-08
7721.7, -2.044e-08
7723.7, -2.028e-08
7725.7, -2.387e-08
7727.7, -2.507e-08
7729.7, -2.051e-08
7731.7, -2.236e-08
7733.7, -2.033e-08
7735.7, -1.893e-08
7737.7, -1.84e-08
7739.7, -2.226e-08
7741.7, -1.915e-08
7743.7, -1.869e-08
7745.7, -2.247e-08
7747.7, -2.16e-08
7749.7, -2.335e-08
7751.7, -2.337e-08
7753.7, -2.568e-08
7755.7, -2.208e-08
7757.7, -2.263e-08
7759.8, -2.176e-08
7761.8, -2.25e-08
7763.8, -2.375e-08
7765.8, -2.415e-08
7767.8, -2.337e-08
7769.8, -2.482e-08
7771.8, -2.455e-08
7773.8, -2.012e-08
7775.8, -1.982e-08
7777.8, -1.793e-08
7779.8, -1.743e-08
7781.8, -2.165e-08
7783.8, -2.256e-08
7785.8, -1.889e-08
7787.8, -2.002e-08
7789.8, -1.917e-08
7791.8, -2.002e-08
7793.8, -2.156e-08
7795.8, -2.126e-08
7797.8, -2.092e-08
7799.8, -1.977e-08
7801.8, -1.95e-08
7803.8, -2.266e-08
7805.8, -2.342e-08
7807.8, -2.586e-08
7809.8, -2.521e-08
7811.8, -2.259e-08
7813.8, -2.071e-08
7815.8, -2.135e-08
7817.8, -1.942e-08
7819.8, -2.21e-08
7821.8, -1.706e-08
7823.8, -2.214e-08
7825.8, -2.065e-08
7827.8, -1.965e-08
7829.8, -2.246e-08
7831.8, -2.024e-08
7833.8, -1.945e-08
7835.8, -1.592e-08
7837.8, -1.936e-08
7839.8, -1.922e-08
7841.8, -1.764e-08
7843.8, -2.074e-08
7845.8, -2.108e-08
7847.8, -2.089e-08
7849.8, -2.32e-08
7851.8, -2.25e-08
7853.8, -2.295e-08
7855.8, -2.527e-08
7857.8, -2.121e-08
7859.9, -2.324e-08
7861.9, -2.324e-08
7863.9, -2.626e-08
7865.9, -2.838e-08
7867.9, -2.568e-08
7869.9, -2.348e-08
7871.9, -2.208e-08
7873.9, -2.4e-08
7875.9, -2.067e-08
7877.9, -2.157e-08
7879.9, -1.922e-08
7881.9, -1.905e-08
7883.9, -2.528e-08
7885.9, -2.677e-08
7887.9, -1.949e-08
7889.9, -1.938e-08
7891.9, -2.204e-08
7893.9, -2.305e-08
7895.9, -2.352e-08
7897.9, -2.425e-08
7899.9, -2.524e-08
7901.9, -2.178e-08
7903.9, -2.027e-08
7905.9, -2.153e-08
7907.9, -2.409e-08
7909.9, -2.47e-08
7911.9, -2.001e-08
7913.9, -2.191e-08
7915.9, -2.257e-08
7917.9, -2.051e-08
7919.9, -2.142e-08
7921.9, 2.5571e-07
7923.9, 3.7189e-07
7925.9, 3.7472e-07
7927.9, 4.0458e-07
7929.9, 4.2904e-07
7931.9, 3.8443e-07
7933.9, 3.7891e-07
7935.9, 3.8539e-07
7937.9, 3.8221e-07
7939.9, 3.8259e-07
7941.9, 3.8231e-07
7943.9, 3.863e-07
7945.9, 3.7123e-07
7947.9, 3.8461e-07
7949.9, 3.7627e-07
7951.9, 3.878e-07
7953.9, 3.7525e-07
7955.9, 3.8714e-07
7957.9, 3.8848e-07
7960.0, 4.2355e-07
7962.0, 4.281e-07
7964.0, 3.5278e-07
7966.0, 4.1855e-07
7968.0, 4.1671e-07
7970.0, 3.9142e-07
7972.0, 3.9832e-07
7974.0, 4.0516e-07
7976.0, 4.1958e-07
7978.0, 4.283e-07
7980.0, 4.0503e-07
7982.0, 4.4871e-07
7984.0, 4.2736e-07
7986.0, 4.3564e-07
7988.0, 3.8442e-07
7990.0, 4.3959e-07
7992.0, 4.4158e-07
7994.0, 4.0442e-07
7996.0, 4.2468e-07
7998.0, 4.303e-07
8000.0, 4.4935e-07
8002.0, 4.526e-07
8004.0, 4.3885e-07
8006.0, 4.1825e-07
8008.0, 4.2062e-07
8010.0, 3.9214e-07
8012.0, 4.0708e-07
8014.0, 4.1461e-07
8016.0, 4.566e-07
8018.0, 4.4681e-07
8020.0, 4.1299e-07
8022.0, 3.9313e-07
8024.0, 4.5238e-07
8026.0, 4.2483e-07
8028.0, 4.0737e-07
8030.0, 4.0906e-07
8032.0, 4.1169e-07
8034.0, 3.7819e-07
8036.0, 4.0912e-07
8038.0, 3.8139e-07
8040.0, 4.1326e-07
8042.0, 3.7951e-07
8044.0, 3.9023e-07
8046.0, 4.0552e-07
8048.0, 4.1242e-07
8050.0, 4.4486e-07
8052.0, 3.8451e-07
8054.0, 4.1269e-07
8056.0, 4.4892e-07
8058.0, 4.3808e-07
8060.1, 3.9539e-07
8062.1, 4.0018e-07
8064.1, 4.0705e-07
8066.1, 4.0182e-07
8068.1, 4.1722e-07
8070.1, 3.9195e-07
8072.1, 3.9227e-07
8074.1, 4.2356e-07
8076.1, 4.2946e-07
8078.1, 4.8559e-07
8080.1, 4.3596e-07
8082.1, 4.6243e-07
8084.1, 4.2243e-07
8086.1, 4.2291e-07
8088.1, 4.0788e-07
8090.1, 4.3925e-07
8092.1, 4.3413e-07
8094.1, 4.5645e-07
8096.1, 4.282e-07
8098.1, 4.5136e-07
8100.1, 4.3241e-07
8102.1, 4.2748e-07
8104.1, 4.1545e-07
8106.1, 4.2626e-07
8108.1, 3.6671e-07
8110.1, 3.9215e-07
8112.1, 3.9335e-07
8114.1, 4.2443e-07
8116.1, 4.4787e-07
8118.1, 4.0912e-07
8120.1, 3.7787e-07
8122.1, 4.4367e-07
8124.1, 4.5069e-07
8126.1, 4.0016e-07
8128.1, 4.2026e-07
8130.1, 3.9983e-07
8132.1, 4.0632e-07
8134.1, 4.137e-07
8136.1, 4.1879e-07
8138.1, 4.0424e-07
8140.1, 3.9699e-07
8142.1, 4.4684e-07
8144.1, 4.6128e-07
8146.1, 4.5687e-07
8148.1, 4.1138e-07
8150.1, 4.393e-07
8152.1, 4.5051e-07
8154.1, 4.4314e-07
8156.1, 4.1983e-07
8158.1, 4.4134e-07
8160.2, 3.9734e-07
8162.2, 4.3056e-07
8164.2, 4.8042e-07
8166.2, 4.2921e-07
8168.2, 4.1217e-07
8170.2, 4.5061e-07
8172.2, 4.3635e-07
8174.2, 4.4409e-07
8176.2, 4.4884e-07
8178.2, 4.2156e-07
8180.2, 4.5709e-07
8182.2, 4.2101e-07
8184.2, 4.36e-07
8186.2, 4.5253e-07
8188.2, 4.3484e-07
8190.2, 3.9803e-07
8192.2, 4.6259e-07
8194.2, 4.2554e-07
8196.2, 4.4253e-07
8198.2, 4.5464e-07
8200.2, 4.7908e-07
8202.2, 4.3165e-07
8204.2, 4.2965e-07
8206.2, 4.1801e-07
8208.2, 4.1337e-07
8210.2, 4.0812e-07
8212.2, 4.4116e-07
8214.2, 4.4574e-07
8216.2, 4.3694e-07
8218.2, 4.1037e-07
8220.2, 4.5664e-07
8222.2, 4.2512e-07
8224.2, 4.6807e-07
8226.2, 4.4854e-07
8228.2, 4.3088e-07
8230.2, 4.4388e-07
8232.2, 4.3053e-07
8234.2, 4.597e-07
8236.2, 4.5682e-07
8238.2, 4.0907e-07
8240.2, 4.1895e-07
8242.2, 4.4875e-07
8244.2, 4.0077e-07
8246.2, 4.2662e-07
8248.2, 4.7148e-07
8250.2, 3.9623e-07
8252.2, 4.4377e-07
8254.2, 4.4107e-07
8256.2, 4.7e-07
8258.2, 4.2844e-07
8260.3, 4.2777e-07
8262.3, 4.2524e-07
8264.3, 4.0805e-07
8266.3, 4.0268e-07
8268.3, 4.4905e-07
8270.3, 4.416e-07
8272.3, 4.213e-07
8274.3, 4.4244e-07
8276.3, 4.5271e-07
8278.3, 4.3294e-07
8280.3, 4.7558e-07
8282.3, 4.5767e-07
8284.3, 4.3437e-07
8286.3, 4.4749e-07
8288.3, 4.6456e-07
8290.3, 3.771e-07
8292.3, 4.3022e-07
8294.3, 4.4275e-07
8296.3, 4.3275e-07
8298.3, 4.1703e-07
8300.3, 4.2701e-07
8302.3, 4.6649e-07
8304.3, 4.3376e-07
8306.3, 4.5522e-07
8308.3, 4.3339e-07
8310.3, 4.3158e-07
8312.3, 4.3926e-07
8314.3, 4.3376e-07
8316.3, 4.3842e-07
8318.3, 4.2487e-07
8320.3, 4.297e-07
8322.3, 4.2436e-07
8324.3, 4.7621e-07
8326.3, 4.3003e-07
8328.3, 4.26e-07
8330.3, 3.9855e-07
8332.3, 4.1462e-07
8334.3, 4.3221e-07
8336.3, 4.4317e-07
8338.3, 4.4109e-07
8340.3, 4.4761e-07
8342.3, 4.8512e-07
8344.3, 4.2127e-07
8346.3, 4.168e-07
8348.3, 4.5418e-07
8350.3, 4.3208e-07
8352.3, 4.5687e-07
8354.3, 5.1247e-07
8356.3, 4.1389e-07
8358.3, 4.485e-07
8360.4, 4.6481e-07
8362.4, 4.4609e-07
8364.4, 4.5184e-07
8366.4, 4.4247e-07
8368.4, 4.3373e-07
8370.4, 4.2176e-07
8372.4, 4.5459e-07
8374.4, 4.6446e-07
8376.4, 4.4117e-07
8378.4, 4.503e-07
8380.4, 4.4738e-07
8382.4, 4.4973e-07
8384.4, 4.3042e-07
8386.4, 4.2971e-07
8388.4, 4.7906e-07
8390.4, 4.7535e-07
8392.4, 4.733e-07
8394.4, 4.7631e-07
8396.4, 4.0796e-07
8398.4, 4.7317e-07
8400.4, 4.2903e-07
8402.4, 4.5582e-07
8404.4, 4.7217e-07
8406.4, 4.3461e-07
8408.4, 4.199e-07
8410.4, 4.7448e-07
8412.4, 4.3814e-07
8414.4, 4.2812e-07
8416.4, 4.2443e-07
8418.4, 4.295e-07
8420.4, 4.1917e-07
8422.4, 4.053e-07
8424.4, 4.0885e-07
8426.4, 4.1106e-07
8428.4, 4.3378e-07
8430.4, 4.4512e-07
8432.4, 4.1961e-07
8434.4, 4.6079e-07
8436.4, 4.3568e-07
8438.4, 4.5186e-07
8440.4, 4.8189e-07
8442.4, 4.7198e-07
8444.4, 4.9134e-07
8446.4, 4.4364e-07
8448.4, 4.4705e-07
8450.4, 4.1415e-07
8452.4, 4.3473e-07
8454.4, 4.5483e-07
8456.4, 4.152e-07
8458.4, 4.8587e-07
8460.5, 4.2495e-07
8462.5, 3.9788e-07
8464.5, 4.5464e-07
8466.5, 4.913e-07
8468.5, 4.5792e-07
8470.5, 4.0906e-07
8472.5, 4.3102e-07
8474.5, 4.549e-07
8476.5, 4.4934e-07
8478.5, 4.4465e-07
8480.5, 3.9693e-07
8482.5, 4.8161e-07
8484.5, 4.4874e-07
8486.5, 4.6548e-07
8488.5, 4.0467e-07
8490.5, 4.0562e-07
8492.5, 4.2562e-07
8494.5, 3.8664e-07
8496.5, 4.4544e-07
8498.5, 4.3718e-07
8500.5, 4.2366e-07
8502.5, 4.0262e-07
8504.5, 4.672e-07
8506.5, 4.434e-07
8508.5, 4.7082e-07
8510.5, 4.6745e-07
8512.5, 4.4881e-07
8514.5, 4.5938e-07
8516.5, 4.4889e-07
8518.5, 4.4177e-07
8520.5, 4.4969e-07
8522.5, 4.1099e-07
8524.5, 4.5046e-07
8526.5, 4.355e-07
8528.5, 4.8201e-07
8530.5, 4.6182e-07
8532.5, 4.5428e-07
8534.5, 4.2864e-07
8536.5, 4.5682e-07
8538.5, 4.451e-07
8540.5, 4.3302e-07
8542.5, 4.3212e-07
8544.5, 4.3554e-07
8546.5, 4.4303e-07
8548.5, 4.4334e-07
8550.5, 4.3098e-07
8552.5, 4.3779e-07
8554.5, 4.3623e-07
8556.5, 4.4057e-07
8558.5, 4.5941e-07
8560.6, 4.1839e-07
8562.6, 4.5037e-07
8564.6, 4.5645e-07
8566.6, 4.523e-07
8568.6, 4.4476e-07
8570.6, 4.4752e-07
8572.6, 4.7383e-07
8574.6, 4.4175e-07
8576.6, 4.5777e-07
8578.6, 4.4778e-07
8580.6, 4.4754e-07
8582.6, 4.5797e-07
8584.6, 4.4966e-07
8586.6, 4.6222e-07
8588.6, 4.6861e-07
8590.6, 4.3734e-07
8592.6, 4.0153e-07
8594.6, 4.3181e-07
8596.6, 4.5929e-07
8598.6, 4.6675e-07
8600.6, 4.5206e-07
8602.6, 4.6838e-07
8604.6, 4.1849e-07
8606.6, 4.4902e-07
8608.6, 4.3066e-07
8610.6, 4.2045e-07
8612.6, 4.6597e-07
8614.6, 4.4961e-07
8616.6, 4.6724e-07
8618.6, 4.0452e-07
8620.6, 4.4725e-07
8622.6, 4.6673e-07
8624.6, 4.9381e-07
8626.6, 4.4469e-07
8628.6, 4.4261e-07
8630.6, 4.7258e-07
8632.6, 4.7519e-07
8634.6, 4.3375e-07
8636.6, 4.5741e-07
8638.6, 4.0744e-07
8640.6, 4.2641e-07
8642.6, 4.5304e-07
8644.6, 4.6829e-07
8646.6, 4.3034e-07
8648.6, 4.4809e-07
8650.6, 4.548e-07
8652.6, 4.367e-07
8654.6, 4.5935e-07
8656.6, 4.6614e-07
8658.6, 4.7376e-07
8660.7, 4.368e-07
8662.7, 4.4909e-07
8664.7, 4.742e-07
8666.7, 4.7954e-07
8668.7, 4.5743e-07
8670.7, 4.2386e-07
8672.7, 4.1935e-07
8674.7, 4.3322e-07
8676.7, 4.2652e-07
8678.7, 4.7429e-07
8680.7, 4.3672e-07
8682.7, 4.2792e-07
8684.7, 4.5411e-07
8686.7, 4.4918e-07
8688.7, 4.5429e-07
8690.7, 4.3217e-07
8692.7, 4.0873e-07
8694.7, 4.8117e-07
8696.7, 4.2854e-07
8698.7, 4.1277e-07
8700.7, 4.2502e-07
8702.7, 4.3222e-07
8704.7, 4.6415e-07
8706.7, 4.7772e-07
8708.7, 4.6154e-07
8710.7, 4.3237e-07
8712.7, 4.1769e-07
8714.7, 4.4963e-07
8716.7, 4.2986e-07
8718.7, 4.5329e-07
8720.7, 4.4784e-07
8722.7, 4.5726e-07
8724.7, 4.5707e-07
8726.7, 4.3058e-07
8728.7, 4.3998e-07
8730.7, 4.5853e-07
8732.7, 4.3542e-07
8734.7, 4.7927e-07
8736.7, 4.5496e-07
8738.7, 4.3564e-07
8740.7, 4.2796e-07
8742.7, 4.4138e-07
8744.7, 4.5802e-07
8746.7, 4.7277e-07
8748.7, 4.2022e-07
8750.7, 4.4022e-07
8752.7, 4.4105e-07
8754.7, 4.3481e-07
8756.7, 4.5892e-07
8758.7, 4.4028e-07
8760.8, 4.2924e-07
8762.8, 4.5107e-07
8764.8, 4.1619e-07
8766.8, 4.5854e-07
8768.8, 4.6002e-07
8770.8, 4.8788e-07
8772.8, 4.4992e-07
8774.8, 4.7787e-07
8776.8, 4.55e-07
8778.8, 4.352e-07
8780.8, 4.2205e-07
8782.8, 4.7634e-07
8784.8, 4.542e-07
8786.8, 4.4648e-07
8788.8, 4.0195e-07
8790.8, 4.326e-07
8792.8, 4.5817e-07
8794.8, 4.4138e-07
8796.8, 4.474e-07
8798.8, 4.2774e-07
8800.8, 4.3747e-07
8802.8, 4.5024e-07
8804.8, 4.2244e-07
8806.8, 4.2799e-07
8808.8, 4.6292e-07
8810.8, 4.8622e-07
8812.8, 4.0484e-07
8814.8, 4.1965e-07
8816.8, 4.6962e-07
8818.8, 4.5751e-07
8820.8, 4.6348e-07
8822.8, 4.7679e-07
8824.8, 4.0079e-07
8826.8, 4.1997e-07
8828.8, 4.6124e-07
8830.8, 4.4497e-07
8832.8, 4.7571e-07
8834.8, 4.1758e-07
8836.8, 4.6834e-07
8838.8, 4.4629e-07
8840.8, 4.6397e-07
8842.8, 4.7669e-07
8844.8, 4.3608e-07
8846.8, 4.5558e-07
8848.8, 4.5168e-07
8850.8, 4.4355e-07
8852.8, 4.7294e-07
8854.8, 4.2303e-07
8856.8, 4.5518e-07
8858.8, 4.5448e-07
8860.9, 3.9509e-07
8862.9, 4.5582e-07
8864.9, 4.5079e-07
8866.9, 4.4637e-07
8868.9, 4.5873e-07
8870.9, 4.4695e-07
8872.9, 4.7329e-07
8874.9, 4.5875e-07
8876.9, 4.5118e-07
8878.9, 4.6079e-07
8880.9, 4.9013e-07
8882.9, 4.3196e-07
8884.9, 4.6491e-07
8886.9, 4.8671e-07
8888.9, 4.9909e-07
8890.9, 5.0785e-07
8892.9, 4.7164e-07
8894.9, 4.5683e-07
8896.9, 4.7899e-07
8898.9, 4.6039e-07
8900.9, 4.3238e-07
8902.9, 4.5176e-07
8904.9, 4.1576e-07
8906.9, 4.5281e-07
8908.9, 4.3294e-07
8910.9, 4.5461e-07
8912.9, 4.5334e-07
8914.9, 4.5847e-07
8916.9, 4.7214e-07
8918.9, 4.2243e-07
8920.9, 4.0926e-07
8922.9, 3.418e-08
8924.9, -2.127e-08
8926.9, -2.576e-08
8928.9, -2.546e-08
8930.9, -2.485e-08
8932.9, -2.503e-08
8934.9, -2.118e-08
8936.9, -2.291e-08
8938.9, -2.22e-08
8940.9, -2.127e-08
8942.9, -2.432e-08
8944.9, -2.466e-08
8946.9, -2.548e-08
8948.9, -2.97e-08
8950.9, -2.727e-08
8952.9, -2.764e-08
8954.9, -3.242e-08
8956.9, -2.83e-08
8958.9, -2.787e-08
8961.0, -2.587e-08
8963.0, -2.509e-08
8965.0, -2.583e-08
8967.0, -2.727e-08
8969.0, -3.123e-08
8971.0, -2.654e-08
8973.0, -2.603e-08
8975.0, -2.603e-08
8977.0, -2.82e-08
8979.0, -2.859e-08
8981.0, -2.896e-08
8983.0, -2.941e-08
8985.0, -2.796e-08
8987.0, -3.047e-08
8989.0, -2.541e-08
8991.0, -2.544e-08
8993.0, -2.538e-08
8995.0, -2.599e-08
8997.0, -2.687e-08
8999.0, -2.464e-08
9001.0, -2.658e-08
9003.0, -2.589e-08
9005.0, -2.715e-08
9007.0, -2.656e-08
9009.0, -2.895e-08
9011.0, -2.308e-08
9013.0, -2.669e-08
9015.0, -2.304e-08
9017.0, -2.401e-08
9019.0, -2.249e-08
9021.0, -2.336e-08
9023.0, -2.106e-08
9025.0, -2.625e-08
9027.0, -2.283e-08
9029.0, -2.317e-08
9031.0, -2.338e-08
9033.0, -2.438e-08
9035.0, -2.654e-08
9037.0, -2.782e-08
9039.0, -2.655e-08
9041.0, -2.701e-08
9043.0, -2.91e-08
9045.0, -3.131e-08
9047.0, -2.885e-08
9049.0, -2.843e-08
9051.0, -2.667e-08
9053.0, -2.862e-08
9055.0, -2.639e-08
9057.0, -3.024e-08
9059.0, -2.844e-08
9061.1, -2.828e-08
9063.1, -2.602e-08
9065.1, -2.576e-08
9067.1, -3.147e-08
9069.1, -3.03e-08
9071.1, -2.882e-08
9073.1, -2.74e-08
9075.1, -2.556e-08
9077.1, -2.293e-08
9079.1, -2.594e-08
9081.1, -2.476e-08
9083.1, -2.616e-08
9085.1, -2.642e-08
9087.1, -2.747e-08
9089.1, -2.612e-08
9091.1, -2.968e-08
9093.1, -2.34e-08
9095.1, -2.786e-08
9097.1, -2.756e-08
9099.1, -2.539e-08
9101.1, -2.787e-08
9103.1, -2.983e-08
9105.1, -2.618e-08
9107.1, -2.665e-08
9109.1, -2.896e-08
9111.1, -2.741e-08
9113.1, -3.088e-08
9115.1, -2.907e-08
9117.1, -2.493e-08
9119.1, -2.421e-08
9121.1, -2.84e-08
9123.1, -2.798e-08
9125.1, -2.583e-08
9127.1, -2.939e-08
9129.1, -2.75e-08
9131.1, -2.874e-08
9133.1, -2.867e-08
9135.1, -2.767e-08
9137.1, -3.113e-08
9139.1, -2.74e-08
9141.1, -3.097e-08
9143.1, -3.001e-08
9145.1, -2.991e-08
9147.1, -2.672e-08
9149.1, -3.235e-08
9151.1, -2.836e-08
9153.1, -2.736e-08
9155.1, -2.748e-08
9157.1, -3.074e-08
9159.1, -3.019e-08
9161.2, -2.665e-08
9163.2, -2.403e-08
9165.2, -2.407e-08
9167.2, -2.125e-08
9169.2, -2.695e-08
9171.2, -2.529e-08
9173.2, -2.539e-08
9175.2, -2.964e-08
9177.2, -2.923e-08
9179.2, -2.836e-08
9181.2, -2.909e-08
9183.2, -2.956e-08
9185.2, -2.962e-08
9187.2, -2.473e-08
9189.2, -2.684e-08
9191.2, -2.603e-08
9193.2, -2.662e-08
9195.2, -2.878e-08
9197.2, -3.385e-08
9199.2, -2.831e-08
9201.2, -3.05e-08
9203.2, -2.717e-08
9205.2, -3.019e-08
9207.2, -2.859e-08
9209.2, -2.847e-08
9211.2, -2.904e-08
9213.2, -3.117e-08
9215.2, -2.998e-08
9217.2, -2.916e-08
9219.2, -2.908e-08
9221.2, -2.985e-08
9223.2, -2.733e-08
9225.2, -2.673e-08
9227.2, -2.67e-08
9229.2, -2.682e-08
9231.2, -2.779e-08
9233.2, -2.987e-08
9235.2, -2.87e-08
9237.2, -2.72e-08
9239.2, -2.844e-08
9241.2, -2.701e-08
9243.2, -2.872e-08
9245.2, -2.694e-08
9247.2, -2.723e-08
9249.2, -2.678e-08
9251.2, -2.382e-08
9253.2, -2.386e-08
9255.2, -2.238e-08
9257.2, -2.634e-08
9259.2, -2.391e-08
9261.3, -2.426e-08
9263.3, -2.704e-08
9265.3, -2.953e-08
9267.3, -2.805e-08
9269.3, -2.744e-08
9271.3, -2.469e-08
9273.3, -2.461e-08
9275.3, -3.079e-08
9277.3, -2.877e-08
9279.3, -2.975e-08
9281.3, -2.619e-08
9283.3, -2.469e-08
9285.3, -2.809e-08
9287.3, -3.096e-08
9289.3, -2.625e-08
9291.3, -2.618e-08
9293.3, -2.268e-08
9295.3, -2.359e-08
9297.3, -2.453e-08
9299.3, -2.582e-08
9301.3, -2.627e-08
9303.3, -2.546e-08
9305.3, -2.688e-08
9307.3, -2.64e-08
9309.3, -2.548e-08
9311.3, -2.778e-08
9313.3, -2.921e-08
9315.3, -2.843e-08
9317.3, -2.735e-08
9319.3, -2.706e-08
9321.3, -2.42e-08
9323.3, -2.2e-08
9325.3, -2.713e-08
9327.3, -2.507e-08
9329.3, -2.421e-08
9331.3, -2.689e-08
9333.3, -2.792e-08
9335.3, -2.642e-08
9337.3, -3.005e-08
9339.3, -3.079e-08
9341.3, -2.98e-08
9343.3, -2.861e-08
9345.3, -2.499e-08
9347.3, -2.84e-08
9349.3, -2.813e-08
9351.3, -2.323e-08
9353.3, -2.915e-08
9355.3, -2.523e-08
9357.3, -3.07e-08
9359.3, -2.792e-08
9361.4, -2.807e-08
9363.4, -2.962e-08
9365.4, -2.766e-08
9367.4, -2.777e-08
9369.4, -3.002e-08
9371.4, -2.521e-08
9373.4, -2.806e-08
9375.4, -3.373e-08
9377.4, -2.978e-08
9379.4, -2.96e-08
9381.4, -2.813e-08
9383.4, -2.955e-08
9385.4, -2.835e-08
9387.4, -2.548e-08
9389.4, -2.916e-08
9391.4, -2.936e-08
9393.4, -2.661e-08
9395.4, -2.935e-08
9397.4, -2.93e-08
9399.4, -2.436e-08
9401.4, -2.548e-08
9403.4, -3.16e-08
9405.4, -2.768e-08
9407.4, -2.489e-08
9409.4, -2.907e-08
9411.4, -2.858e-08
9413.4, -3.108e-08
9415.4, -2.64e-08
9417.4, -3.205e-08
9419.4, -2.765e-08
9421.4, -2.813e-08
9423.4, -3.052e-08
9425.4, -3.015e-08
9427.4, -2.81e-08
9429.4, -2.729e-08
9431.4, -2.603e-08
9433.4, -2.906e-08
9435.4, -2.638e-08
9437.4, -2.66e-08
9439.4, -2.866e-08
9441.4, -2.65e-08
9443.4, -2.957e-08
9445.4, -3.156e-08
9447.4, -3.139e-08
9449.4, -2.756e-08
9451.4, -2.788e-08
9453.4, -2.658e-08
9455.4, -3.259e-08
9457.4, -2.98e-08
9459.4, -2.755e-08
9461.5, -2.65e-08
9463.5, -2.916e-08
9465.5, -2.891e-08
9467.5, -2.641e-08
9469.5, -2.027e-08
9471.5, -2.261e-08
9473.5, -1.868e-08
9475.5, -2.823e-08
9477.5, -2.445e-08
9479.5, -2.359e-08
9481.5, -2.321e-08
9483.5, -2.87e-08
9485.5, -2.693e-08
9487.5, -2.813e-08
9489.5, -2.907e-08
9491.5, -2.777e-08
9493.5, -2.526e-08
9495.5, -2.3e-08
9497.5, -2.636e-08
9499.5, -2.355e-08
9501.5, -2.755e-08
9503.5, -2.727e-08
9505.5, -2.675e-08
9507.5, -2.456e-08
9509.5, -2.595e-08
9511.5, -3.281e-08
9513.5, -2.239e-08
9515.5, -2.41e-08
9517.5, -2.512e-08
9519.5, -2.928e-08
9521.5, -2.479e-08
9523.5, -2.853e-08
9525.5, -3.15e-08
9527.5, -2.918e-08
9529.5, -2.641e-08
9531.5, -2.67e-08
9533.5, -2.93e-08
9535.5, -2.902e-08
9537.5, -2.864e-08
9539.5, -2.835e-08
9541.5, -2.521e-08
9543.5, -2.542e-08
9545.5, -2.748e-08
9547.5, -2.582e-08
9549.5, -2.746e-08
9551.5, -3.052e-08
9553.5, -3.173e-08
9555.5, -2.99e-08
9557.5, -2.842e-08
9559.5, -2.822e-08
9561.6, -2.64e-08
9563.6, -2.608e-08
9565.6, -2.811e-08
9567.6, -2.849e-08
9569.6, -2.918e-08
9571.6, -2.822e-08
9573.6, -2.942e-08
9575.6, -2.637e-08
9577.6, -2.563e-08
9579.6, -2.677e-08
9581.6, -3.115e-08
9583.6, -3.161e-08
9585.6, -3.012e-08
9587.6, -3.22e-08
9589.6, -2.778e-08
9591.6, -2.924e-08
9593.6, -3.251e-08
9595.6, -3.054e-08
9597.6, -3.011e-08
9599.6, -2.999e-08
9601.6, -2.672e-08
9603.6, -3.061e-08
9605.6, -2.489e-08
9607.6, -3.055e-08
9609.6, -2.949e-08
9611.6, -2.54e-08
9613.6, -2.738e-08
9615.6, -2.809e-08
9617.6, -2.916e-08
9619.6, -3.011e-08
9621.6, -2.734e-08
9623.6, -2.754e-08
9625.6, -3.06e-08
9627.6, -3.023e-08
9629.6, -3.049e-08
9631.6, -2.734e-08
9633.6, -3.058e-08
9635.6, -2.928e-08
9637.6, -3.144e-08
9639.6, -2.943e-08
9641.6, -3.027e-08
9643.6, -3.013e-08
9645.6, -2.827e-08
9647.6, -2.89e-08
9649.6, -2.92e-08
9651.6, -3.36e-08
9653.6, -2.778e-08
9655.6, -3.09e-08
9657.6, -3.344e-08
9659.6, -2.932e-08
9661.7, -3.187e-08
9663.7, -3.02e-08
9665.7, -3.245e-08
9667.7, -3.054e-08
9669.7, -2.57e-08
9671.7, -2.725e-08
9673.7, -2.943e-08
9675.7, -2.679e-08
9677.7, -2.752e-08
9679.7, -2.53e-08
9681.7, -2.649e-08
9683.7, -2.851e-08
9685.7, -2.547e-08
9687.7, -2.809e-08
9689.7, -3.051e-08
9691.7, -3.035e-08
9693.7, -3.357e-08
9695.7, -3.03e-08
9697.7, -2.737e-08
9699.7, -2.971e-08
9701.7, -2.793e-08
9703.7, -3.113e-08
9705.7, -2.684e-08
9707.7, -2.905e-08
9709.7, -2.299e-08
9711.7, -2.446e-08
9713.7, -3.013e-08
9715.7, -3.168e-08
9717.7, -3.317e-08
9719.7, -2.829e-08
9721.7, -3.149e-08
9723.7, -2.859e-08
9725.7, -2.827e-08
9727.7, -2.631e-08
9729.7, -2.773e-08
9731.7, -2.952e-08
9733.7, -2.646e-08
9735.7, -2.896e-08
9737.7, -2.853e-08
9739.7, -3.028e-08
9741.7, -3.111e-08
9743.7, -2.868e-08
9745.7, -2.72e-08
9747.7, -3.208e-08
9749.7, -3.23e-08
9751.7, -3.272e-08
9753.7, -2.595e-08
9755.7, -3.1e-08
9757.7, -3.489e-08
9759.7, -3.103e-08
9761.8, -2.868e-08
9763.8, -2.486e-08
9765.8, -2.784e-08
9767.8, -2.855e-08
9769.8, -3.116e-08
9771.8, -3.08e-08
9773.8, -3.053e-08
9775.8, -3.384e-08
9777.8, -3.19e-08
9779.8, -3.001e-08
9781.8, -3.146e-08
9783.8, -2.948e-08
9785.8, -3.19e-08
9787.8, -2.993e-08
9789.8, -2.734e-08
9791.8, -3.136e-08
9793.8, -2.996e-08
9795.8, -2.888e-08
9797.8, -2.591e-08
9799.8, -2.799e-08
9801.8, -2.901e-08
9803.8, -2.836e-08
9805.8, -2.663e-08
9807.8, -2.592e-08
9809.8, -2.667e-08
9811.8, -2.572e-08
9813.8, -2.792e-08
9815.8, -2.821e-08
9817.8, -2.781e-08
9819.8, -2.708e-08
9821.8, -2.611e-08
9823.8, -2.871e-08
9825.8, -3.169e-08
9827.8, -3.105e-08
9829.8, -3.376e-08
9831.8, -2.883e-08
9833.8, -2.842e-08
9835.8, -3.095e-08
9837.8, -2.983e-08
9839.8, -3.109e-08
9841.8, -3.16e-08
9843.8, -3.509e-08
9845.8, -2.639e-08
9847.8, -2.92e-08
9849.8, -2.734e-08
9851.8, -2.749e-08
9853.8, -2.724e-08
9855.8, -3.007e-08
9857.8, -2.914e-08
9859.8, -2.818e-08
9861.9, -2.717e-08
9863.9, -2.635e-08
9865.9, -2.506e-08
9867.9, -2.691e-08
9869.9, -2.764e-08
9871.9, -2.774e-08
9873.9, -2.931e-08
9875.9, -2.89e-08
9877.9, -2.905e-08
9879.9, -3.17e-08
9881.9, -2.767e-08
9883.9, -2.9e-08
9885.9, -3.033e-08
9887.9, -2.825e-08
9889.9, -2.722e-08
9891.9, -2.662e-08
9893.9, -2.613e-08
9895.9, -2.886e-08
9897.9, -2.35e-08
9899.9, -2.652e-08
9901.9, -2.542e-08
9903.9, -2.454e-08
9905.9, -2.77e-08
9907.9, -2.441e-08
9909.9, -2.284e-08
9911.9, -2.534e-08
9913.9, -2.423e-08
9915.9, -2.718e-08
9917.9, -2.285e-08
9919.9, -2.227e-08
9921.9, -2.371e-08
9923.9, -2.333e-08
9925.9, -2.256e-08
9927.9, -2.184e-08
9929.9, -2.657e-08
9931.9, -2.584e-08
9933.9, -2.74e-08
9935.9, -2.436e-08
9937.9, -2.373e-08
9939.9, -2.418e-08
9941.9, -2.18e-08
9943.9, -2.435e-08
9945.9, -1.894e-08
9947.9, -2.67e-08
9949.9, -1.978e-08
9951.9, -2.075e-08
9953.9, -2.381e-08
9955.9, -2.51e-08
9957.9, -2.35e-08
9959.9, -2.332e-08
9962.0, -2.362e-08
9964.0, -2.392e-08
9966.0, -2.799e-08
9968.0, -2.663e-08
9970.0, -2.653e-08
9972.0, -2.855e-08
9974.0, -2.662e-08
9976.0, -2.946e-08
9978.0, -2.572e-08
9980.0, -2.562e-08
9982.0, -2.438e-08
9984.0, -2.129e-08
9986.0, -2.532e-08
9988.0, -2.544e-08
9990.0, -2.519e-08
9992.0, -2.567e-08
9994.0, -2.426e-08
9996.0, -2.205e-08
9998.0, -2.276e-08
10000.0, -2.643e-08
10002.0, -2.37e-08
10004.0, -2.623e-08
10006.0, -2.485e-08
10008.0, -2.238e-08
