Time sep (ms?), Current (A)
0.0, -2.019e-08
2.002, -1.785e-08
4.004, -1.476e-08
6.006, -1.414e-08
8.008, -2.029e-08
10.01, -1.587e-08
12.012, -1.775e-08
14.014, -1.868e-08
16.016, -1.909e-08
18.018, -1.626e-08
20.02, -2.004e-08
22.022, -1.175e-08
24.024, -1.63e-08
26.026, -1.763e-08
28.028, -1.81e-08
30.03, -1.362e-08
32.032, -1.349e-08
34.034, -1.631e-08
36.036, -1.927e-08
38.038, -1.717e-08
40.04, -1.784e-08
42.042, -1.464e-08
44.044, -1.632e-08
46.046, -1.681e-08
48.048, -2.245e-08
50.05, -2.129e-08
52.052, -1.912e-08
54.054, -2.352e-08
56.056, -2.17e-08
58.058, -2.48e-08
60.06, -1.819e-08
62.062, -2.243e-08
64.064, -2.057e-08
66.066, -1.801e-08
68.068, -1.75e-08
70.07, -1.482e-08
72.072, -1.59e-08
74.074, -1.953e-08
76.076, -1.394e-08
78.078, -1.169e-08
80.08, -1.788e-08
82.082, -1.834e-08
84.084, -1.897e-08
86.086, -2.094e-08
88.088, -1.803e-08
90.09, -1.918e-08
92.092, -2.166e-08
94.094, -1.797e-08
96.096, -1.724e-08
98.098, -1.492e-08
100.1, -1.835e-08
102.1, -1.494e-08
104.1, -1.452e-08
106.11, -1.463e-08
108.11, -1.682e-08
110.11, -1.4e-08
112.11, -1.571e-08
114.11, -1.64e-08
116.12, -1.852e-08
118.12, -1.679e-08
120.12, -1.582e-08
122.12, -1.916e-08
124.12, -1.923e-08
126.13, -1.939e-08
128.13, -1.898e-08
130.13, -1.26e-08
132.13, -1.807e-08
134.13, -1.575e-08
136.14, -1.995e-08
138.14, -2.24e-08
140.14, -2.059e-08
142.14, -1.572e-08
144.14, -1.789e-08
146.15, -2.119e-08
148.15, -2.127e-08
150.15, -2.023e-08
152.15, -1.866e-08
154.15, -1.857e-08
156.16, -1.881e-08
158.16, -1.588e-08
160.16, -1.968e-08
162.16, -1.811e-08
164.16, -1.927e-08
166.17, -2.144e-08
168.17, -1.771e-08
170.17, -1.972e-08
172.17, -1.772e-08
174.17, -1.994e-08
176.18, -2.334e-08
178.18, -1.722e-08
180.18, -2.103e-08
182.18, -1.978e-08
184.18, -1.587e-08
186.19, -1.737e-08
188.19, -1.602e-08
190.19, -1.207e-08
192.19, -1.435e-08
194.19, -1.578e-08
196.2, -1.885e-08
198.2, -1.645e-08
200.2, -1.298e-08
202.2, -1.862e-08
204.2, -1.597e-08
206.21, -2.162e-08
208.21, -1.999e-08
210.21, -2.097e-08
212.21, -2.187e-08
214.21, -2.259e-08
216.22, -2.39e-08
218.22, -1.738e-08
220.22, -2.049e-08
222.22, -1.971e-08
224.22, -1.889e-08
226.23, -2.071e-08
228.23, -1.869e-08
230.23, -1.741e-08
232.23, -1.79e-08
234.23, -1.505e-08
236.24, -1.835e-08
238.24, -1.243e-08
240.24, -1.828e-08
242.24, -1.593e-08
244.24, -1.612e-08
246.25, -1.747e-08
248.25, -1.694e-08
250.25, -1.318e-08
252.25, -1.781e-08
254.25, -2.015e-08
256.26, -1.632e-08
258.26, -1.75e-08
260.26, -1.45e-08
262.26, -2.088e-08
264.26, -1.629e-08
266.27, -1.86e-08
268.27, -1.795e-08
270.27, -1.694e-08
272.27, -1.399e-08
274.27, -1.981e-08
276.28, -1.58e-08
278.28, -1.616e-08
280.28, -1.636e-08
282.28, -1.689e-08
284.28, -1.701e-08
286.29, -1.963e-08
288.29, -2.102e-08
290.29, -2.436e-08
292.29, -1.708e-08
294.29, -1.96e-08
296.3, -1.863e-08
298.3, -1.694e-08
300.3, -1.912e-08
302.3, -1.848e-08
304.3, -1.741e-08
306.31, -2.032e-08
308.31, -1.725e-08
310.31, -1.64e-08
312.31, -1.602e-08
314.31, -1.756e-08
316.32, -1.949e-08
318.32, -2.305e-08
320.32, -1.944e-08
322.32, -2.304e-08
324.32, -1.921e-08
326.33, -1.583e-08
328.33, -1.746e-08
330.33, -1.83e-08
332.33, -1.849e-08
334.33, -2.205e-08
336.34, -2.043e-08
338.34, -1.938e-08
340.34, -1.855e-08
342.34, -1.997e-08
344.34, -1.94e-08
346.35, -2.104e-08
348.35, -1.935e-08
350.35, -1.569e-08
352.35, -2.053e-08
354.35, -2.127e-08
356.36, -2.388e-08
358.36, -2.23e-08
360.36, -2.118e-08
362.36, -2.05e-08
364.36, -2.021e-08
366.37, -1.84e-08
368.37, -1.462e-08
370.37, -1.542e-08
372.37, -1.592e-08
374.37, -1.879e-08
376.38, -2.106e-08
378.38, -2.073e-08
380.38, -2.019e-08
382.38, -1.863e-08
384.38, -1.982e-08
386.39, -1.896e-08
388.39, -2.169e-08
390.39, -2.218e-08
392.39, -2.067e-08
394.39, -2.019e-08
396.4, -2.265e-08
398.4, -1.965e-08
400.4, -1.892e-08
402.4, -1.916e-08
404.4, -1.927e-08
406.41, -2.105e-08
408.41, -1.795e-08
410.41, -1.969e-08
412.41, -2.031e-08
414.41, -1.956e-08
416.42, -2.205e-08
418.42, -2.211e-08
420.42, -2.112e-08
422.42, -2.437e-08
424.42, -2.01e-08
426.43, -2.056e-08
428.43, -2.317e-08
430.43, -2.477e-08
432.43, -2.013e-08
434.43, -2.402e-08
436.44, -2.263e-08
438.44, -2.27e-08
440.44, -2.16e-08
442.44, -2.372e-08
444.44, -2.242e-08
446.45, -2.597e-08
448.45, -2.276e-08
450.45, -2.039e-08
452.45, -2.3e-08
454.45, -1.995e-08
456.46, -2.356e-08
458.46, -1.733e-08
460.46, -1.836e-08
462.46, -1.847e-08
464.46, -1.824e-08
466.47, -2.171e-08
468.47, -1.778e-08
470.47, -2.009e-08
472.47, -1.915e-08
474.47, -1.891e-08
476.48, -1.659e-08
478.48, -1.491e-08
480.48, -1.409e-08
482.48, -1.612e-08
484.48, -1.787e-08
486.49, -1.912e-08
488.49, -1.857e-08
490.49, -1.7e-08
492.49, -2.008e-08
494.49, -1.725e-08
496.5, -2.099e-08
498.5, -1.987e-08
500.5, -1.675e-08
502.5, -1.8e-08
504.5, -1.909e-08
506.51, -1.937e-08
508.51, -2.271e-08
510.51, -2.168e-08
512.51, -1.769e-08
514.51, -1.477e-08
516.52, -2.083e-08
518.52, -1.976e-08
520.52, -1.72e-08
522.52, -1.925e-08
524.52, -2.086e-08
526.53, -2.084e-08
528.53, -1.961e-08
530.53, -2.257e-08
532.53, -2.216e-08
534.53, -2.428e-08
536.54, -2.524e-08
538.54, -2.606e-08
540.54, -2.344e-08
542.54, -2.778e-08
544.54, -2.54e-08
546.55, -2.257e-08
548.55, -2.114e-08
550.55, -2.274e-08
552.55, -2.225e-08
554.55, -1.553e-08
556.56, -1.773e-08
558.56, -1.773e-08
560.56, -2.11e-08
562.56, -1.82e-08
564.56, -1.641e-08
566.57, -2.161e-08
568.57, -2.189e-08
570.57, -1.79e-08
572.57, -1.74e-08
574.57, -1.968e-08
576.58, -1.539e-08
578.58, -1.465e-08
580.58, -1.605e-08
582.58, -1.909e-08
584.58, -2.146e-08
586.59, -2.076e-08
588.59, -1.493e-08
590.59, -1.654e-08
592.59, -1.591e-08
594.59, -1.469e-08
596.6, -1.678e-08
598.6, -1.513e-08
600.6, -2e-08
602.6, -1.713e-08
604.6, -2.024e-08
606.61, -2.031e-08
608.61, -2.158e-08
610.61, -1.784e-08
612.61, -1.706e-08
614.61, -1.72e-08
616.62, -2.15e-08
618.62, -2.429e-08
620.62, -1.602e-08
622.62, -1.324e-08
624.62, -1.454e-08
626.63, -2.046e-08
628.63, -2.323e-08
630.63, -1.792e-08
632.63, -1.822e-08
634.63, -2.222e-08
636.64, -1.962e-08
638.64, -2.231e-08
640.64, -2.339e-08
642.64, -1.948e-08
644.64, -2.545e-08
646.65, -2.377e-08
648.65, -2.134e-08
650.65, -1.899e-08
652.65, -2.105e-08
654.65, -2.194e-08
656.66, -1.959e-08
658.66, -1.915e-08
660.66, -2.137e-08
662.66, -2.372e-08
664.66, -2.533e-08
666.67, -2.403e-08
668.67, -2.211e-08
670.67, -1.855e-08
672.67, -2.22e-08
674.67, -2.15e-08
676.68, -1.762e-08
678.68, -1.845e-08
680.68, -2.061e-08
682.68, -1.811e-08
684.68, -2.222e-08
686.69, -2.421e-08
688.69, -2.216e-08
690.69, -2.006e-08
692.69, -1.854e-08
694.69, -1.941e-08
696.7, -2.066e-08
698.7, -2.037e-08
700.7, -2.451e-08
702.7, -1.896e-08
704.7, -1.784e-08
706.71, -1.889e-08
708.71, -2.121e-08
710.71, -2.041e-08
712.71, -2.52e-08
714.71, -2.433e-08
716.72, -2.116e-08
718.72, -1.894e-08
720.72, -2.107e-08
722.72, -2.055e-08
724.72, -1.843e-08
726.73, -2.086e-08
728.73, -2.134e-08
730.73, -1.992e-08
732.73, -1.962e-08
734.73, -2.118e-08
736.74, -2.206e-08
738.74, -2.141e-08
740.74, -2.039e-08
742.74, -2.353e-08
744.74, -2.405e-08
746.75, -2.696e-08
748.75, -2.442e-08
750.75, -2.351e-08
752.75, -2.316e-08
754.75, -2.769e-08
756.76, -2.484e-08
758.76, -2.709e-08
760.76, -2.796e-08
762.76, -2.63e-08
764.76, -2.196e-08
766.77, -2.167e-08
768.77, -2.05e-08
770.77, -2.314e-08
772.77, -2.286e-08
774.77, -2.513e-08
776.78, -2.273e-08
778.78, -2.648e-08
780.78, -2.775e-08
782.78, -2.379e-08
784.78, -2.574e-08
786.79, -2.322e-08
788.79, -2.494e-08
790.79, -2.699e-08
792.79, -2.866e-08
794.79, -2.607e-08
796.8, -2.732e-08
798.8, -2.46e-08
800.8, -2.528e-08
802.8, -2.716e-08
804.8, -2.158e-08
806.81, -2.705e-08
808.81, -2.648e-08
810.81, -2.207e-08
812.81, -2.127e-08
814.81, -2.7e-08
816.82, -2.384e-08
818.82, -2.259e-08
820.82, -2.634e-08
822.82, -2.351e-08
824.82, -2.772e-08
826.83, -2.273e-08
828.83, -2.598e-08
830.83, -2.253e-08
832.83, -2.299e-08
834.83, -2.482e-08
836.84, -2.251e-08
838.84, -2.232e-08
840.84, -2.265e-08
842.84, -2.318e-08
844.84, -1.925e-08
846.85, -1.961e-08
848.85, -2.152e-08
850.85, -2.476e-08
852.85, -2.503e-08
854.85, -2.088e-08
856.86, -1.855e-08
858.86, -2.159e-08
860.86, -2.263e-08
862.86, -2.245e-08
864.86, -2.518e-08
866.87, -2.591e-08
868.87, -2.017e-08
870.87, -2.113e-08
872.87, -2.326e-08
874.87, -2.382e-08
876.88, -2.301e-08
878.88, -2.437e-08
880.88, -2.726e-08
882.88, -2.61e-08
884.88, -2.682e-08
886.89, -2.113e-08
888.89, -2.295e-08
890.89, -2.14e-08
892.89, -2.269e-08
894.89, -2.554e-08
896.9, -2.482e-08
898.9, -2.681e-08
900.9, -2.162e-08
902.9, -2.196e-08
904.9, -2.104e-08
906.91, -2.217e-08
908.91, -2.09e-08
910.91, -2.432e-08
912.91, -2.357e-08
914.91, -2.203e-08
916.92, -2.131e-08
918.92, -1.967e-08
920.92, -1.943e-08
922.92, -1.793e-08
924.92, -2.209e-08
926.93, -2.182e-08
928.93, -1.882e-08
930.93, -2.152e-08
932.93, -2.18e-08
934.93, -2.521e-08
936.94, -2.046e-08
938.94, -2.268e-08
940.94, -1.862e-08
942.94, -1.801e-08
944.94, -2.177e-08
946.95, -2.208e-08
948.95, -1.854e-08
950.95, -1.722e-08
952.95, -1.748e-08
954.95, -1.574e-08
956.96, -2.011e-08
958.96, -1.928e-08
960.96, -1.895e-08
962.96, -1.877e-08
964.96, -2.356e-08
966.97, -2.547e-08
968.97, -2.308e-08
970.97, -1.939e-08
972.97, -2.177e-08
974.97, -2.228e-08
976.98, -2.141e-08
978.98, -2.096e-08
980.98, -2.28e-08
982.98, -2.023e-08
984.98, -2.385e-08
986.99, -1.842e-08
988.99, -2.005e-08
990.99, -2.155e-08
992.99, -2.288e-08
994.99, -2.065e-08
997.0, -2.12e-08
999.0, -2.112e-08
1001.0, -2.384e-08
1003.0, -2.198e-08
1005.0, -2.532e-08
1007.0, -2.444e-08
1009.0, -2.486e-08
1011.0, -2.287e-08
1013.0, -2.427e-08
1015.0, -2.542e-08
1017.0, -2.274e-08
1019.0, -1.965e-08
1021.0, -2.041e-08
1023.0, -2.073e-08
1025.0, -1.874e-08
1027.0, -1.907e-08
1029.0, -1.645e-08
1031.0, -2.094e-08
1033.0, -1.85e-08
1035.0, -2.059e-08
1037.0, -2.083e-08
1039.0, -2.415e-08
1041.0, -2.243e-08
1043.0, -1.867e-08
1045.0, -2.091e-08
1047.0, -2.273e-08
1049.0, -2.361e-08
1051.0, -2.092e-08
1053.1, -1.963e-08
1055.1, -2.111e-08
1057.1, -1.819e-08
1059.1, -1.937e-08
1061.1, -1.619e-08
1063.1, -2.058e-08
1065.1, -1.656e-08
1067.1, -1.879e-08
1069.1, -2.026e-08
1071.1, -1.644e-08
1073.1, -2.037e-08
1075.1, -2.174e-08
1077.1, -1.675e-08
1079.1, -1.984e-08
1081.1, -2.251e-08
1083.1, -2.005e-08
1085.1, -2.384e-08
1087.1, -2.074e-08
1089.1, -2.303e-08
1091.1, -2.073e-08
1093.1, -2.063e-08
1095.1, -2.392e-08
1097.1, -2.299e-08
1099.1, -1.883e-08
1101.1, -2.002e-08
1103.1, -2.091e-08
1105.1, -1.943e-08
1107.1, -2.449e-08
1109.1, -1.866e-08
1111.1, -1.976e-08
1113.1, -2.08e-08
1115.1, -2.092e-08
1117.1, -1.799e-08
1119.1, -2.262e-08
1121.1, -2.44e-08
1123.1, -1.845e-08
1125.1, -2.007e-08
1127.1, -2.117e-08
1129.1, -1.95e-08
1131.1, -1.924e-08
1133.1, -1.797e-08
1135.1, -1.861e-08
1137.1, -1.706e-08
1139.1, -1.613e-08
1141.1, -1.653e-08
1143.1, -1.771e-08
1145.1, -2.295e-08
1147.1, -1.756e-08
1149.1, -1.671e-08
1151.1, -1.761e-08
1153.2, -1.748e-08
1155.2, -1.877e-08
1157.2, -2.151e-08
1159.2, -2.013e-08
1161.2, -1.987e-08
1163.2, -1.991e-08
1165.2, -2.016e-08
1167.2, -2.101e-08
1169.2, -1.915e-08
1171.2, -2.036e-08
1173.2, -2.11e-08
1175.2, -1.378e-08
1177.2, -1.974e-08
1179.2, -1.882e-08
1181.2, -1.743e-08
1183.2, -1.771e-08
1185.2, -1.906e-08
1187.2, -1.779e-08
1189.2, -1.573e-08
1191.2, -1.66e-08
1193.2, -1.883e-08
1195.2, -1.721e-08
1197.2, -2.122e-08
1199.2, -1.519e-08
1201.2, -1.585e-08
1203.2, -1.733e-08
1205.2, -1.573e-08
1207.2, -1.422e-08
1209.2, -1.234e-08
1211.2, -1.543e-08
1213.2, -1.118e-08
1215.2, -1.855e-08
1217.2, -1.877e-08
1219.2, -1.985e-08
1221.2, -1.858e-08
1223.2, -1.944e-08
1225.2, -1.692e-08
1227.2, -1.934e-08
1229.2, -1.808e-08
1231.2, -2.022e-08
1233.2, -2.09e-08
1235.2, -2.028e-08
1237.2, -1.978e-08
1239.2, -1.668e-08
1241.2, -1.895e-08
1243.2, -1.869e-08
1245.2, -1.617e-08
1247.2, -1.789e-08
1249.2, -1.746e-08
1251.2, -1.4e-08
1253.3, -1.604e-08
1255.3, -1.698e-08
1257.3, -1.571e-08
1259.3, -1.695e-08
1261.3, -2.007e-08
1263.3, -1.691e-08
1265.3, -1.929e-08
1267.3, -1.832e-08
1269.3, -1.812e-08
1271.3, -1.672e-08
1273.3, -1.604e-08
1275.3, -1.529e-08
1277.3, -1.387e-08
1279.3, -1.609e-08
1281.3, -1.711e-08
1283.3, -2.014e-08
1285.3, -1.65e-08
1287.3, -1.658e-08
1289.3, -1.657e-08
1291.3, -1.577e-08
1293.3, -1.737e-08
1295.3, -1.946e-08
1297.3, -1.934e-08
1299.3, -2.103e-08
1301.3, -2.023e-08
1303.3, -1.847e-08
1305.3, -2.193e-08
1307.3, -1.871e-08
1309.3, -1.713e-08
1311.3, -1.397e-08
1313.3, -1.669e-08
1315.3, -1.582e-08
1317.3, -1.663e-08
1319.3, -1.465e-08
1321.3, -1.631e-08
1323.3, -2.028e-08
1325.3, -1.869e-08
1327.3, -2.108e-08
1329.3, -1.864e-08
1331.3, -1.755e-08
1333.3, -1.668e-08
1335.3, -1.672e-08
1337.3, -1.798e-08
1339.3, -1.887e-08
1341.3, -1.786e-08
1343.3, -1.563e-08
1345.3, -1.464e-08
1347.3, -1.962e-08
1349.3, -1.693e-08
1351.3, -1.922e-08
1353.4, -1.928e-08
1355.4, -1.928e-08
1357.4, -2.42e-08
1359.4, -2.262e-08
1361.4, 1.3252e-07
1363.4, 2.6114e-07
1365.4, 2.5293e-07
1367.4, 2.7138e-07
1369.4, 2.7278e-07
1371.4, 2.5433e-07
1373.4, 2.6746e-07
1375.4, 3.1339e-07
1377.4, 2.3792e-07
1379.4, 2.1119e-07
1381.4, 2.7719e-07
1383.4, 3.0272e-07
1385.4, 2.9016e-07
1387.4, 2.2515e-07
1389.4, 2.7267e-07
1391.4, 2.8004e-07
1393.4, 2.5632e-07
1395.4, 2.7168e-07
1397.4, 2.9632e-07
1399.4, 2.8245e-07
1401.4, 2.6734e-07
1403.4, 2.6666e-07
1405.4, 2.6132e-07
1407.4, 2.8207e-07
1409.4, 2.7176e-07
1411.4, 3.0734e-07
1413.4, 3.236e-07
1415.4, 2.5764e-07
1417.4, 2.9281e-07
1419.4, 3.1463e-07
1421.4, 2.6613e-07
1423.4, 2.7714e-07
1425.4, 2.7954e-07
1427.4, 3.1707e-07
1429.4, 2.9409e-07
1431.4, 2.7653e-07
1433.4, 2.3399e-07
1435.4, 2.5294e-07
1437.4, 2.9574e-07
1439.4, 2.656e-07
1441.4, 3.1843e-07
1443.4, 3.3784e-07
1445.4, 2.6265e-07
1447.4, 2.6595e-07
1449.4, 2.6594e-07
1451.4, 3.1405e-07
1453.5, 2.9642e-07
1455.5, 3.0001e-07
1457.5, 3.0339e-07
1459.5, 2.6342e-07
1461.5, 3.2332e-07
1463.5, 2.6193e-07
1465.5, 2.8295e-07
1467.5, 2.8152e-07
1469.5, 2.7287e-07
1471.5, 3.082e-07
1473.5, 2.6568e-07
1475.5, 2.6118e-07
1477.5, 2.8663e-07
1479.5, 2.8387e-07
1481.5, 2.8973e-07
1483.5, 3.272e-07
1485.5, 3.0725e-07
1487.5, 3.4702e-07
1489.5, 2.8577e-07
1491.5, 2.7735e-07
1493.5, 3.5491e-07
1495.5, 3.1235e-07
1497.5, 2.6885e-07
1499.5, 2.928e-07
1501.5, 2.9039e-07
1503.5, 2.694e-07
1505.5, 2.7093e-07
1507.5, 2.34e-07
1509.5, 2.644e-07
1511.5, 2.9104e-07
1513.5, 2.7068e-07
1515.5, 2.9723e-07
1517.5, 3.4269e-07
1519.5, 2.5351e-07
1521.5, 2.9352e-07
1523.5, 2.6277e-07
1525.5, 2.8433e-07
1527.5, 2.8608e-07
1529.5, 2.6274e-07
1531.5, 3.1692e-07
1533.5, 2.5826e-07
1535.5, 3.1205e-07
1537.5, 3.0276e-07
1539.5, 2.7928e-07
1541.5, 3.0501e-07
1543.5, 3.1522e-07
1545.5, 2.9393e-07
1547.5, 2.7863e-07
1549.5, 3.1243e-07
1551.5, 2.9667e-07
1553.6, 3.2528e-07
1555.6, 3.4146e-07
1557.6, 2.8804e-07
1559.6, 3.0702e-07
1561.6, 3.2568e-07
1563.6, 3.2071e-07
1565.6, 3.1575e-07
1567.6, 3.3584e-07
1569.6, 3.3077e-07
1571.6, 3.3021e-07
1573.6, 3.2314e-07
1575.6, 3.276e-07
1577.6, 2.8846e-07
1579.6, 3.3569e-07
1581.6, 2.9411e-07
1583.6, 3.1479e-07
1585.6, 3.2257e-07
1587.6, 3.1867e-07
1589.6, 2.8848e-07
1591.6, 3.5916e-07
1593.6, 3.1749e-07
1595.6, 2.785e-07
1597.6, 2.998e-07
1599.6, 3.5648e-07
1601.6, 3.2651e-07
1603.6, 3.493e-07
1605.6, 2.9025e-07
1607.6, 3.2604e-07
1609.6, 3.4775e-07
1611.6, 3.2331e-07
1613.6, 3.0807e-07
1615.6, 3.1631e-07
1617.6, 2.8862e-07
1619.6, 3.4873e-07
1621.6, 3.3242e-07
1623.6, 3.3255e-07
1625.6, 2.7977e-07
1627.6, 3.1482e-07
1629.6, 3.2173e-07
1631.6, 3.0007e-07
1633.6, 3.1339e-07
1635.6, 3.2394e-07
1637.6, 3.0611e-07
1639.6, 2.4835e-07
1641.6, 3.3252e-07
1643.6, 3.0509e-07
1645.6, 3.0742e-07
1647.6, 3.2246e-07
1649.6, 3.1908e-07
1651.6, 3.1944e-07
1653.7, 3.0646e-07
1655.7, 2.9873e-07
1657.7, 3.259e-07
1659.7, 3.0363e-07
1661.7, 3.0409e-07
1663.7, 3.1057e-07
1665.7, 3.4841e-07
1667.7, 3.3168e-07
1669.7, 3.0773e-07
1671.7, 2.8294e-07
1673.7, 3.0604e-07
1675.7, 3.2075e-07
1677.7, 3.6311e-07
1679.7, 3.4377e-07
1681.7, 2.9821e-07
1683.7, 3.9758e-07
1685.7, 3.2116e-07
1687.7, 3.6895e-07
1689.7, 3.6732e-07
1691.7, 2.9335e-07
1693.7, 3.5704e-07
1695.7, 3.3311e-07
1697.7, 2.7855e-07
1699.7, 3.2193e-07
1701.7, 3.3687e-07
1703.7, 3.1043e-07
1705.7, 3.0753e-07
1707.7, 3.1014e-07
1709.7, 3.3775e-07
1711.7, 3.1591e-07
1713.7, 3.3225e-07
1715.7, 3.1848e-07
1717.7, 2.9369e-07
1719.7, 2.5082e-07
1721.7, 3.0289e-07
1723.7, 3.0185e-07
1725.7, 3.263e-07
1727.7, 3.0875e-07
1729.7, 2.9549e-07
1731.7, 3.0697e-07
1733.7, 2.9395e-07
1735.7, 3.3339e-07
1737.7, 3.3147e-07
1739.7, 3.7119e-07
1741.7, 3.6976e-07
1743.7, 3.5375e-07
1745.7, 3.2475e-07
1747.7, 3.3519e-07
1749.7, 3.596e-07
1751.7, 3.0981e-07
1753.8, 3.1862e-07
1755.8, 3.1279e-07
1757.8, 3.5484e-07
1759.8, 3.0778e-07
1761.8, 3.0239e-07
1763.8, 3.5019e-07
1765.8, 3.5945e-07
1767.8, 3.3169e-07
1769.8, 3.2916e-07
1771.8, 3.327e-07
1773.8, 3.2372e-07
1775.8, 3.1309e-07
1777.8, 3.5016e-07
1779.8, 3.0943e-07
1781.8, 3.135e-07
1783.8, 3.3295e-07
1785.8, 3.4345e-07
1787.8, 3.3055e-07
1789.8, 3.4605e-07
1791.8, 3.4874e-07
1793.8, 3.0744e-07
1795.8, 3.2e-07
1797.8, 3.4715e-07
1799.8, 3.3894e-07
1801.8, 3.5628e-07
1803.8, 3.054e-07
1805.8, 2.7884e-07
1807.8, 3.0067e-07
1809.8, 3.2789e-07
1811.8, 2.9724e-07
1813.8, 3.1198e-07
1815.8, 3.3473e-07
1817.8, 3.4271e-07
1819.8, 3.4382e-07
1821.8, 3.3198e-07
1823.8, 3.1215e-07
1825.8, 3.5168e-07
1827.8, 3.0831e-07
1829.8, 2.9893e-07
1831.8, 3.0793e-07
1833.8, 3.4892e-07
1835.8, 3.515e-07
1837.8, 3.2274e-07
1839.8, 4.1293e-07
1841.8, 3.0357e-07
1843.8, 3.0673e-07
1845.8, 3.6139e-07
1847.8, 3.3067e-07
1849.8, 3.3934e-07
1851.8, 3.0823e-07
1853.9, 2.4425e-07
1855.9, 3.3306e-07
1857.9, 3.1461e-07
1859.9, 3.4342e-07
1861.9, 3.4976e-07
1863.9, 3.119e-07
1865.9, 3.3442e-07
1867.9, 3.1041e-07
1869.9, 3.2306e-07
1871.9, 3.3767e-07
1873.9, 3.2981e-07
1875.9, 3.7537e-07
1877.9, 3.2101e-07
1879.9, 3.625e-07
1881.9, 2.9298e-07
1883.9, 3.2389e-07
1885.9, 3.6705e-07
1887.9, 2.8268e-07
1889.9, 3.1961e-07
1891.9, 3.5046e-07
1893.9, 3.1483e-07
1895.9, 3.4662e-07
1897.9, 3.4234e-07
1899.9, 3.2958e-07
1901.9, 2.947e-07
1903.9, 3.0216e-07
1905.9, 3.106e-07
1907.9, 3.279e-07
1909.9, 3.1374e-07
1911.9, 3.4749e-07
1913.9, 2.9589e-07
1915.9, 3.6147e-07
1917.9, 3.3495e-07
1919.9, 3.4427e-07
1921.9, 3.4799e-07
1923.9, 2.9832e-07
1925.9, 3.0441e-07
1927.9, 3.3648e-07
1929.9, 3.6289e-07
1931.9, 3.4619e-07
1933.9, 3.1591e-07
1935.9, 3.079e-07
1937.9, 3.6975e-07
1939.9, 3.2664e-07
1941.9, 3.012e-07
1943.9, 2.9012e-07
1945.9, 3.054e-07
1947.9, 3.7682e-07
1949.9, 3.4808e-07
1951.9, 2.7865e-07
1954.0, 3.5693e-07
1956.0, 3.3757e-07
1958.0, 3.393e-07
1960.0, 3.5747e-07
1962.0, 2.9809e-07
1964.0, 3.7175e-07
1966.0, 3.7238e-07
1968.0, 3.6089e-07
1970.0, 3.3874e-07
1972.0, 3.1343e-07
1974.0, 3.3688e-07
1976.0, 3.0762e-07
1978.0, 3.4242e-07
1980.0, 3.5429e-07
1982.0, 3.0011e-07
1984.0, 3.4309e-07
1986.0, 2.9771e-07
1988.0, 3.0763e-07
1990.0, 2.8583e-07
1992.0, 3.3682e-07
1994.0, 3.2157e-07
1996.0, 4.0264e-07
1998.0, 3.6563e-07
2000.0, 3.2493e-07
2002.0, 3.3878e-07
2004.0, 3.3162e-07
2006.0, 3.4514e-07
2008.0, 3.1506e-07
2010.0, 2.9402e-07
2012.0, 3.6862e-07
2014.0, 3.8163e-07
2016.0, 3.5829e-07
2018.0, 3.427e-07
2020.0, 3.6086e-07
2022.0, 2.9933e-07
2024.0, 3.2341e-07
2026.0, 3.4073e-07
2028.0, 3.2066e-07
2030.0, 3.1595e-07
2032.0, 3.197e-07
2034.0, 3.4995e-07
2036.0, 3.1479e-07
2038.0, 3.6828e-07
2040.0, 3.3776e-07
2042.0, 3.3677e-07
2044.0, 3.3271e-07
2046.0, 3.5297e-07
2048.0, 3.5922e-07
2050.0, 3.533e-07
2052.0, 3.1976e-07
2054.1, 3.2656e-07
2056.1, 3.4514e-07
2058.1, 2.8727e-07
2060.1, 3.5205e-07
2062.1, 3.3481e-07
2064.1, 3.1846e-07
2066.1, 3.7792e-07
2068.1, 3.5386e-07
2070.1, 3.1668e-07
2072.1, 3.6092e-07
2074.1, 3.8265e-07
2076.1, 3.1797e-07
2078.1, 3.0681e-07
2080.1, 3.1323e-07
2082.1, 3.2841e-07
2084.1, 2.9666e-07
2086.1, 2.9769e-07
2088.1, 3.2686e-07
2090.1, 3.0689e-07
2092.1, 3.1062e-07
2094.1, 2.847e-07
2096.1, 3.4006e-07
2098.1, 3.3766e-07
2100.1, 3.49e-07
2102.1, 3.315e-07
2104.1, 3.476e-07
2106.1, 2.9514e-07
2108.1, 3.545e-07
2110.1, 3.632e-07
2112.1, 2.9711e-07
2114.1, 3.4534e-07
2116.1, 3.3285e-07
2118.1, 3.2304e-07
2120.1, 3.6041e-07
2122.1, 2.8859e-07
2124.1, 3.8629e-07
2126.1, 3.2071e-07
2128.1, 3.4496e-07
2130.1, 3.1306e-07
2132.1, 2.9951e-07
2134.1, 3.2607e-07
2136.1, 3.6717e-07
2138.1, 3.5075e-07
2140.1, 3.4061e-07
2142.1, 3.2559e-07
2144.1, 3.4611e-07
2146.1, 2.9496e-07
2148.1, 3.4993e-07
2150.1, 3.4526e-07
2152.1, 3.6136e-07
2154.2, 3.5272e-07
2156.2, 3.351e-07
2158.2, 3.7174e-07
2160.2, 3.3071e-07
2162.2, 3.3342e-07
2164.2, 3.4491e-07
2166.2, 3.4306e-07
2168.2, 3.8209e-07
2170.2, 2.9166e-07
2172.2, 3.065e-07
2174.2, 3.7297e-07
2176.2, 3.6647e-07
2178.2, 3.4774e-07
2180.2, 3.3675e-07
2182.2, 3.4087e-07
2184.2, 3.0865e-07
2186.2, 3.708e-07
2188.2, 3.5575e-07
2190.2, 3.5318e-07
2192.2, 3.2787e-07
2194.2, 2.6883e-07
2196.2, 3.1113e-07
2198.2, 3.5948e-07
2200.2, 3.1729e-07
2202.2, 3.5796e-07
2204.2, 3.3119e-07
2206.2, 3.2361e-07
2208.2, 3.7348e-07
2210.2, 3.7827e-07
2212.2, 3.1747e-07
2214.2, 3.5056e-07
2216.2, 3.0861e-07
2218.2, 3.3729e-07
2220.2, 2.9136e-07
2222.2, 3.0221e-07
2224.2, 3.1854e-07
2226.2, 3.4908e-07
2228.2, 3.1069e-07
2230.2, 2.9968e-07
2232.2, 2.9331e-07
2234.2, 3.6923e-07
2236.2, 3.1228e-07
2238.2, 3.3651e-07
2240.2, 2.9857e-07
2242.2, 3.5097e-07
2244.2, 3.0545e-07
2246.2, 3.3817e-07
2248.2, 3.2104e-07
2250.2, 3.4007e-07
2252.2, 3.0217e-07
2254.3, 3.0042e-07
2256.3, 2.8718e-07
2258.3, 2.948e-07
2260.3, 3.4519e-07
2262.3, 3.7359e-07
2264.3, 3.3114e-07
2266.3, 3.0705e-07
2268.3, 3.5528e-07
2270.3, 3.5539e-07
2272.3, 3.593e-07
2274.3, 3.1112e-07
2276.3, 3.3544e-07
2278.3, 3.3756e-07
2280.3, 3.4486e-07
2282.3, 3.5276e-07
2284.3, 3.219e-07
2286.3, 2.9975e-07
2288.3, 3.1177e-07
2290.3, 3.0878e-07
2292.3, 3.2376e-07
2294.3, 3.148e-07
2296.3, 3.5012e-07
2298.3, 3.2632e-07
2300.3, 3.3146e-07
2302.3, 3.4117e-07
2304.3, 3.5275e-07
2306.3, 3.5037e-07
2308.3, 3.0256e-07
2310.3, 3.0892e-07
2312.3, 3.2519e-07
2314.3, 3.3516e-07
2316.3, 3.388e-07
2318.3, 3.1925e-07
2320.3, 3.3335e-07
2322.3, 3.4298e-07
2324.3, 3.6218e-07
2326.3, 3.9183e-07
2328.3, 3.2759e-07
2330.3, 3.2503e-07
2332.3, 3.1774e-07
2334.3, 3.6498e-07
2336.3, 3.2361e-07
2338.3, 3.5309e-07
2340.3, 3.4134e-07
2342.3, 3.0921e-07
2344.3, 3.5158e-07
2346.3, 3.3148e-07
2348.3, 3.0071e-07
2350.3, 3.2199e-07
2352.3, 3.0181e-07
2354.4, 3.632e-07
2356.4, 3.4806e-07
2358.4, 3.5208e-07
2360.4, 3.5881e-07
2362.4, 1.6074e-07
2364.4, -2.253e-08
2366.4, -2.146e-08
2368.4, -2.137e-08
2370.4, -2.212e-08
2372.4, -2.352e-08
2374.4, -2.057e-08
2376.4, -1.993e-08
2378.4, -2.054e-08
2380.4, -2.274e-08
2382.4, -2.714e-08
2384.4, -2.325e-08
2386.4, -2.4e-08
2388.4, -2.399e-08
2390.4, -2.476e-08
2392.4, -2.25e-08
2394.4, -2.169e-08
2396.4, -2.022e-08
2398.4, -1.956e-08
2400.4, -1.741e-08
2402.4, -2.198e-08
2404.4, -2.144e-08
2406.4, -2.342e-08
2408.4, -2.014e-08
2410.4, -2.066e-08
2412.4, -2.372e-08
2414.4, -2.354e-08
2416.4, -2.444e-08
2418.4, -2.343e-08
2420.4, -2.389e-08
2422.4, -2.001e-08
2424.4, -1.95e-08
2426.4, -2.133e-08
2428.4, -2.058e-08
2430.4, -2.167e-08
2432.4, -2.14e-08
2434.4, -2.244e-08
2436.4, -2.14e-08
2438.4, -2.324e-08
2440.4, -2.176e-08
2442.4, -2.026e-08
2444.4, -2.627e-08
2446.4, -2.353e-08
2448.4, -2.254e-08
2450.4, -2.155e-08
2452.4, -2.228e-08
2454.5, -2.127e-08
2456.5, -2.166e-08
2458.5, -2.17e-08
2460.5, -2.31e-08
2462.5, -2.074e-08
2464.5, -2.333e-08
2466.5, -1.936e-08
2468.5, -2.133e-08
2470.5, -2.303e-08
2472.5, -1.89e-08
2474.5, -1.838e-08
2476.5, -2.098e-08
2478.5, -1.888e-08
2480.5, -2.057e-08
2482.5, -1.974e-08
2484.5, -1.771e-08
2486.5, -1.695e-08
2488.5, -2.023e-08
2490.5, -1.921e-08
2492.5, -1.975e-08
2494.5, -1.926e-08
2496.5, -2.1e-08
2498.5, -2.426e-08
2500.5, -2.168e-08
2502.5, -2.205e-08
2504.5, -1.977e-08
2506.5, -2.298e-08
2508.5, -2.472e-08
2510.5, -2.435e-08
2512.5, -2.655e-08
2514.5, -2.407e-08
2516.5, -2.66e-08
2518.5, -2.17e-08
2520.5, -2.441e-08
2522.5, -2.333e-08
2524.5, -2.507e-08
2526.5, -2.532e-08
2528.5, -2.126e-08
2530.5, -2.347e-08
2532.5, -2.639e-08
2534.5, -2.059e-08
2536.5, -2.295e-08
2538.5, -2.193e-08
2540.5, -2.637e-08
2542.5, -2.123e-08
2544.5, -2.236e-08
2546.5, -2.235e-08
2548.5, -2.126e-08
2550.5, -2.151e-08
2552.5, -2.214e-08
2554.6, -2.068e-08
2556.6, -2.028e-08
2558.6, -1.858e-08
2560.6, -1.696e-08
2562.6, -2.058e-08
2564.6, -2.313e-08
2566.6, -2.127e-08
2568.6, -2.336e-08
2570.6, -2.288e-08
2572.6, -2.103e-08
2574.6, -2.199e-08
2576.6, -2.017e-08
2578.6, -1.912e-08
2580.6, -1.846e-08
2582.6, -1.865e-08
2584.6, -2.126e-08
2586.6, -2.233e-08
2588.6, -2.569e-08
2590.6, -2.646e-08
2592.6, -2.302e-08
2594.6, -2.241e-08
2596.6, -2.448e-08
2598.6, -2.624e-08
2600.6, -2.513e-08
2602.6, -2.415e-08
2604.6, -2.168e-08
2606.6, -2.405e-08
2608.6, -2.342e-08
2610.6, -2.296e-08
2612.6, -2.127e-08
2614.6, -2.413e-08
2616.6, -2.699e-08
2618.6, -2.671e-08
2620.6, -3.198e-08
2622.6, -2.434e-08
2624.6, -2.495e-08
2626.6, -2.659e-08
2628.6, -3.069e-08
2630.6, -2.872e-08
2632.6, -2.676e-08
2634.6, -2.699e-08
2636.6, -2.442e-08
2638.6, -2.423e-08
2640.6, -2.315e-08
2642.6, -2.569e-08
2644.6, -2.323e-08
2646.6, -2.523e-08
2648.6, -2.573e-08
2650.6, -2.291e-08
2652.6, -2.139e-08
2654.7, -2.48e-08
2656.7, -2.292e-08
2658.7, -2.686e-08
2660.7, -2.373e-08
2662.7, -2.319e-08
2664.7, -2.545e-08
2666.7, -2.894e-08
2668.7, -2.385e-08
2670.7, -2.416e-08
2672.7, -2.467e-08
2674.7, -2.344e-08
2676.7, -2.318e-08
2678.7, -2.282e-08
2680.7, -2.5e-08
2682.7, -2.398e-08
2684.7, -2.586e-08
2686.7, -2.42e-08
2688.7, -2.404e-08
2690.7, -2.509e-08
2692.7, -2.86e-08
2694.7, -2.337e-08
2696.7, -2.407e-08
2698.7, -2.796e-08
2700.7, -2.766e-08
2702.7, -2.356e-08
2704.7, -2.604e-08
2706.7, -2.29e-08
2708.7, -2.708e-08
2710.7, -2.389e-08
2712.7, -2.343e-08
2714.7, -2.198e-08
2716.7, -2.238e-08
2718.7, -2.295e-08
2720.7, -2.191e-08
2722.7, -2.446e-08
2724.7, -2.481e-08
2726.7, -2.732e-08
2728.7, -2.643e-08
2730.7, -2.565e-08
2732.7, -2.597e-08
2734.7, -2.327e-08
2736.7, -2.825e-08
2738.7, -2.595e-08
2740.7, -2.563e-08
2742.7, -2.326e-08
2744.7, -2.65e-08
2746.7, -2.023e-08
2748.7, -2.263e-08
2750.7, -2.756e-08
2752.7, -2.589e-08
2754.8, -2.55e-08
2756.8, -2.282e-08
2758.8, -2.709e-08
2760.8, -2.554e-08
2762.8, -2.586e-08
2764.8, -2.82e-08
2766.8, -2.565e-08
2768.8, -2.706e-08
2770.8, -2.667e-08
2772.8, -2.577e-08
2774.8, -2.97e-08
2776.8, -2.691e-08
2778.8, -2.49e-08
2780.8, -2.646e-08
2782.8, -2.759e-08
2784.8, -2.532e-08
2786.8, -2.551e-08
2788.8, -2.36e-08
2790.8, -2.366e-08
2792.8, -2.355e-08
2794.8, -2.922e-08
2796.8, -2.497e-08
2798.8, -2.391e-08
2800.8, -2.571e-08
2802.8, -2.496e-08
2804.8, -2.601e-08
2806.8, -2.375e-08
2808.8, -2.431e-08
2810.8, -2.082e-08
2812.8, -2.438e-08
2814.8, -2.381e-08
2816.8, -2.443e-08
2818.8, -1.622e-08
2820.8, -2.128e-08
2822.8, -1.733e-08
2824.8, -1.985e-08
2826.8, -1.837e-08
2828.8, -1.809e-08
2830.8, -1.605e-08
2832.8, -2.171e-08
2834.8, -1.849e-08
2836.8, -2.075e-08
2838.8, -2.297e-08
2840.8, -2.192e-08
2842.8, -2.423e-08
2844.8, -2.294e-08
2846.8, -2.171e-08
2848.8, -2.119e-08
2850.8, -2.001e-08
2852.8, -1.888e-08
2854.9, -1.897e-08
2856.9, -1.725e-08
2858.9, -2.038e-08
2860.9, -1.951e-08
2862.9, -2.009e-08
2864.9, -2.049e-08
2866.9, -1.962e-08
2868.9, -1.668e-08
2870.9, -1.77e-08
2872.9, -1.65e-08
2874.9, -1.541e-08
2876.9, -1.929e-08
2878.9, -1.957e-08
2880.9, -1.839e-08
2882.9, -1.758e-08
2884.9, -1.907e-08
2886.9, -1.996e-08
2888.9, -2.276e-08
2890.9, -1.991e-08
2892.9, -1.768e-08
2894.9, -1.934e-08
2896.9, -1.642e-08
2898.9, -1.846e-08
2900.9, -1.959e-08
2902.9, -1.972e-08
2904.9, -1.895e-08
2906.9, -2.297e-08
2908.9, -2.284e-08
2910.9, -2.115e-08
2912.9, -2.007e-08
2914.9, -1.821e-08
2916.9, -2.309e-08
2918.9, -2.337e-08
2920.9, -2.147e-08
2922.9, -2.289e-08
2924.9, -2.337e-08
2926.9, -2.288e-08
2928.9, -2.076e-08
2930.9, -2.05e-08
2932.9, -1.893e-08
2934.9, -2.137e-08
2936.9, -2.085e-08
2938.9, -2.08e-08
2940.9, -2.034e-08
2942.9, -2.113e-08
2944.9, -1.779e-08
2946.9, -2.242e-08
2948.9, -1.895e-08
2950.9, -2.071e-08
2952.9, -2.027e-08
2955.0, -2.197e-08
2957.0, -2.135e-08
2959.0, -2.154e-08
2961.0, -2.188e-08
2963.0, -2.063e-08
2965.0, -2.059e-08
2967.0, -2.011e-08
2969.0, -2.084e-08
2971.0, -2.005e-08
2973.0, -2.344e-08
2975.0, -1.988e-08
2977.0, -1.995e-08
2979.0, -2.052e-08
2981.0, -2.504e-08
2983.0, -2.424e-08
2985.0, -2.241e-08
2987.0, -2.204e-08
2989.0, -2.498e-08
2991.0, -1.969e-08
2993.0, -2.018e-08
2995.0, -2.126e-08
2997.0, -2.025e-08
2999.0, -2.218e-08
3001.0, -1.975e-08
3003.0, -2.146e-08
3005.0, -2.323e-08
3007.0, -2.535e-08
3009.0, -2.193e-08
3011.0, -2.629e-08
3013.0, -2.369e-08
3015.0, -2.384e-08
3017.0, -2.243e-08
3019.0, -2.293e-08
3021.0, -2.392e-08
3023.0, -2.215e-08
3025.0, -2.387e-08
3027.0, -2.592e-08
3029.0, -1.89e-08
3031.0, -2.146e-08
3033.0, -2.392e-08
3035.0, -2.317e-08
3037.0, -2.41e-08
3039.0, -2.439e-08
3041.0, -2.355e-08
3043.0, -2.476e-08
3045.0, -2.242e-08
3047.0, -2.006e-08
3049.0, -1.97e-08
3051.0, -2.299e-08
3053.0, -2.153e-08
3055.1, -1.831e-08
3057.1, -2.139e-08
3059.1, -1.864e-08
3061.1, -2.199e-08
3063.1, -2.409e-08
3065.1, -2.316e-08
3067.1, -2.451e-08
3069.1, -2.276e-08
3071.1, -2.111e-08
3073.1, -1.828e-08
3075.1, -2.533e-08
3077.1, -2.348e-08
3079.1, -1.672e-08
3081.1, -1.76e-08
3083.1, -2.21e-08
3085.1, -2.091e-08
3087.1, -1.813e-08
3089.1, -2.011e-08
3091.1, -2.026e-08
3093.1, -2.052e-08
3095.1, -1.796e-08
3097.1, -2.146e-08
3099.1, -1.896e-08
3101.1, -2.286e-08
3103.1, -1.668e-08
3105.1, -1.836e-08
3107.1, -1.834e-08
3109.1, -1.468e-08
3111.1, -1.804e-08
3113.1, -1.687e-08
3115.1, -1.508e-08
3117.1, -1.596e-08
3119.1, -2.02e-08
3121.1, -1.974e-08
3123.1, -1.878e-08
3125.1, -1.83e-08
3127.1, -2.224e-08
3129.1, -2.15e-08
3131.1, -2.203e-08
3133.1, -1.848e-08
3135.1, -2.053e-08
3137.1, -1.889e-08
3139.1, -1.987e-08
3141.1, -2.076e-08
3143.1, -1.967e-08
3145.1, -1.917e-08
3147.1, -2.326e-08
3149.1, -2.245e-08
3151.1, -2.216e-08
3153.1, -1.962e-08
3155.2, -1.867e-08
3157.2, -2.09e-08
3159.2, -2.494e-08
3161.2, -2.138e-08
3163.2, -1.959e-08
3165.2, -1.926e-08
3167.2, -1.871e-08
3169.2, -2.29e-08
3171.2, -1.783e-08
3173.2, -2.148e-08
3175.2, -1.891e-08
3177.2, -1.71e-08
3179.2, -1.651e-08
3181.2, -2.069e-08
3183.2, -1.868e-08
3185.2, -1.809e-08
3187.2, -2.09e-08
3189.2, -2.187e-08
3191.2, -2.175e-08
3193.2, -2.274e-08
3195.2, -2.192e-08
3197.2, -1.748e-08
3199.2, -1.63e-08
3201.2, -2.339e-08
3203.2, -2.041e-08
3205.2, -2e-08
3207.2, -1.922e-08
3209.2, -1.946e-08
3211.2, -1.779e-08
3213.2, -2.031e-08
3215.2, -2.159e-08
3217.2, -2.479e-08
3219.2, -2.543e-08
3221.2, -2.322e-08
3223.2, -2.206e-08
3225.2, -2.022e-08
3227.2, -2.436e-08
3229.2, -2.276e-08
3231.2, -1.908e-08
3233.2, -2.301e-08
3235.2, -2.109e-08
3237.2, -2.359e-08
3239.2, -1.823e-08
3241.2, -2.137e-08
3243.2, -1.806e-08
3245.2, -2.184e-08
3247.2, -2.245e-08
3249.2, -2.098e-08
3251.2, -2.27e-08
3253.2, -2.092e-08
3255.3, -2.448e-08
3257.3, -2.252e-08
3259.3, -2.194e-08
3261.3, -2.268e-08
3263.3, -2.417e-08
3265.3, -2.162e-08
3267.3, -2.09e-08
3269.3, -2.135e-08
3271.3, -2.114e-08
3273.3, -1.756e-08
3275.3, -2.339e-08
3277.3, -2.012e-08
3279.3, -1.982e-08
3281.3, -1.874e-08
3283.3, -1.85e-08
3285.3, -1.829e-08
3287.3, -2.054e-08
3289.3, -1.656e-08
3291.3, -1.638e-08
3293.3, -1.586e-08
3295.3, -1.788e-08
3297.3, -1.762e-08
3299.3, -2.084e-08
3301.3, -2.114e-08
3303.3, -1.369e-08
3305.3, -1.753e-08
3307.3, -1.561e-08
3309.3, -1.847e-08
3311.3, -1.451e-08
3313.3, -1.961e-08
3315.3, -1.711e-08
3317.3, -1.714e-08
3319.3, -1.889e-08
3321.3, -2.175e-08
3323.3, -2.152e-08
3325.3, -1.942e-08
3327.3, -1.768e-08
3329.3, -2e-08
3331.3, -1.554e-08
3333.3, -1.59e-08
3335.3, -2.023e-08
3337.3, -1.701e-08
3339.3, -1.401e-08
3341.3, -1.534e-08
3343.3, -1.52e-08
3345.3, -1.774e-08
3347.3, -1.579e-08
3349.3, -1.788e-08
3351.3, -2.27e-08
3353.3, -1.94e-08
3355.4, -2.093e-08
3357.4, -2.312e-08
3359.4, -2.174e-08
3361.4, -2.085e-08
3363.4, -1.965e-08
3365.4, -2.084e-08
3367.4, -1.862e-08
3369.4, -2.086e-08
3371.4, -1.891e-08
3373.4, -1.995e-08
3375.4, -2.24e-08
3377.4, -2.539e-08
3379.4, -2.402e-08
3381.4, -2.121e-08
3383.4, -1.855e-08
3385.4, -2.081e-08
3387.4, -1.974e-08
3389.4, -2.278e-08
3391.4, -2.166e-08
3393.4, -1.957e-08
3395.4, -1.979e-08
3397.4, -2.302e-08
3399.4, -2.291e-08
3401.4, -2.156e-08
3403.4, -1.854e-08
3405.4, -2.215e-08
3407.4, -1.904e-08
3409.4, -2.375e-08
3411.4, -1.982e-08
3413.4, -2.308e-08
3415.4, -2.12e-08
3417.4, -2.127e-08
3419.4, -2.664e-08
3421.4, -2.313e-08
3423.4, -2.081e-08
3425.4, -2.077e-08
3427.4, -1.88e-08
3429.4, -2.242e-08
3431.4, -2.174e-08
3433.4, -1.967e-08
3435.4, -1.966e-08
3437.4, -2.102e-08
3439.4, -2.262e-08
3441.4, -2.196e-08
3443.4, -1.693e-08
3445.4, -1.529e-08
3447.4, -1.98e-08
3449.4, -2.175e-08
3451.4, -2.142e-08
3453.4, -2.46e-08
3455.5, -2.327e-08
3457.5, -2.172e-08
3459.5, -2.38e-08
3461.5, -2.078e-08
3463.5, -2.213e-08
3465.5, -2.243e-08
3467.5, -2.478e-08
3469.5, -2.587e-08
3471.5, -2.068e-08
3473.5, -2.361e-08
3475.5, -2.451e-08
3477.5, -2.422e-08
3479.5, -2.191e-08
3481.5, -2.414e-08
3483.5, -2.066e-08
3485.5, -2.293e-08
3487.5, -1.917e-08
3489.5, -2.229e-08
3491.5, -2.361e-08
3493.5, -1.994e-08
3495.5, -2.195e-08
3497.5, -2.02e-08
3499.5, -1.848e-08
3501.5, -2.184e-08
3503.5, -2.135e-08
3505.5, -2.21e-08
3507.5, -2.002e-08
3509.5, -1.969e-08
3511.5, -1.921e-08
3513.5, -1.908e-08
3515.5, -2.02e-08
3517.5, -1.929e-08
3519.5, -2.103e-08
3521.5, -1.727e-08
3523.5, -1.841e-08
3525.5, -1.99e-08
3527.5, -1.76e-08
3529.5, -1.776e-08
3531.5, -1.692e-08
3533.5, -1.843e-08
3535.5, -2.36e-08
3537.5, -2.375e-08
3539.5, -2.337e-08
3541.5, -1.874e-08
3543.5, -2.219e-08
3545.5, -1.608e-08
3547.5, -2.016e-08
3549.5, -1.841e-08
3551.5, -1.793e-08
3553.5, -1.946e-08
3555.6, -1.664e-08
3557.6, -1.611e-08
3559.6, -1.633e-08
3561.6, -2.029e-08
3563.6, -1.674e-08
3565.6, -2.018e-08
3567.6, -2.27e-08
3569.6, -1.909e-08
3571.6, -1.764e-08
3573.6, -2.165e-08
3575.6, -2.107e-08
3577.6, -2.319e-08
3579.6, -2.466e-08
3581.6, -2.248e-08
3583.6, -2.059e-08
3585.6, -2.108e-08
3587.6, -2.069e-08
3589.6, -2.359e-08
3591.6, -1.955e-08
3593.6, -1.891e-08
3595.6, -2.008e-08
3597.6, -2.227e-08
3599.6, -1.787e-08
3601.6, -2.152e-08
3603.6, -1.955e-08
3605.6, -2.326e-08
3607.6, -2.435e-08
3609.6, -2.521e-08
3611.6, -2.376e-08
3613.6, -2.28e-08
3615.6, -2.1e-08
3617.6, -2.207e-08
3619.6, -1.946e-08
3621.6, -1.719e-08
3623.6, -1.977e-08
3625.6, -2.106e-08
3627.6, -2.2e-08
3629.6, -2.133e-08
3631.6, -1.861e-08
3633.6, -1.798e-08
3635.6, -1.62e-08
3637.6, -1.437e-08
3639.6, -1.663e-08
3641.6, -1.808e-08
3643.6, -1.596e-08
3645.6, -1.874e-08
3647.6, -1.955e-08
3649.6, -1.786e-08
3651.6, -1.661e-08
3653.6, -2.024e-08
3655.7, -2.168e-08
3657.7, -1.896e-08
3659.7, -2.023e-08
3661.7, -1.836e-08
3663.7, -1.544e-08
3665.7, -1.389e-08
3667.7, -1.493e-08
3669.7, -1.709e-08
3671.7, -1.581e-08
3673.7, -1.767e-08
3675.7, -1.635e-08
3677.7, -1.583e-08
3679.7, -1.446e-08
3681.7, -1.565e-08
3683.7, -1.375e-08
3685.7, -2.025e-08
3687.7, -1.78e-08
3689.7, -1.81e-08
3691.7, -1.776e-08
3693.7, -1.847e-08
3695.7, -1.919e-08
3697.7, -1.99e-08
3699.7, -1.594e-08
3701.7, -2.119e-08
3703.7, -1.948e-08
3705.7, -1.787e-08
3707.7, -1.819e-08
3709.7, -2.005e-08
3711.7, -2.094e-08
3713.7, -2.105e-08
3715.7, -1.789e-08
3717.7, -1.695e-08
3719.7, -2.106e-08
3721.7, -1.615e-08
3723.7, -1.793e-08
3725.7, -1.797e-08
3727.7, -1.868e-08
3729.7, -1.787e-08
3731.7, -1.461e-08
3733.7, -2.03e-08
3735.7, -1.906e-08
3737.7, -1.886e-08
3739.7, -2.132e-08
3741.7, -1.703e-08
3743.7, -2.12e-08
3745.7, -1.942e-08
3747.7, -1.883e-08
3749.7, -1.949e-08
3751.7, -2.013e-08
3753.7, -2.229e-08
3755.8, -1.797e-08
3757.8, -2.092e-08
3759.8, -1.918e-08
3761.8, -1.832e-08
3763.8, -1.561e-08
3765.8, -1.8e-08
3767.8, -1.786e-08
3769.8, -1.987e-08
3771.8, -1.986e-08
3773.8, -2.122e-08
3775.8, -2.463e-08
3777.8, -2.169e-08
3779.8, -2.591e-08
3781.8, -2.048e-08
3783.8, -1.872e-08
3785.8, -2.212e-08
3787.8, -1.834e-08
3789.8, -2.038e-08
3791.8, -1.981e-08
3793.8, -2.114e-08
3795.8, -2.284e-08
3797.8, -2.176e-08
3799.8, -2.102e-08
3801.8, -2.087e-08
3803.8, -2.14e-08
3805.8, -2.266e-08
3807.8, -1.924e-08
3809.8, -2.081e-08
3811.8, -1.774e-08
3813.8, -1.834e-08
3815.8, -1.862e-08
3817.8, -2.08e-08
3819.8, -2.165e-08
3821.8, -2.125e-08
3823.8, -1.799e-08
3825.8, -1.792e-08
3827.8, -1.744e-08
3829.8, -2.161e-08
3831.8, -1.711e-08
3833.8, -1.441e-08
3835.8, -2.189e-08
3837.8, -1.39e-08
3839.8, -1.646e-08
3841.8, -1.728e-08
3843.8, -1.504e-08
3845.8, -1.648e-08
3847.8, -1.768e-08
3849.8, -1.685e-08
3851.8, -1.995e-08
3853.8, -1.947e-08
3855.9, -1.795e-08
3857.9, -1.563e-08
3859.9, -1.589e-08
3861.9, -1.772e-08
3863.9, -1.94e-08
3865.9, -1.948e-08
3867.9, -1.76e-08
3869.9, -1.861e-08
3871.9, -1.866e-08
3873.9, -1.73e-08
3875.9, -1.919e-08
3877.9, -2.007e-08
3879.9, -2.038e-08
3881.9, -1.914e-08
3883.9, -1.806e-08
3885.9, -2.218e-08
3887.9, -1.868e-08
3889.9, -1.783e-08
3891.9, -1.728e-08
3893.9, -1.842e-08
3895.9, -1.711e-08
3897.9, -1.771e-08
3899.9, -2.096e-08
3901.9, -2.358e-08
3903.9, -1.804e-08
3905.9, 2.8941e-07
3907.9, 2.3975e-07
3909.9, 2.4484e-07
3911.9, 2.7918e-07
3913.9, 3.0636e-07
3915.9, 2.8885e-07
3917.9, 2.5248e-07
3919.9, 2.8827e-07
3921.9, 2.6218e-07
3923.9, 2.8975e-07
3925.9, 3.1074e-07
3927.9, 2.846e-07
3929.9, 2.5432e-07
3931.9, 2.7202e-07
3933.9, 2.5108e-07
3935.9, 3.2556e-07
3937.9, 2.6651e-07
3939.9, 2.9925e-07
3941.9, 2.5612e-07
3943.9, 2.3204e-07
3945.9, 2.7565e-07
3947.9, 2.5883e-07
3949.9, 3.0308e-07
3951.9, 3.1206e-07
3953.9, 2.4593e-07
3956.0, 2.6442e-07
3958.0, 3.0223e-07
3960.0, 3.2619e-07
3962.0, 2.9196e-07
3964.0, 2.9894e-07
3966.0, 2.4963e-07
3968.0, 2.8095e-07
3970.0, 2.6461e-07
3972.0, 2.9854e-07
3974.0, 2.9036e-07
3976.0, 2.9758e-07
3978.0, 3.1033e-07
3980.0, 2.8397e-07
3982.0, 3.0483e-07
3984.0, 2.653e-07
3986.0, 3.2192e-07
3988.0, 2.6194e-07
3990.0, 2.4915e-07
3992.0, 3.1683e-07
3994.0, 3.0851e-07
3996.0, 3.107e-07
3998.0, 2.8171e-07
4000.0, 3.1183e-07
4002.0, 2.7224e-07
4004.0, 3.1703e-07
4006.0, 3.041e-07
4008.0, 2.9948e-07
4010.0, 3.0173e-07
4012.0, 3.0393e-07
4014.0, 3.2758e-07
4016.0, 3.0916e-07
4018.0, 2.9796e-07
4020.0, 2.9373e-07
4022.0, 3.3903e-07
4024.0, 2.551e-07
4026.0, 3.0192e-07
4028.0, 3.1241e-07
4030.0, 2.997e-07
4032.0, 3.4469e-07
4034.0, 2.7385e-07
4036.0, 2.8828e-07
4038.0, 3.2407e-07
4040.0, 2.7061e-07
4042.0, 3.3454e-07
4044.0, 3.3968e-07
4046.0, 2.856e-07
4048.0, 3.3427e-07
4050.0, 3.0001e-07
4052.0, 3.117e-07
4054.0, 3.2726e-07
4056.1, 3.0895e-07
4058.1, 2.8275e-07
4060.1, 3.0325e-07
4062.1, 3.0279e-07
4064.1, 2.9114e-07
4066.1, 3.114e-07
4068.1, 2.9771e-07
4070.1, 3.1153e-07
4072.1, 3.465e-07
4074.1, 3.2271e-07
4076.1, 2.8167e-07
4078.1, 3.3692e-07
4080.1, 2.8063e-07
4082.1, 3.366e-07
4084.1, 3.1195e-07
4086.1, 3.1568e-07
4088.1, 3.1763e-07
4090.1, 2.8879e-07
4092.1, 3.0048e-07
4094.1, 2.9534e-07
4096.1, 2.762e-07
4098.1, 3.238e-07
4100.1, 3.0745e-07
4102.1, 2.7089e-07
4104.1, 2.6436e-07
4106.1, 3.2719e-07
4108.1, 3.1537e-07
4110.1, 2.8831e-07
4112.1, 2.9621e-07
4114.1, 3.7946e-07
4116.1, 3.1405e-07
4118.1, 3.1409e-07
4120.1, 3.0704e-07
4122.1, 3.7664e-07
4124.1, 3.2859e-07
4126.1, 3.0632e-07
4128.1, 3.1045e-07
4130.1, 3.1668e-07
4132.1, 2.6875e-07
4134.1, 3.1943e-07
4136.1, 3.5085e-07
4138.1, 2.6388e-07
4140.1, 2.8205e-07
4142.1, 3.3062e-07
4144.1, 3.4272e-07
4146.1, 3.0166e-07
4148.1, 3.6457e-07
4150.1, 2.8058e-07
4152.1, 3.3881e-07
4154.1, 3.2392e-07
4156.2, 3.1705e-07
4158.2, 2.735e-07
4160.2, 3.0984e-07
4162.2, 3.0297e-07
4164.2, 3.4651e-07
4166.2, 3.228e-07
4168.2, 3.3665e-07
4170.2, 3.3803e-07
4172.2, 3.0078e-07
4174.2, 2.9786e-07
4176.2, 3.4741e-07
4178.2, 3.0082e-07
4180.2, 3.1358e-07
4182.2, 3.1321e-07
4184.2, 3.4114e-07
4186.2, 3.2905e-07
4188.2, 3.2129e-07
4190.2, 2.9886e-07
4192.2, 2.8045e-07
4194.2, 3.4018e-07
4196.2, 3.4122e-07
4198.2, 3.0394e-07
4200.2, 3.7056e-07
4202.2, 3.5656e-07
4204.2, 3.4683e-07
4206.2, 3.3347e-07
4208.2, 3.3237e-07
4210.2, 3.011e-07
4212.2, 3.1687e-07
4214.2, 3.1848e-07
4216.2, 3.4128e-07
4218.2, 3.0271e-07
4220.2, 3.2685e-07
4222.2, 2.8651e-07
4224.2, 3.2841e-07
4226.2, 3.3949e-07
4228.2, 3.0937e-07
4230.2, 3.3896e-07
4232.2, 3.1632e-07
4234.2, 3.5233e-07
4236.2, 2.8934e-07
4238.2, 3.2076e-07
4240.2, 3.5936e-07
4242.2, 2.9313e-07
4244.2, 3.4855e-07
4246.2, 3.3326e-07
4248.2, 3.2181e-07
4250.2, 2.5213e-07
4252.2, 2.926e-07
4254.2, 3.275e-07
4256.3, 3.5068e-07
4258.3, 3.3973e-07
4260.3, 2.8256e-07
4262.3, 3.313e-07
4264.3, 3.2508e-07
4266.3, 3.7548e-07
4268.3, 3.356e-07
4270.3, 2.9357e-07
4272.3, 3.5084e-07
4274.3, 3.0355e-07
4276.3, 3.4495e-07
4278.3, 3.1059e-07
4280.3, 2.8111e-07
4282.3, 3.1309e-07
4284.3, 3.5463e-07
4286.3, 3.0039e-07
4288.3, 3.7519e-07
4290.3, 3.2469e-07
4292.3, 3.3775e-07
4294.3, 3.1643e-07
4296.3, 3.2875e-07
4298.3, 3.2208e-07
4300.3, 2.9121e-07
4302.3, 3.2568e-07
4304.3, 3.3495e-07
4306.3, 3.3218e-07
4308.3, 3.3077e-07
4310.3, 2.999e-07
4312.3, 3.2843e-07
4314.3, 3.4073e-07
4316.3, 3.4068e-07
4318.3, 3.3404e-07
4320.3, 3.4635e-07
4322.3, 3.4774e-07
4324.3, 3.3342e-07
4326.3, 3.1568e-07
4328.3, 3.102e-07
4330.3, 3.6804e-07
4332.3, 3.5419e-07
4334.3, 3.544e-07
4336.3, 2.9727e-07
4338.3, 3.0425e-07
4340.3, 3.1107e-07
4342.3, 3.3622e-07
4344.3, 3.2482e-07
4346.3, 2.9552e-07
4348.3, 3.1102e-07
4350.3, 3.5317e-07
4352.3, 3.3918e-07
4354.3, 2.9892e-07
4356.4, 3.1566e-07
4358.4, 3.3744e-07
4360.4, 3.4644e-07
4362.4, 3.2153e-07
4364.4, 3.0857e-07
4366.4, 3.4096e-07
4368.4, 3.5063e-07
4370.4, 3.1473e-07
4372.4, 3.3107e-07
4374.4, 3.15e-07
4376.4, 3.3497e-07
4378.4, 3.1252e-07
4380.4, 3.3072e-07
4382.4, 3.5153e-07
4384.4, 3.0023e-07
4386.4, 3.0664e-07
4388.4, 3.028e-07
4390.4, 3.2453e-07
4392.4, 3.5016e-07
4394.4, 3.3273e-07
4396.4, 3.3363e-07
4398.4, 3.2937e-07
4400.4, 3.9224e-07
4402.4, 2.865e-07
4404.4, 3.2644e-07
4406.4, 2.6539e-07
4408.4, 3.6014e-07
4410.4, 3.5361e-07
4412.4, 3.149e-07
4414.4, 3.152e-07
4416.4, 3.5183e-07
4418.4, 3.4518e-07
4420.4, 3.5064e-07
4422.4, 3.1034e-07
4424.4, 3.4948e-07
4426.4, 3.7074e-07
4428.4, 3.7173e-07
4430.4, 3.4997e-07
4432.4, 3.8034e-07
4434.4, 3.2963e-07
4436.4, 2.9992e-07
4438.4, 3.9776e-07
4440.4, 3.2241e-07
4442.4, 3.4605e-07
4444.4, 3.3521e-07
4446.4, 3.2307e-07
4448.4, 3.272e-07
4450.4, 3.0256e-07
4452.4, 3.4339e-07
4454.4, 3.5006e-07
4456.5, 3.5891e-07
4458.5, 3.3194e-07
4460.5, 3.2337e-07
4462.5, 3.3348e-07
4464.5, 3.7669e-07
4466.5, 3.3786e-07
4468.5, 3.0094e-07
4470.5, 3.2302e-07
4472.5, 3.5468e-07
4474.5, 3.3383e-07
4476.5, 3.1529e-07
4478.5, 3.4656e-07
4480.5, 3.8756e-07
4482.5, 3.6675e-07
4484.5, 3.1923e-07
4486.5, 3.2873e-07
4488.5, 3.4008e-07
4490.5, 3.7181e-07
4492.5, 2.9824e-07
4494.5, 3.7044e-07
4496.5, 3.4347e-07
4498.5, 3.4375e-07
4500.5, 3.1445e-07
4502.5, 3.1137e-07
4504.5, 2.9573e-07
4506.5, 3.3561e-07
4508.5, 3.7325e-07
4510.5, 3.9678e-07
4512.5, 3.3915e-07
4514.5, 3.3071e-07
4516.5, 3.009e-07
4518.5, 3.1759e-07
4520.5, 3.4252e-07
4522.5, 2.9859e-07
4524.5, 3.4679e-07
4526.5, 3.3254e-07
4528.5, 3.3993e-07
4530.5, 3.1462e-07
4532.5, 3.3385e-07
4534.5, 3.3315e-07
4536.5, 2.8223e-07
4538.5, 3.1639e-07
4540.5, 3.2177e-07
4542.5, 3.212e-07
4544.5, 3.9446e-07
4546.5, 3.8331e-07
4548.5, 3.3096e-07
4550.5, 3.033e-07
4552.5, 3.7964e-07
4554.5, 3.1528e-07
4556.6, 3.0571e-07
4558.6, 3.5386e-07
4560.6, 3.3429e-07
4562.6, 3.7175e-07
4564.6, 3.3461e-07
4566.6, 2.8766e-07
4568.6, 3.4238e-07
4570.6, 2.9813e-07
4572.6, 3.4815e-07
4574.6, 2.7886e-07
4576.6, 3.1607e-07
4578.6, 3.8734e-07
4580.6, 3.2485e-07
4582.6, 2.9724e-07
4584.6, 3.8299e-07
4586.6, 3.4219e-07
4588.6, 2.9699e-07
4590.6, 3.2773e-07
4592.6, 3.7469e-07
4594.6, 3.0405e-07
4596.6, 3.4396e-07
4598.6, 3.44e-07
4600.6, 3.7563e-07
4602.6, 3.3126e-07
4604.6, 3.8974e-07
4606.6, 3.7204e-07
4608.6, 2.9956e-07
4610.6, 3.2321e-07
4612.6, 3.5002e-07
4614.6, 3.4035e-07
4616.6, 3.3648e-07
4618.6, 3.6988e-07
4620.6, 2.9875e-07
4622.6, 3.7133e-07
4624.6, 3.3108e-07
4626.6, 3.3204e-07
4628.6, 3.4689e-07
4630.6, 3.9033e-07
4632.6, 3.4331e-07
4634.6, 3.5791e-07
4636.6, 3.3992e-07
4638.6, 3.5068e-07
4640.6, 2.9359e-07
4642.6, 2.9759e-07
4644.6, 3.262e-07
4646.6, 3.4738e-07
4648.6, 3.3623e-07
4650.6, 3.263e-07
4652.6, 3.0803e-07
4654.6, 3.1138e-07
4656.7, 3.3003e-07
4658.7, 3.1837e-07
4660.7, 3.2624e-07
4662.7, 3.4191e-07
4664.7, 2.8054e-07
4666.7, 3.2256e-07
4668.7, 3.4414e-07
4670.7, 3.6033e-07
4672.7, 3.484e-07
4674.7, 3.0432e-07
4676.7, 3.2962e-07
4678.7, 3.6013e-07
4680.7, 3.2882e-07
4682.7, 3.1386e-07
4684.7, 3.5064e-07
4686.7, 3.3304e-07
4688.7, 3.7641e-07
4690.7, 3.055e-07
4692.7, 3.4975e-07
4694.7, 3.356e-07
4696.7, 3.1492e-07
4698.7, 3.7628e-07
4700.7, 3.4697e-07
4702.7, 3.533e-07
4704.7, 3.3048e-07
4706.7, 3.3337e-07
4708.7, 3.493e-07
4710.7, 3.9314e-07
4712.7, 3.171e-07
4714.7, 3.5746e-07
4716.7, 2.9996e-07
4718.7, 3.4423e-07
4720.7, 3.3848e-07
4722.7, 3.7138e-07
4724.7, 3.1185e-07
4726.7, 3.5134e-07
4728.7, 3.0465e-07
4730.7, 3.4411e-07
4732.7, 3.6487e-07
4734.7, 3.6518e-07
4736.7, 3.4908e-07
4738.7, 3.3991e-07
4740.7, 3.2715e-07
4742.7, 3.5262e-07
4744.7, 3.4899e-07
4746.7, 3.3018e-07
4748.7, 3.2104e-07
4750.7, 3.1926e-07
4752.7, 3.267e-07
4754.7, 3.3668e-07
4756.8, 3.3379e-07
4758.8, 3.0677e-07
4760.8, 3.5639e-07
4762.8, 3.3531e-07
4764.8, 3.4141e-07
4766.8, 3.3378e-07
4768.8, 3.925e-07
4770.8, 3.3125e-07
4772.8, 3.3611e-07
4774.8, 3.5676e-07
4776.8, 3.5973e-07
4778.8, 3.3614e-07
4780.8, 3.3874e-07
4782.8, 3.0576e-07
4784.8, 3.4412e-07
4786.8, 3.2437e-07
4788.8, 3.3877e-07
4790.8, 2.8461e-07
4792.8, 3.2834e-07
4794.8, 3.369e-07
4796.8, 3.4713e-07
4798.8, 3.1808e-07
4800.8, 3.7865e-07
4802.8, 3.79e-07
4804.8, 3.4829e-07
4806.8, 3.5677e-07
4808.8, 3.6813e-07
4810.8, 3.517e-07
4812.8, 3.5482e-07
4814.8, 3.2708e-07
4816.8, 3.3743e-07
4818.8, 3.2984e-07
4820.8, 3.2238e-07
4822.8, 3.1363e-07
4824.8, 3.1284e-07
4826.8, 3.4713e-07
4828.8, 3.1987e-07
4830.8, 3.1914e-07
4832.8, 3.5877e-07
4834.8, 3.2401e-07
4836.8, 3.6806e-07
4838.8, 3.1414e-07
4840.8, 3.7786e-07
4842.8, 3.4831e-07
4844.8, 3.4974e-07
4846.8, 3.4741e-07
4848.8, 2.9893e-07
4850.8, 3.7726e-07
4852.8, 3.1992e-07
4854.8, 3.265e-07
4856.9, 3.4284e-07
4858.9, 3.022e-07
4860.9, 3.2399e-07
4862.9, 3.3532e-07
4864.9, 3.48e-07
4866.9, 3.5296e-07
4868.9, 3.3754e-07
4870.9, 3.5782e-07
4872.9, 3.4037e-07
4874.9, 3.4393e-07
4876.9, 3.3884e-07
4878.9, 3.2996e-07
4880.9, 3.0854e-07
4882.9, 3.1645e-07
4884.9, 2.9806e-07
4886.9, 3.5663e-07
4888.9, 3.3099e-07
4890.9, 3.4289e-07
4892.9, 3.0488e-07
4894.9, 3.6444e-07
4896.9, 3.623e-07
4898.9, 3.8572e-07
4900.9, 3.5515e-07
4902.9, 3.543e-07
4904.9, 3.3844e-07
4906.9, -2.173e-08
4908.9, -2.216e-08
4910.9, -2.274e-08
4912.9, -2.17e-08
4914.9, -2.013e-08
4916.9, -2.205e-08
4918.9, -1.974e-08
4920.9, -1.742e-08
4922.9, -1.866e-08
4924.9, -1.553e-08
4926.9, -2.122e-08
4928.9, -1.964e-08
4930.9, -2.198e-08
4932.9, -1.845e-08
4934.9, -1.86e-08
4936.9, -1.878e-08
4938.9, -2.401e-08
4940.9, -2e-08
4942.9, -2.067e-08
4944.9, -2.376e-08
4946.9, -2.183e-08
4948.9, -1.949e-08
4950.9, -1.889e-08
4952.9, -1.896e-08
4954.9, -1.639e-08
4957.0, -1.803e-08
4959.0, -1.687e-08
4961.0, -1.916e-08
4963.0, -1.989e-08
4965.0, -1.87e-08
4967.0, -1.788e-08
4969.0, -1.914e-08
4971.0, -2.027e-08
4973.0, -1.807e-08
4975.0, -2.019e-08
4977.0, -2.075e-08
4979.0, -1.979e-08
4981.0, -2.271e-08
4983.0, -2.078e-08
4985.0, -2.037e-08
4987.0, -2.204e-08
4989.0, -2.281e-08
4991.0, -2.404e-08
4993.0, -2.071e-08
4995.0, -1.555e-08
4997.0, -1.44e-08
4999.0, -1.807e-08
5001.0, -1.899e-08
5003.0, -2.139e-08
5005.0, -1.905e-08
5007.0, -1.88e-08
5009.0, -2.28e-08
5011.0, -2.046e-08
5013.0, -2.562e-08
5015.0, -2.316e-08
5017.0, -2.386e-08
5019.0, -2.494e-08
5021.0, -2.376e-08
5023.0, -2.181e-08
5025.0, -1.808e-08
5027.0, -1.749e-08
5029.0, -1.52e-08
5031.0, -2.14e-08
5033.0, -2.236e-08
5035.0, -2.387e-08
5037.0, -2.146e-08
5039.0, -2.407e-08
5041.0, -2.28e-08
5043.0, -2.496e-08
5045.0, -2.245e-08
5047.0, -1.915e-08
5049.0, -2.079e-08
5051.0, -2.263e-08
5053.0, -2.702e-08
5055.0, -2.137e-08
5057.1, -2.379e-08
5059.1, -2.138e-08
5061.1, -1.937e-08
5063.1, -2.041e-08
5065.1, -1.88e-08
5067.1, -2.247e-08
5069.1, -1.78e-08
5071.1, -1.722e-08
5073.1, -1.808e-08
5075.1, -2.145e-08
5077.1, -2.084e-08
5079.1, -2.144e-08
5081.1, -1.894e-08
5083.1, -2.199e-08
5085.1, -1.88e-08
5087.1, -2.342e-08
5089.1, -1.972e-08
5091.1, -2.064e-08
5093.1, -2.398e-08
5095.1, -2.035e-08
5097.1, -1.981e-08
5099.1, -1.463e-08
5101.1, -1.983e-08
5103.1, -1.771e-08
5105.1, -1.722e-08
5107.1, -1.996e-08
5109.1, -2.015e-08
5111.1, -2.218e-08
5113.1, -2.148e-08
5115.1, -1.859e-08
5117.1, -2.012e-08
5119.1, -1.82e-08
5121.1, -2.196e-08
5123.1, -2.371e-08
5125.1, -2.125e-08
5127.1, -2.058e-08
5129.1, -2.205e-08
5131.1, -2.1e-08
5133.1, -2.092e-08
5135.1, -2.109e-08
5137.1, -1.826e-08
5139.1, -2.094e-08
5141.1, -1.867e-08
5143.1, -2.077e-08
5145.1, -1.987e-08
5147.1, -1.79e-08
5149.1, -1.92e-08
5151.1, -1.806e-08
5153.1, -2.378e-08
5155.1, -1.825e-08
5157.2, -1.808e-08
5159.2, -1.947e-08
5161.2, -2.377e-08
5163.2, -2.174e-08
5165.2, -1.938e-08
5167.2, -2.246e-08
5169.2, -2.083e-08
5171.2, -2.497e-08
5173.2, -2.11e-08
5175.2, -2.102e-08
5177.2, -1.84e-08
5179.2, -2.327e-08
5181.2, -2.276e-08
5183.2, -1.932e-08
5185.2, -2.193e-08
5187.2, -2.006e-08
5189.2, -1.813e-08
5191.2, -2.182e-08
5193.2, -2.16e-08
5195.2, -2.458e-08
5197.2, -2.409e-08
5199.2, -2.134e-08
5201.2, -2.374e-08
5203.2, -2.359e-08
5205.2, -2.268e-08
5207.2, -2.249e-08
5209.2, -2.227e-08
5211.2, -2.211e-08
5213.2, -2.402e-08
5215.2, -2.406e-08
5217.2, -2.319e-08
5219.2, -2.381e-08
5221.2, -1.924e-08
5223.2, -2.43e-08
5225.2, -2.364e-08
5227.2, -2.156e-08
5229.2, -2.079e-08
5231.2, -2.002e-08
5233.2, -1.977e-08
5235.2, -1.937e-08
5237.2, -1.829e-08
5239.2, -2.195e-08
5241.2, -2.03e-08
5243.2, -2.108e-08
5245.2, -1.494e-08
5247.2, -1.729e-08
5249.2, -2.08e-08
5251.2, -2.313e-08
5253.2, -2.324e-08
5255.2, -2.513e-08
5257.3, -2.372e-08
5259.3, -2.44e-08
5261.3, -2.197e-08
5263.3, -2.277e-08
5265.3, -2.041e-08
5267.3, -1.968e-08
5269.3, -2.438e-08
5271.3, -2.585e-08
5273.3, -2.301e-08
5275.3, -2.841e-08
5277.3, -2.526e-08
5279.3, -2.688e-08
5281.3, -2.578e-08
5283.3, -2.6e-08
5285.3, -2.361e-08
5287.3, -2.074e-08
5289.3, -2.245e-08
5291.3, -2.013e-08
5293.3, -2.201e-08
5295.3, -2.466e-08
5297.3, -2.529e-08
5299.3, -2.151e-08
5301.3, -2.433e-08
5303.3, -2.462e-08
5305.3, -2.418e-08
5307.3, -2.562e-08
5309.3, -2.308e-08
5311.3, -2.271e-08
5313.3, -2.494e-08
5315.3, -2.394e-08
5317.3, -2.032e-08
5319.3, -2.028e-08
5321.3, -2.095e-08
5323.3, -2.3e-08
5325.3, -2.038e-08
5327.3, -2.225e-08
5329.3, -2.135e-08
5331.3, -2.143e-08
5333.3, -1.363e-08
5335.3, -1.807e-08
5337.3, -2.051e-08
5339.3, -2.199e-08
5341.3, -1.812e-08
5343.3, -1.811e-08
5345.3, -1.812e-08
5347.3, -1.955e-08
5349.3, -1.886e-08
5351.3, -1.904e-08
5353.3, -1.921e-08
5355.3, -2.188e-08
5357.4, -2.132e-08
5359.4, -2.128e-08
5361.4, -1.986e-08
5363.4, -2.099e-08
5365.4, -1.857e-08
5367.4, -1.759e-08
5369.4, -2.067e-08
5371.4, -1.783e-08
5373.4, -1.825e-08
5375.4, -1.838e-08
5377.4, -1.884e-08
5379.4, -2.308e-08
5381.4, -1.976e-08
5383.4, -1.934e-08
5385.4, -2.169e-08
5387.4, -2.2e-08
5389.4, -2.192e-08
5391.4, -2.314e-08
5393.4, -2.172e-08
5395.4, -2.331e-08
5397.4, -2.206e-08
5399.4, -2.291e-08
5401.4, -2.065e-08
5403.4, -1.922e-08
5405.4, -1.889e-08
5407.4, -2.188e-08
5409.4, -1.873e-08
5411.4, -2.365e-08
5413.4, -2.02e-08
5415.4, -1.954e-08
5417.4, -1.994e-08
5419.4, -2.243e-08
5421.4, -2.352e-08
5423.4, -2.248e-08
5425.4, -2.046e-08
5427.4, -2.228e-08
5429.4, -2.069e-08
5431.4, -2.329e-08
5433.4, -1.828e-08
5435.4, -2.212e-08
5437.4, -2.043e-08
5439.4, -2.348e-08
5441.4, -2.273e-08
5443.4, -2.311e-08
5445.4, -2.414e-08
5447.4, -2.058e-08
5449.4, -2.389e-08
5451.4, -1.889e-08
5453.4, -2.235e-08
5455.4, -2.017e-08
5457.5, -1.89e-08
5459.5, -1.772e-08
5461.5, -1.925e-08
5463.5, -1.876e-08
5465.5, -1.973e-08
5467.5, -1.765e-08
5469.5, -1.843e-08
5471.5, -1.371e-08
5473.5, -2.042e-08
5475.5, -1.872e-08
5477.5, -2.018e-08
5479.5, -2.049e-08
5481.5, -2.137e-08
5483.5, -2.281e-08
5485.5, -1.951e-08
5487.5, -2.08e-08
5489.5, -1.828e-08
5491.5, -1.958e-08
5493.5, -1.898e-08
5495.5, -2.015e-08
5497.5, -1.926e-08
5499.5, -1.999e-08
5501.5, -1.808e-08
5503.5, -1.89e-08
5505.5, -1.86e-08
5507.5, -1.869e-08
5509.5, -1.893e-08
5511.5, -1.853e-08
5513.5, -2.242e-08
5515.5, -2.181e-08
5517.5, -2.188e-08
5519.5, -1.899e-08
5521.5, -1.972e-08
5523.5, -1.913e-08
5525.5, -1.756e-08
5527.5, -1.754e-08
5529.5, -1.455e-08
5531.5, -1.354e-08
5533.5, -1.738e-08
5535.5, -1.542e-08
5537.5, -1.406e-08
5539.5, -1.563e-08
5541.5, -1.793e-08
5543.5, -1.57e-08
5545.5, -1.365e-08
5547.5, -1.842e-08
5549.5, -1.797e-08
5551.5, -1.871e-08
5553.5, -1.504e-08
5555.5, -1.704e-08
5557.6, -1.529e-08
5559.6, -1.836e-08
5561.6, -1.882e-08
5563.6, -1.609e-08
5565.6, -1.961e-08
5567.6, -1.824e-08
5569.6, -2.07e-08
5571.6, -2.246e-08
5573.6, -1.905e-08
5575.6, -1.878e-08
5577.6, -1.829e-08
5579.6, -2.415e-08
5581.6, -2.013e-08
5583.6, -1.655e-08
5585.6, -1.747e-08
5587.6, -1.909e-08
5589.6, -1.468e-08
5591.6, -1.951e-08
5593.6, -2.107e-08
5595.6, -1.6e-08
5597.6, -1.729e-08
5599.6, -1.929e-08
5601.6, -1.969e-08
5603.6, -2.027e-08
5605.6, -2.165e-08
5607.6, -1.896e-08
5609.6, -1.988e-08
5611.6, -1.543e-08
5613.6, -1.939e-08
5615.6, -1.811e-08
5617.6, -1.458e-08
5619.6, -1.724e-08
5621.6, -1.835e-08
5623.6, -1.83e-08
5625.6, -1.71e-08
5627.6, -1.585e-08
5629.6, -1.348e-08
5631.6, -1.855e-08
5633.6, -1.888e-08
5635.6, -1.578e-08
5637.6, -1.844e-08
5639.6, -1.98e-08
5641.6, -2.09e-08
5643.6, -1.669e-08
5645.6, -1.875e-08
5647.6, -2.104e-08
5649.6, -2.004e-08
5651.6, -2.119e-08
5653.6, -1.697e-08
5655.6, -1.88e-08
5657.7, -1.992e-08
5659.7, -1.379e-08
5661.7, -1.734e-08
5663.7, -1.601e-08
5665.7, -1.651e-08
5667.7, -1.628e-08
5669.7, -1.342e-08
5671.7, -1.469e-08
5673.7, -1.555e-08
5675.7, -1.282e-08
5677.7, -1.209e-08
5679.7, -1.395e-08
5681.7, -1.65e-08
5683.7, -1.737e-08
5685.7, -1.788e-08
5687.7, -2.121e-08
5689.7, -1.917e-08
5691.7, -1.71e-08
5693.7, -1.672e-08
5695.7, -1.331e-08
5697.7, -1.654e-08
5699.7, -1.643e-08
5701.7, -1.343e-08
5703.7, -1.471e-08
5705.7, -1.885e-08
5707.7, -1.802e-08
5709.7, -1.604e-08
5711.7, -1.93e-08
5713.7, -2.069e-08
5715.7, -2.035e-08
5717.7, -1.659e-08
5719.7, -2.046e-08
5721.7, -1.841e-08
5723.7, -1.772e-08
5725.7, -1.625e-08
5727.7, -1.849e-08
5729.7, -1.93e-08
5731.7, -1.445e-08
5733.7, -1.501e-08
5735.7, -1.486e-08
5737.7, -1.706e-08
5739.7, -1.478e-08
5741.7, -1.193e-08
5743.7, -1.8e-08
5745.7, -1.813e-08
5747.7, -1.917e-08
5749.7, -1.536e-08
5751.7, -1.828e-08
5753.7, -1.92e-08
5755.7, -1.749e-08
5757.8, -1.427e-08
5759.8, -1.894e-08
5761.8, -1.796e-08
5763.8, -2.022e-08
5765.8, -1.656e-08
5767.8, -1.751e-08
5769.8, -1.947e-08
5771.8, -1.741e-08
5773.8, -1.61e-08
5775.8, -2.034e-08
5777.8, -1.973e-08
5779.8, -1.171e-08
5781.8, -1.705e-08
5783.8, -1.391e-08
5785.8, -1.593e-08
5787.8, -1.168e-08
5789.8, -1.679e-08
5791.8, -1.569e-08
5793.8, -1.447e-08
5795.8, -1.975e-08
5797.8, -1.744e-08
5799.8, -1.381e-08
5801.8, -1.647e-08
5803.8, -1.849e-08
5805.8, -2.017e-08
5807.8, -1.968e-08
5809.8, -1.994e-08
5811.8, -1.818e-08
5813.8, -1.988e-08
5815.8, -1.731e-08
5817.8, -2.015e-08
5819.8, -1.765e-08
5821.8, -2.165e-08
5823.8, -2.011e-08
5825.8, -1.678e-08
5827.8, -1.719e-08
5829.8, -1.418e-08
5831.8, -1.475e-08
5833.8, -1.534e-08
5835.8, -1.979e-08
5837.8, -1.639e-08
5839.8, -1.568e-08
5841.8, -2.059e-08
5843.8, -1.73e-08
5845.8, -1.533e-08
5847.8, -1.916e-08
5849.8, -1.86e-08
5851.8, -1.503e-08
5853.8, -2.095e-08
5855.8, -2.093e-08
5857.9, -1.897e-08
5859.9, -2.422e-08
5861.9, -2.004e-08
5863.9, -1.98e-08
5865.9, -1.762e-08
5867.9, -1.456e-08
5869.9, -1.857e-08
5871.9, -1.604e-08
5873.9, -1.512e-08
5875.9, -2.018e-08
5877.9, -1.913e-08
5879.9, -1.847e-08
5881.9, -1.903e-08
5883.9, -2.129e-08
5885.9, -2.123e-08
5887.9, -1.548e-08
5889.9, -1.758e-08
5891.9, -1.875e-08
5893.9, -2.166e-08
5895.9, -1.741e-08
5897.9, -1.636e-08
5899.9, -1.869e-08
5901.9, -1.964e-08
5903.9, -1.651e-08
5905.9, -1.882e-08
5907.9, -1.856e-08
5909.9, -1.743e-08
5911.9, -1.882e-08
5913.9, -2.069e-08
5915.9, -1.348e-08
5917.9, -1.662e-08
5919.9, -1.777e-08
5921.9, -1.678e-08
5923.9, -1.747e-08
5925.9, -1.799e-08
5927.9, -1.693e-08
5929.9, -1.926e-08
5931.9, -1.618e-08
5933.9, -1.987e-08
5935.9, -1.786e-08
5937.9, -1.712e-08
5939.9, -1.641e-08
5941.9, -1.683e-08
5943.9, -1.894e-08
5945.9, -2.299e-08
5947.9, -2.166e-08
5949.9, -2.06e-08
5951.9, -2.07e-08
5953.9, -1.744e-08
5955.9, -1.879e-08
5958.0, -1.811e-08
5960.0, -2.229e-08
5962.0, -1.914e-08
5964.0, -2.136e-08
5966.0, -2.138e-08
5968.0, -1.966e-08
5970.0, -1.928e-08
5972.0, -1.976e-08
5974.0, -1.973e-08
5976.0, -2.253e-08
5978.0, -2.214e-08
5980.0, -2.088e-08
5982.0, -2.437e-08
5984.0, -2.115e-08
5986.0, -2.191e-08
5988.0, -2.367e-08
5990.0, -1.833e-08
5992.0, -1.858e-08
5994.0, -2.121e-08
5996.0, -1.507e-08
5998.0, -1.637e-08
6000.0, -1.667e-08
6002.0, -1.697e-08
6004.0, -1.989e-08
6006.0, -1.801e-08
6008.0, -1.636e-08
6010.0, -1.889e-08
6012.0, -2.207e-08
6014.0, -1.874e-08
6016.0, -1.401e-08
6018.0, -1.266e-08
6020.0, -1.71e-08
6022.0, -2.151e-08
6024.0, -1.839e-08
6026.0, -1.946e-08
6028.0, -1.518e-08
6030.0, -1.613e-08
6032.0, -1.906e-08
6034.0, -1.622e-08
6036.0, -1.683e-08
6038.0, -1.833e-08
6040.0, -1.618e-08
6042.0, -1.852e-08
6044.0, -1.774e-08
6046.0, -1.501e-08
6048.0, -1.53e-08
6050.0, -1.508e-08
6052.0, -1.835e-08
6054.0, -1.793e-08
6056.0, -1.787e-08
6058.1, -2.086e-08
6060.1, -2.054e-08
6062.1, -1.666e-08
6064.1, -1.887e-08
6066.1, -2.28e-08
6068.1, -1.789e-08
6070.1, -1.796e-08
6072.1, -1.847e-08
6074.1, -1.821e-08
6076.1, -1.414e-08
6078.1, -1.7e-08
6080.1, -1.891e-08
6082.1, -1.663e-08
6084.1, -1.93e-08
6086.1, -1.784e-08
6088.1, -1.974e-08
6090.1, -1.663e-08
6092.1, -2.279e-08
6094.1, -2.188e-08
6096.1, -1.922e-08
6098.1, -1.921e-08
6100.1, -1.982e-08
6102.1, -2.42e-08
6104.1, -2.356e-08
6106.1, -2.452e-08
6108.1, -2.259e-08
6110.1, -2.232e-08
6112.1, -2.228e-08
6114.1, -2.309e-08
6116.1, -2.183e-08
6118.1, -2.267e-08
6120.1, 1.531e-07
6122.1, 2.5251e-07
6124.1, 2.6827e-07
6126.1, 3.2631e-07
6128.1, 2.5475e-07
6130.1, 3.1082e-07
6132.1, 2.6221e-07
6134.1, 2.878e-07
6136.1, 2.5368e-07
6138.1, 2.9392e-07
6140.1, 2.5567e-07
6142.1, 2.4951e-07
6144.1, 2.7994e-07
6146.1, 2.5894e-07
6148.1, 2.7229e-07
6150.1, 2.6256e-07
6152.1, 2.8709e-07
6154.1, 3.1347e-07
6156.1, 2.7572e-07
6158.2, 2.6487e-07
6160.2, 2.8575e-07
6162.2, 2.1856e-07
6164.2, 3.2402e-07
6166.2, 2.5423e-07
6168.2, 3.3904e-07
6170.2, 2.7116e-07
6172.2, 2.6382e-07
6174.2, 2.7613e-07
6176.2, 3.1061e-07
6178.2, 2.7276e-07
6180.2, 2.8175e-07
6182.2, 2.8922e-07
6184.2, 3.3191e-07
6186.2, 2.896e-07
6188.2, 2.9735e-07
6190.2, 2.8371e-07
6192.2, 2.7509e-07
6194.2, 2.767e-07
6196.2, 3.1237e-07
6198.2, 2.8968e-07
6200.2, 2.9681e-07
6202.2, 3.0695e-07
6204.2, 3.0059e-07
6206.2, 3.163e-07
6208.2, 3.2229e-07
6210.2, 2.6853e-07
6212.2, 3.1213e-07
6214.2, 2.6417e-07
6216.2, 2.4036e-07
6218.2, 3.2476e-07
6220.2, 2.9739e-07
6222.2, 3.1743e-07
6224.2, 3.3346e-07
6226.2, 2.9413e-07
6228.2, 3.3112e-07
6230.2, 2.8367e-07
6232.2, 2.7749e-07
6234.2, 3.3521e-07
6236.2, 3.0985e-07
6238.2, 2.8545e-07
6240.2, 2.9236e-07
6242.2, 2.6679e-07
6244.2, 3.1218e-07
6246.2, 3.5182e-07
6248.2, 2.736e-07
6250.2, 3.0797e-07
6252.2, 2.7023e-07
6254.2, 3.3184e-07
6256.2, 3.0017e-07
6258.3, 3.0266e-07
6260.3, 3.1384e-07
6262.3, 2.8286e-07
6264.3, 3.1701e-07
6266.3, 3.0621e-07
6268.3, 3.0314e-07
6270.3, 3.2148e-07
6272.3, 3.1054e-07
6274.3, 2.7766e-07
6276.3, 3.0892e-07
6278.3, 2.9619e-07
6280.3, 2.635e-07
6282.3, 2.7782e-07
6284.3, 2.8622e-07
6286.3, 2.8238e-07
6288.3, 3.0253e-07
6290.3, 2.9498e-07
6292.3, 3.2387e-07
6294.3, 3.1634e-07
6296.3, 3.0082e-07
6298.3, 3.2646e-07
6300.3, 2.779e-07
6302.3, 2.9597e-07
6304.3, 3.0863e-07
6306.3, 2.9499e-07
6308.3, 3.3078e-07
6310.3, 2.9439e-07
6312.3, 3.2247e-07
6314.3, 3.4763e-07
6316.3, 2.9245e-07
6318.3, 2.9827e-07
6320.3, 3.0748e-07
6322.3, 3.2502e-07
6324.3, 3.1354e-07
6326.3, 3.3249e-07
6328.3, 2.9256e-07
6330.3, 2.8644e-07
6332.3, 2.6504e-07
6334.3, 2.9039e-07
6336.3, 3.0434e-07
6338.3, 3.0149e-07
6340.3, 3.0643e-07
6342.3, 3.1085e-07
6344.3, 3.2507e-07
6346.3, 3.4748e-07
6348.3, 3.5776e-07
6350.3, 3.126e-07
6352.3, 3.0604e-07
6354.3, 3.2916e-07
6356.3, 2.9522e-07
6358.4, 3.1681e-07
6360.4, 3.3159e-07
6362.4, 3.4757e-07
6364.4, 3.5245e-07
6366.4, 3.3516e-07
6368.4, 3.0305e-07
6370.4, 2.9037e-07
6372.4, 2.8183e-07
6374.4, 2.8237e-07
6376.4, 3.3477e-07
6378.4, 2.881e-07
6380.4, 2.9531e-07
6382.4, 3.2768e-07
6384.4, 3.2587e-07
6386.4, 2.9324e-07
6388.4, 3.1228e-07
6390.4, 2.986e-07
6392.4, 3.0827e-07
6394.4, 3.5822e-07
6396.4, 3.2939e-07
6398.4, 3.4738e-07
6400.4, 3.2262e-07
6402.4, 2.9403e-07
6404.4, 3.1152e-07
6406.4, 3.0682e-07
6408.4, 3.3116e-07
6410.4, 3.3725e-07
6412.4, 2.9492e-07
6414.4, 3.2053e-07
6416.4, 3.3508e-07
6418.4, 2.8818e-07
6420.4, 3.2997e-07
6422.4, 3.078e-07
6424.4, 3.248e-07
6426.4, 2.4827e-07
6428.4, 3.1807e-07
6430.4, 2.9703e-07
6432.4, 3.0864e-07
6434.4, 2.8915e-07
6436.4, 3.3404e-07
6438.4, 3.694e-07
6440.4, 2.7077e-07
6442.4, 3.4691e-07
6444.4, 3.3178e-07
6446.4, 3.2588e-07
6448.4, 3.5289e-07
6450.4, 3.2191e-07
6452.4, 3.2947e-07
6454.4, 3.8578e-07
6456.4, 2.8406e-07
6458.5, 3.8141e-07
6460.5, 3.5334e-07
6462.5, 3.4081e-07
6464.5, 3.401e-07
6466.5, 3.332e-07
6468.5, 3.328e-07
6470.5, 3.8989e-07
6472.5, 3.0196e-07
6474.5, 3.9234e-07
6476.5, 2.657e-07
6478.5, 3.3676e-07
6480.5, 3.1988e-07
6482.5, 3.8527e-07
6484.5, 3.2097e-07
6486.5, 3.4674e-07
6488.5, 3.4275e-07
6490.5, 3.5171e-07
6492.5, 3.5016e-07
6494.5, 3.3932e-07
6496.5, 3.2173e-07
6498.5, 3.5741e-07
6500.5, 3.0679e-07
6502.5, 3.8135e-07
6504.5, 3.0616e-07
6506.5, 3.3222e-07
6508.5, 3.6389e-07
6510.5, 3.1312e-07
6512.5, 3.2017e-07
6514.5, 2.8582e-07
6516.5, 3.482e-07
6518.5, 2.7924e-07
6520.5, 3.1664e-07
6522.5, 3.1237e-07
6524.5, 3.028e-07
6526.5, 3.1776e-07
6528.5, 3.2186e-07
6530.5, 3.1723e-07
6532.5, 3.1837e-07
6534.5, 3.1001e-07
6536.5, 3.6264e-07
6538.5, 3.4212e-07
6540.5, 3.009e-07
6542.5, 3.2957e-07
6544.5, 2.9661e-07
6546.5, 3.3194e-07
6548.5, 3.3367e-07
6550.5, 3.8825e-07
6552.5, 3.1246e-07
6554.5, 3.3746e-07
6556.5, 3.7062e-07
6558.6, 3.2544e-07
6560.6, 2.9323e-07
6562.6, 3.6212e-07
6564.6, 3.1103e-07
6566.6, 3.3956e-07
6568.6, 3.3222e-07
6570.6, 3.3379e-07
6572.6, 3.7787e-07
6574.6, 3.4368e-07
6576.6, 3.074e-07
6578.6, 3.3177e-07
6580.6, 3.233e-07
6582.6, 3.4024e-07
6584.6, 3.5866e-07
6586.6, 2.8242e-07
6588.6, 3.5768e-07
6590.6, 3.45e-07
6592.6, 3.4247e-07
6594.6, 3.3935e-07
6596.6, 3.2522e-07
6598.6, 3.4626e-07
6600.6, 3.1467e-07
6602.6, 3.2489e-07
6604.6, 3.4436e-07
6606.6, 3.3407e-07
6608.6, 3.5442e-07
6610.6, 3.3735e-07
6612.6, 3.4438e-07
6614.6, 3.2859e-07
6616.6, 3.4947e-07
6618.6, 3.441e-07
6620.6, 3.3324e-07
6622.6, 3.0835e-07
6624.6, 3.5692e-07
6626.6, 2.991e-07
6628.6, 3.267e-07
6630.6, 3.3032e-07
6632.6, 2.8728e-07
6634.6, 3.0435e-07
6636.6, 3.2689e-07
6638.6, 3.4548e-07
6640.6, 3.5749e-07
6642.6, 3.3128e-07
6644.6, 3.143e-07
6646.6, 3.1552e-07
6648.6, 3.3216e-07
6650.6, 3.1537e-07
6652.6, 3.385e-07
6654.6, 3.6513e-07
6656.6, 3.4267e-07
6658.7, 3.1973e-07
6660.7, 3.4495e-07
6662.7, 3.0708e-07
6664.7, 2.937e-07
6666.7, 3.4457e-07
6668.7, 3.235e-07
6670.7, 3.7027e-07
6672.7, 3.1515e-07
6674.7, 3.3546e-07
6676.7, 3.2588e-07
6678.7, 3.1449e-07
6680.7, 3.3302e-07
6682.7, 2.8789e-07
6684.7, 3.0559e-07
6686.7, 3.133e-07
6688.7, 3.1042e-07
6690.7, 3.4892e-07
6692.7, 3.1508e-07
6694.7, 3.3919e-07
6696.7, 3.2225e-07
6698.7, 3.3777e-07
6700.7, 3.2835e-07
6702.7, 3.2257e-07
6704.7, 3.3736e-07
6706.7, 3.1131e-07
6708.7, 3.4875e-07
6710.7, 3.2139e-07
6712.7, 3.317e-07
6714.7, 2.6261e-07
6716.7, 3.6078e-07
6718.7, 3.6389e-07
6720.7, 3.5626e-07
6722.7, 2.9954e-07
6724.7, 3.5557e-07
6726.7, 3.308e-07
6728.7, 3.1676e-07
6730.7, 3.5133e-07
6732.7, 3.1652e-07
6734.7, 3.6816e-07
6736.7, 3.2891e-07
6738.7, 3.2964e-07
6740.7, 3.508e-07
6742.7, 2.9784e-07
6744.7, 2.852e-07
6746.7, 3.2331e-07
6748.7, 2.7109e-07
6750.7, 3.2042e-07
6752.7, 3.3028e-07
6754.7, 3.2929e-07
6756.7, 3.5943e-07
6758.8, 3.567e-07
6760.8, 3.2318e-07
6762.8, 3.1032e-07
6764.8, 3.7776e-07
6766.8, 3.3647e-07
6768.8, 3.7337e-07
6770.8, 3.5582e-07
6772.8, 3.3095e-07
6774.8, 3.051e-07
6776.8, 3.3658e-07
6778.8, 3.4431e-07
6780.8, 3.5281e-07
6782.8, 2.8937e-07
6784.8, 3.1544e-07
6786.8, 3.5058e-07
6788.8, 2.9989e-07
6790.8, 3.2482e-07
6792.8, 3.4634e-07
6794.8, 3.7368e-07
6796.8, 3.3772e-07
6798.8, 3.2358e-07
6800.8, 3.2763e-07
6802.8, 3.4598e-07
6804.8, 3.469e-07
6806.8, 3.2794e-07
6808.8, 3.6361e-07
6810.8, 3.1302e-07
6812.8, 3.6107e-07
6814.8, 2.7696e-07
6816.8, 3.3319e-07
6818.8, 2.9559e-07
6820.8, 3.5025e-07
6822.8, 3.145e-07
6824.8, 3.1604e-07
6826.8, 3.5049e-07
6828.8, 3.1889e-07
6830.8, 3.4966e-07
6832.8, 3.3054e-07
6834.8, 2.7659e-07
6836.8, 3.4283e-07
6838.8, 3.096e-07
6840.8, 3.5424e-07
6842.8, 3.5502e-07
6844.8, 3.4253e-07
6846.8, 3.2958e-07
6848.8, 3.1237e-07
6850.8, 3.0404e-07
6852.8, 3.6249e-07
6854.8, 3.4618e-07
6856.8, 3.503e-07
6858.9, 2.8605e-07
6860.9, 3.4907e-07
6862.9, 3.4111e-07
6864.9, 3.3398e-07
6866.9, 3.691e-07
6868.9, 3.7399e-07
6870.9, 3.4665e-07
6872.9, 3.5039e-07
6874.9, 3.4142e-07
6876.9, 3.3707e-07
6878.9, 3.5825e-07
6880.9, 3.1058e-07
6882.9, 3.1319e-07
6884.9, 3.3696e-07
6886.9, 3.2429e-07
6888.9, 3.9927e-07
6890.9, 2.8537e-07
6892.9, 2.962e-07
6894.9, 3.264e-07
6896.9, 3.6073e-07
6898.9, 3.4218e-07
6900.9, 2.9257e-07
6902.9, 3.1726e-07
6904.9, 2.7739e-07
6906.9, 3.7699e-07
6908.9, 3.443e-07
6910.9, 3.2428e-07
6912.9, 3.2154e-07
6914.9, 3.8941e-07
6916.9, 3.1562e-07
6918.9, 3.3295e-07
6920.9, 3.0461e-07
6922.9, 3.4677e-07
6924.9, 3.212e-07
6926.9, 3.1444e-07
6928.9, 3.223e-07
6930.9, 3.3638e-07
6932.9, 3.111e-07
6934.9, 3.244e-07
6936.9, 2.8003e-07
6938.9, 3.4072e-07
6940.9, 3.0196e-07
6942.9, 3.3047e-07
6944.9, 3.0936e-07
6946.9, 3.0535e-07
6948.9, 2.9541e-07
6950.9, 3.4339e-07
6952.9, 3.1216e-07
6954.9, 3.4104e-07
6956.9, 3.5578e-07
6959.0, 3.0196e-07
6961.0, 3.8775e-07
6963.0, 3.703e-07
6965.0, 3.2183e-07
6967.0, 3.227e-07
6969.0, 3.2973e-07
6971.0, 3.0871e-07
6973.0, 3.395e-07
6975.0, 3.3094e-07
6977.0, 3.5907e-07
6979.0, 3.6142e-07
6981.0, 3.4799e-07
6983.0, 3.6265e-07
6985.0, 3.3032e-07
6987.0, 2.8304e-07
6989.0, 3.555e-07
6991.0, 3.1397e-07
6993.0, 3.5122e-07
6995.0, 3.7486e-07
6997.0, 3.3301e-07
6999.0, 3.16e-07
7001.0, 3.7414e-07
7003.0, 3.4174e-07
7005.0, 3.2432e-07
7007.0, 3.3914e-07
7009.0, 3.2355e-07
7011.0, 2.9721e-07
7013.0, 3.567e-07
7015.0, 2.9052e-07
7017.0, 3.2671e-07
7019.0, 3.5335e-07
7021.0, 3.3093e-07
7023.0, 3.5163e-07
7025.0, 3.1473e-07
7027.0, 3.0955e-07
7029.0, 3.0953e-07
7031.0, 3.2834e-07
7033.0, 3.1676e-07
7035.0, 3.3822e-07
7037.0, 3.2256e-07
7039.0, 3.1818e-07
7041.0, 3.7295e-07
7043.0, 3.4829e-07
7045.0, 3.5362e-07
7047.0, 2.9485e-07
7049.0, 3.2235e-07
7051.0, 2.9881e-07
7053.0, 3.004e-07
7055.0, 3.4374e-07
7057.0, 3.2272e-07
7059.1, 3.8632e-07
7061.1, 3.1684e-07
7063.1, 4.2229e-07
7065.1, 3.5427e-07
7067.1, 3.3165e-07
7069.1, 3.2289e-07
7071.1, 3.4024e-07
7073.1, 3.3732e-07
7075.1, 3.2188e-07
7077.1, 3.0634e-07
7079.1, 3.1686e-07
7081.1, 3.5511e-07
7083.1, 3.1398e-07
7085.1, 3.4008e-07
7087.1, 3.5158e-07
7089.1, 3.2788e-07
7091.1, 3.4299e-07
7093.1, 3.8257e-07
7095.1, 3.0487e-07
7097.1, 3.6825e-07
7099.1, 3.209e-07
7101.1, 3.3723e-07
7103.1, 3.0516e-07
7105.1, 3.4475e-07
7107.1, 3.2881e-07
7109.1, 3.3085e-07
7111.1, 3.0554e-07
7113.1, 3.4214e-07
7115.1, 3.2413e-07
7117.1, 3.583e-07
7119.1, 3.2458e-07
7121.1, 1.5919e-07
7123.1, -1.542e-08
7125.1, -1.719e-08
7127.1, -1.757e-08
7129.1, -1.774e-08
7131.1, -1.66e-08
7133.1, -1.825e-08
7135.1, -1.699e-08
7137.1, -1.797e-08
7139.1, -1.727e-08
7141.1, -1.595e-08
7143.1, -1.899e-08
7145.1, -1.926e-08
7147.1, -2.47e-08
7149.1, -1.963e-08
7151.1, -1.935e-08
7153.1, -1.789e-08
7155.1, -2.33e-08
7157.1, -1.831e-08
7159.2, -1.897e-08
7161.2, -2.12e-08
7163.2, -2.261e-08
7165.2, -2.043e-08
7167.2, -1.579e-08
7169.2, -1.533e-08
7171.2, -2.16e-08
7173.2, -1.833e-08
7175.2, -1.97e-08
7177.2, -1.962e-08
7179.2, -2.215e-08
7181.2, -2.157e-08
7183.2, -1.918e-08
7185.2, -1.994e-08
7187.2, -2.086e-08
7189.2, -1.863e-08
7191.2, -1.693e-08
7193.2, -1.783e-08
7195.2, -1.944e-08
7197.2, -1.461e-08
7199.2, -1.829e-08
7201.2, -2.27e-08
7203.2, -2.173e-08
7205.2, -2.148e-08
7207.2, -2.416e-08
7209.2, -2.079e-08
7211.2, -1.914e-08
7213.2, -2.195e-08
7215.2, -1.988e-08
7217.2, -1.981e-08
7219.2, -1.902e-08
7221.2, -2.164e-08
7223.2, -2.206e-08
7225.2, -2.154e-08
7227.2, -2.047e-08
7229.2, -2.072e-08
7231.2, -2.265e-08
7233.2, -1.952e-08
7235.2, -1.875e-08
7237.2, -1.933e-08
7239.2, -1.744e-08
7241.2, -1.975e-08
7243.2, -1.822e-08
7245.2, -1.823e-08
7247.2, -1.757e-08
7249.2, -2.169e-08
7251.2, -2.081e-08
7253.2, -1.798e-08
7255.2, -1.596e-08
7257.2, -1.864e-08
7259.3, -1.462e-08
7261.3, -1.728e-08
7263.3, -2.252e-08
7265.3, -1.804e-08
7267.3, -1.943e-08
7269.3, -1.443e-08
7271.3, -1.679e-08
7273.3, -1.504e-08
7275.3, -1.885e-08
7277.3, -2.322e-08
7279.3, -2.133e-08
7281.3, -1.899e-08
7283.3, -2.462e-08
7285.3, -1.988e-08
7287.3, -1.794e-08
7289.3, -1.814e-08
7291.3, -2.027e-08
7293.3, -1.842e-08
7295.3, -1.555e-08
7297.3, -1.896e-08
7299.3, -1.931e-08
7301.3, -2.297e-08
7303.3, -1.63e-08
7305.3, -2.025e-08
7307.3, -2.099e-08
7309.3, -1.939e-08
7311.3, -1.826e-08
7313.3, -1.689e-08
7315.3, -1.785e-08
7317.3, -1.987e-08
7319.3, -1.961e-08
7321.3, -1.678e-08
7323.3, -1.692e-08
7325.3, -1.932e-08
7327.3, -2.089e-08
7329.3, -2.027e-08
7331.3, -2.428e-08
7333.3, -2.538e-08
7335.3, -2.278e-08
7337.3, -2.136e-08
7339.3, -2.325e-08
7341.3, -2.293e-08
7343.3, -2.244e-08
7345.3, -2.086e-08
7347.3, -2.266e-08
7349.3, -1.918e-08
7351.3, -2.101e-08
7353.3, -2.159e-08
7355.3, -2.178e-08
7357.3, -2.358e-08
7359.4, -2.129e-08
7361.4, -2.457e-08
7363.4, -2.193e-08
7365.4, -2.341e-08
7367.4, -2.092e-08
7369.4, -1.943e-08
7371.4, -2.113e-08
7373.4, -1.906e-08
7375.4, -2.071e-08
7377.4, -2.317e-08
7379.4, -2.378e-08
7381.4, -2.005e-08
7383.4, -2.425e-08
7385.4, -2.692e-08
7387.4, -2.469e-08
7389.4, -2.104e-08
7391.4, -2.112e-08
7393.4, -2.266e-08
7395.4, -2.361e-08
7397.4, -2.263e-08
7399.4, -2.396e-08
7401.4, -2.424e-08
7403.4, -2.49e-08
7405.4, -2.535e-08
7407.4, -2.447e-08
7409.4, -2.5e-08
7411.4, -2.598e-08
7413.4, -2.298e-08
7415.4, -2.606e-08
7417.4, -2.521e-08
7419.4, -2.572e-08
7421.4, -2.214e-08
7423.4, -2.541e-08
7425.4, -2.327e-08
7427.4, -1.922e-08
7429.4, -2.055e-08
7431.4, -2.319e-08
7433.4, -2.528e-08
7435.4, -2.028e-08
7437.4, -2.195e-08
7439.4, -2.007e-08
7441.4, -2.315e-08
7443.4, -2.368e-08
7445.4, -2.276e-08
7447.4, -2.216e-08
7449.4, -2.179e-08
7451.4, -2.358e-08
7453.4, -2.242e-08
7455.4, -2.109e-08
7457.4, -2.426e-08
7459.5, -1.895e-08
7461.5, -1.796e-08
7463.5, -1.978e-08
7465.5, -2.464e-08
7467.5, -2.293e-08
7469.5, -2.322e-08
7471.5, -1.973e-08
7473.5, -2.231e-08
7475.5, -2.258e-08
7477.5, -2.425e-08
7479.5, -2.246e-08
7481.5, -2.503e-08
7483.5, -2.514e-08
7485.5, -2.629e-08
7487.5, -2.582e-08
7489.5, -2.515e-08
7491.5, -2.385e-08
7493.5, -2.209e-08
7495.5, -2.213e-08
7497.5, -2.281e-08
7499.5, -2.319e-08
7501.5, -2.079e-08
7503.5, -2.121e-08
7505.5, -2.298e-08
7507.5, -2.382e-08
7509.5, -2.218e-08
7511.5, -1.99e-08
7513.5, -2.345e-08
7515.5, -2.449e-08
7517.5, -2.465e-08
7519.5, -2.36e-08
7521.5, -2.513e-08
7523.5, -2.675e-08
7525.5, -2.646e-08
7527.5, -2.33e-08
7529.5, -2.532e-08
7531.5, -2.539e-08
7533.5, -2.962e-08
7535.5, -2.435e-08
7537.5, -2.459e-08
7539.5, -2.315e-08
7541.5, -2.213e-08
7543.5, -2.546e-08
7545.5, -2.313e-08
7547.5, -2.005e-08
7549.5, -2.349e-08
7551.5, -2.542e-08
7553.5, -2.546e-08
7555.5, -2.618e-08
7557.5, -2.616e-08
7559.6, -2.906e-08
7561.6, -2.664e-08
7563.6, -2.514e-08
7565.6, -2.41e-08
7567.6, -2.596e-08
7569.6, -2.275e-08
7571.6, -2.119e-08
7573.6, -2.05e-08
7575.6, -2.18e-08
7577.6, -2.347e-08
7579.6, -2.401e-08
7581.6, -2.399e-08
7583.6, -2.29e-08
7585.6, -2.789e-08
7587.6, -2.813e-08
7589.6, -2.617e-08
7591.6, -2.63e-08
7593.6, -2.783e-08
7595.6, -2.912e-08
7597.6, -2.653e-08
7599.6, -2.596e-08
7601.6, -2.377e-08
7603.6, -2.358e-08
7605.6, -2.491e-08
7607.6, -2.376e-08
7609.6, -2.504e-08
7611.6, -2.473e-08
7613.6, -2.796e-08
7615.6, -2.519e-08
7617.6, -2.388e-08
7619.6, -2.562e-08
7621.6, -2.077e-08
7623.6, -2.053e-08
7625.6, -2.166e-08
7627.6, -2.348e-08
7629.6, -2.335e-08
7631.6, -2.587e-08
7633.6, -2.393e-08
7635.6, -2.444e-08
7637.6, -2.227e-08
7639.6, -2.367e-08
7641.6, -2.36e-08
7643.6, -2.306e-08
7645.6, -2.229e-08
7647.6, -2.252e-08
7649.6, -2.02e-08
7651.6, -2.283e-08
7653.6, -1.953e-08
7655.6, -2.392e-08
7657.6, -2.398e-08
7659.7, -2.146e-08
7661.7, -2.412e-08
7663.7, -2.088e-08
7665.7, -2.385e-08
7667.7, -2.106e-08
7669.7, -2.096e-08
7671.7, -2.179e-08
7673.7, -2.169e-08
7675.7, -2.31e-08
7677.7, -2.097e-08
7679.7, -1.733e-08
7681.7, -2.131e-08
7683.7, -2.559e-08
7685.7, -2.276e-08
7687.7, -2.445e-08
7689.7, -1.966e-08
7691.7, -1.97e-08
7693.7, -2.446e-08
7695.7, -2.083e-08
7697.7, -2.352e-08
7699.7, -2.234e-08
7701.7, -2.008e-08
7703.7, -2.039e-08
7705.7, -2.216e-08
7707.7, -1.986e-08
7709.7, -1.941e-08
7711.7, -2.116e-08
7713.7, -1.882e-08
7715.7, -2.132e-08
7717.7, -1.946e-08
7719.7, -2.08e-08
7721.7, -2.049e-08
7723.7, -1.994e-08
7725.7, -1.98e-08
7727.7, -2.169e-08
7729.7, -2.073e-08
7731.7, -2.129e-08
7733.7, -2.031e-08
7735.7, -2.07e-08
7737.7, -2.184e-08
7739.7, -2.453e-08
7741.7, -1.984e-08
7743.7, -2.096e-08
7745.7, -2.047e-08
7747.7, -2.174e-08
7749.7, -1.889e-08
7751.7, -2.145e-08
7753.7, -2.515e-08
7755.7, -2.499e-08
7757.7, -2.531e-08
7759.8, -2.526e-08
7761.8, -2.308e-08
7763.8, -2.498e-08
7765.8, -2.4e-08
7767.8, -1.995e-08
7769.8, -2.109e-08
7771.8, -2.148e-08
7773.8, -2.24e-08
7775.8, -2.333e-08
7777.8, -2.273e-08
7779.8, -1.847e-08
7781.8, -2.208e-08
7783.8, -2.219e-08
7785.8, -2.125e-08
7787.8, -2.734e-08
7789.8, -2.432e-08
7791.8, -2.371e-08
7793.8, -2.155e-08
7795.8, -2.606e-08
7797.8, -2.62e-08
7799.8, -2.69e-08
7801.8, -2.337e-08
7803.8, -2.566e-08
7805.8, -2.854e-08
7807.8, -2.797e-08
7809.8, -2.326e-08
7811.8, -2.413e-08
7813.8, -2.09e-08
7815.8, -1.935e-08
7817.8, -2.504e-08
7819.8, -2.521e-08
7821.8, -2.059e-08
7823.8, -2.254e-08
7825.8, -2.009e-08
7827.8, -2.086e-08
7829.8, -2.092e-08
7831.8, -2.298e-08
7833.8, -2.19e-08
7835.8, -2.66e-08
7837.8, -2.437e-08
7839.8, -1.934e-08
7841.8, -2.444e-08
7843.8, -2.289e-08
7845.8, -2.372e-08
7847.8, -2.217e-08
7849.8, -2.157e-08
7851.8, -2.426e-08
7853.8, -2.454e-08
7855.8, -2.685e-08
7857.8, -2.717e-08
7859.9, -2.587e-08
7861.9, -2.431e-08
7863.9, -2.42e-08
7865.9, -2.26e-08
7867.9, -2.276e-08
7869.9, -2.08e-08
7871.9, -2.011e-08
7873.9, -2.091e-08
7875.9, -2.137e-08
7877.9, -2.392e-08
7879.9, -2.391e-08
7881.9, -2.289e-08
7883.9, -1.752e-08
7885.9, -2.143e-08
7887.9, -2.37e-08
7889.9, -2.009e-08
7891.9, -2.407e-08
7893.9, -2.047e-08
7895.9, -2.366e-08
7897.9, -2.61e-08
7899.9, -2.445e-08
7901.9, -2.105e-08
7903.9, -2.229e-08
7905.9, -2.316e-08
7907.9, -2.146e-08
7909.9, -2.335e-08
7911.9, -2.293e-08
7913.9, -2.348e-08
7915.9, -2.38e-08
7917.9, -2.28e-08
7919.9, -2.253e-08
7921.9, -2.251e-08
7923.9, -2.268e-08
7925.9, -2.376e-08
7927.9, -1.952e-08
7929.9, -1.987e-08
7931.9, -2.469e-08
7933.9, -2.15e-08
7935.9, -2.127e-08
7937.9, -2.327e-08
7939.9, -2.842e-08
7941.9, -2.328e-08
7943.9, -3.078e-08
7945.9, -2.688e-08
7947.9, -2.392e-08
7949.9, -2.048e-08
7951.9, -2.188e-08
7953.9, -2.096e-08
7955.9, -2.191e-08
7957.9, -2.241e-08
7960.0, -2.474e-08
7962.0, -2.437e-08
7964.0, -2.364e-08
7966.0, -2.436e-08
7968.0, -2.926e-08
7970.0, -2.957e-08
7972.0, -2.558e-08
7974.0, -2.404e-08
7976.0, -2.412e-08
7978.0, -2.394e-08
7980.0, -2.688e-08
7982.0, -2.527e-08
7984.0, -2.52e-08
7986.0, -2.86e-08
7988.0, -2.748e-08
7990.0, -2.951e-08
7992.0, -3.111e-08
7994.0, -2.932e-08
7996.0, -2.552e-08
7998.0, -2.387e-08
8000.0, -2.611e-08
8002.0, -2.044e-08
8004.0, -2.561e-08
8006.0, -2.5e-08
8008.0, -2.708e-08
8010.0, -2.527e-08
8012.0, -2.551e-08
8014.0, -2.521e-08
8016.0, -2.812e-08
8018.0, -2.494e-08
8020.0, -2.341e-08
8022.0, -2.131e-08
8024.0, -2.221e-08
8026.0, -2.34e-08
8028.0, -2.484e-08
8030.0, -2.227e-08
8032.0, -2.17e-08
8034.0, -2.166e-08
8036.0, -2.289e-08
8038.0, -2.189e-08
8040.0, -2.296e-08
8042.0, -2.175e-08
8044.0, -2.534e-08
8046.0, -2.532e-08
8048.0, -2.197e-08
8050.0, -2.344e-08
8052.0, -2.701e-08
8054.0, -2.265e-08
8056.0, -2.575e-08
8058.0, -2.777e-08
8060.1, -2.902e-08
8062.1, -2.979e-08
8064.1, -3.062e-08
8066.1, -2.892e-08
8068.1, -2.746e-08
8070.1, -2.262e-08
8072.1, -2.626e-08
8074.1, -2.52e-08
8076.1, -2.844e-08
8078.1, -1.777e-08
8080.1, -2.17e-08
8082.1, -1.975e-08
8084.1, -2.05e-08
8086.1, -2.477e-08
8088.1, -2.007e-08
8090.1, -2.217e-08
8092.1, -2.387e-08
8094.1, -2.219e-08
8096.1, -2.709e-08
8098.1, -2.506e-08
8100.1, -2.601e-08
8102.1, -2.125e-08
8104.1, -2.294e-08
8106.1, -2.559e-08
8108.1, -2.613e-08
8110.1, -2.123e-08
8112.1, -1.911e-08
8114.1, -2.187e-08
8116.1, -2.077e-08
8118.1, -2.442e-08
8120.1, -2.764e-08
8122.1, -2.597e-08
8124.1, -2.214e-08
8126.1, -2.262e-08
8128.1, -2.282e-08
8130.1, -2.192e-08
8132.1, -2.304e-08
8134.1, -2.417e-08
8136.1, -2.625e-08
8138.1, -2.717e-08
8140.1, -2.355e-08
8142.1, -2.128e-08
8144.1, -2.469e-08
8146.1, -2.629e-08
8148.1, -2.611e-08
8150.1, -2.171e-08
8152.1, -2.243e-08
8154.1, -2.332e-08
8156.1, -2.358e-08
8158.1, -2.247e-08
8160.2, -2.335e-08
8162.2, -2.706e-08
8164.2, -2.471e-08
8166.2, -2.052e-08
8168.2, -2.592e-08
8170.2, -2.261e-08
8172.2, -2.348e-08
8174.2, -2.506e-08
8176.2, -2.486e-08
8178.2, -1.989e-08
8180.2, -2.091e-08
8182.2, -1.994e-08
8184.2, -2.322e-08
8186.2, -2.002e-08
8188.2, -2.169e-08
8190.2, -2.212e-08
8192.2, -2.322e-08
8194.2, -2.098e-08
8196.2, -2.189e-08
8198.2, -2.445e-08
8200.2, -2.404e-08
8202.2, -2.511e-08
8204.2, -2.214e-08
8206.2, -2.348e-08
8208.2, -2.428e-08
8210.2, -2.434e-08
8212.2, -2.377e-08
8214.2, -2.002e-08
8216.2, -2.202e-08
8218.2, -2.098e-08
8220.2, -2.258e-08
8222.2, -2.267e-08
8224.2, -2.537e-08
8226.2, -2.313e-08
8228.2, -2.264e-08
8230.2, -2.146e-08
8232.2, -2.368e-08
8234.2, -2.109e-08
8236.2, -2.377e-08
8238.2, -2.351e-08
8240.2, -2.315e-08
8242.2, -2.213e-08
8244.2, 7.217e-08
8246.2, 2.7427e-07
8248.2, 2.655e-07
8250.2, 2.85e-07
8252.2, 2.651e-07
8254.2, 2.3638e-07
8256.2, 2.7043e-07
8258.2, 2.6695e-07
8260.3, 2.8172e-07
8262.3, 2.6299e-07
8264.3, 2.6422e-07
8266.3, 2.9835e-07
8268.3, 3.0626e-07
8270.3, 2.8449e-07
8272.3, 3.1077e-07
8274.3, 2.5212e-07
8276.3, 2.5758e-07
8278.3, 2.6063e-07
8280.3, 2.3057e-07
8282.3, 2.7867e-07
8284.3, 2.7549e-07
8286.3, 2.5207e-07
8288.3, 2.783e-07
8290.3, 2.6038e-07
8292.3, 2.5715e-07
8294.3, 2.5699e-07
8296.3, 2.3842e-07
8298.3, 2.3004e-07
8300.3, 3.0048e-07
8302.3, 2.4233e-07
8304.3, 2.8252e-07
8306.3, 2.9116e-07
8308.3, 2.6908e-07
8310.3, 2.8515e-07
8312.3, 2.513e-07
8314.3, 2.5789e-07
8316.3, 2.6626e-07
8318.3, 3.0227e-07
8320.3, 2.5492e-07
8322.3, 2.6166e-07
8324.3, 2.5321e-07
8326.3, 2.4297e-07
8328.3, 2.7428e-07
8330.3, 2.544e-07
8332.3, 2.8303e-07
8334.3, 2.9689e-07
8336.3, 2.9782e-07
8338.3, 2.9937e-07
8340.3, 2.9837e-07
8342.3, 2.359e-07
8344.3, 2.3574e-07
8346.3, 2.7358e-07
8348.3, 2.9802e-07
8350.3, 2.9318e-07
8352.3, 3.0305e-07
8354.3, 2.6492e-07
8356.3, 2.804e-07
8358.3, 2.6652e-07
8360.4, 3.2747e-07
8362.4, 2.8569e-07
8364.4, 2.748e-07
8366.4, 3.2076e-07
8368.4, 3.2252e-07
8370.4, 2.6692e-07
8372.4, 2.6775e-07
8374.4, 2.7416e-07
8376.4, 2.5108e-07
8378.4, 2.5466e-07
8380.4, 2.8894e-07
8382.4, 2.8428e-07
8384.4, 2.854e-07
8386.4, 3.1303e-07
8388.4, 2.8251e-07
8390.4, 3.0045e-07
8392.4, 3.1575e-07
8394.4, 2.6319e-07
8396.4, 3.4802e-07
8398.4, 3.2517e-07
8400.4, 2.7811e-07
8402.4, 2.6805e-07
8404.4, 3.0281e-07
8406.4, 2.5714e-07
8408.4, 2.9143e-07
8410.4, 2.9849e-07
8412.4, 2.7482e-07
8414.4, 3.0151e-07
8416.4, 3.0832e-07
8418.4, 2.5121e-07
8420.4, 3.0394e-07
8422.4, 3.1938e-07
8424.4, 3.3679e-07
8426.4, 2.8202e-07
8428.4, 3.463e-07
8430.4, 2.6846e-07
8432.4, 2.9168e-07
8434.4, 2.9426e-07
8436.4, 2.9946e-07
8438.4, 2.7922e-07
8440.4, 2.9024e-07
8442.4, 3.0224e-07
8444.4, 3.082e-07
8446.4, 3.0673e-07
8448.4, 2.7803e-07
8450.4, 2.7753e-07
8452.4, 3.1794e-07
8454.4, 2.8124e-07
8456.4, 3.0029e-07
8458.4, 2.7283e-07
8460.5, 3.13e-07
8462.5, 2.9792e-07
8464.5, 3.0634e-07
8466.5, 2.9332e-07
8468.5, 2.7503e-07
8470.5, 2.9667e-07
8472.5, 2.9365e-07
8474.5, 2.978e-07
8476.5, 2.7839e-07
8478.5, 2.8118e-07
8480.5, 3.3226e-07
8482.5, 3.3647e-07
8484.5, 3.0221e-07
8486.5, 2.642e-07
8488.5, 3.2878e-07
8490.5, 3.1288e-07
8492.5, 3.0158e-07
8494.5, 3.19e-07
8496.5, 2.9014e-07
8498.5, 2.6708e-07
8500.5, 2.8251e-07
8502.5, 2.7498e-07
8504.5, 3.2281e-07
8506.5, 3.5287e-07
8508.5, 3.2977e-07
8510.5, 3.0961e-07
8512.5, 3.2691e-07
8514.5, 2.9661e-07
8516.5, 2.7431e-07
8518.5, 2.852e-07
8520.5, 2.9261e-07
8522.5, 3.0803e-07
8524.5, 2.9877e-07
8526.5, 2.7182e-07
8528.5, 2.7348e-07
8530.5, 2.8637e-07
8532.5, 3.194e-07
8534.5, 2.975e-07
8536.5, 2.7826e-07
8538.5, 3.5448e-07
8540.5, 3.4113e-07
8542.5, 3.07e-07
8544.5, 3.1253e-07
8546.5, 3.1609e-07
8548.5, 3.0045e-07
8550.5, 3.1745e-07
8552.5, 3.0686e-07
8554.5, 3.3655e-07
8556.5, 3.1891e-07
8558.5, 3.2102e-07
8560.6, 3.2668e-07
8562.6, 3.0181e-07
8564.6, 3.1605e-07
8566.6, 3.2355e-07
8568.6, 3.0849e-07
8570.6, 2.8207e-07
8572.6, 2.8288e-07
8574.6, 2.8832e-07
8576.6, 3.0239e-07
8578.6, 3.2572e-07
8580.6, 2.892e-07
8582.6, 2.8546e-07
8584.6, 3.1787e-07
8586.6, 3.1653e-07
8588.6, 3.1069e-07
8590.6, 3.2954e-07
8592.6, 2.9895e-07
8594.6, 3.068e-07
8596.6, 3.1056e-07
8598.6, 3.2096e-07
8600.6, 2.6908e-07
8602.6, 3.0816e-07
8604.6, 3.2036e-07
8606.6, 3.1134e-07
8608.6, 3.3889e-07
8610.6, 2.7733e-07
8612.6, 3.1838e-07
8614.6, 3.2756e-07
8616.6, 3.326e-07
8618.6, 3.2784e-07
8620.6, 3.0386e-07
8622.6, 2.8537e-07
8624.6, 3.0192e-07
8626.6, 3.1261e-07
8628.6, 3.2437e-07
8630.6, 3.1564e-07
8632.6, 3.3691e-07
8634.6, 3.0763e-07
8636.6, 3.2359e-07
8638.6, 3.1233e-07
8640.6, 3.0473e-07
8642.6, 3.0711e-07
8644.6, 2.8514e-07
8646.6, 3.3458e-07
8648.6, 3.2153e-07
8650.6, 3.1693e-07
8652.6, 2.7357e-07
8654.6, 2.864e-07
8656.6, 3.5249e-07
8658.6, 3.2059e-07
8660.7, 3.4297e-07
8662.7, 2.905e-07
8664.7, 3.2572e-07
8666.7, 2.9157e-07
8668.7, 3.0665e-07
8670.7, 2.9913e-07
8672.7, 3.3128e-07
8674.7, 3.372e-07
8676.7, 3.2143e-07
8678.7, 3.2913e-07
8680.7, 3.0868e-07
8682.7, 3.1754e-07
8684.7, 3.1423e-07
8686.7, 3.0734e-07
8688.7, 3.1044e-07
8690.7, 2.9936e-07
8692.7, 3.1174e-07
8694.7, 2.8358e-07
8696.7, 3.0457e-07
8698.7, 3.334e-07
8700.7, 2.7324e-07
8702.7, 3.1237e-07
8704.7, 3.1972e-07
8706.7, 2.9197e-07
8708.7, 3.5284e-07
8710.7, 2.9397e-07
8712.7, 3.1567e-07
8714.7, 2.9381e-07
8716.7, 3.315e-07
8718.7, 2.8891e-07
8720.7, 3.1939e-07
8722.7, 3.2081e-07
8724.7, 2.9543e-07
8726.7, 3.051e-07
8728.7, 3.3012e-07
8730.7, 3.3452e-07
8732.7, 3.0989e-07
8734.7, 3.0956e-07
8736.7, 3.0289e-07
8738.7, 2.9866e-07
8740.7, 3.0576e-07
8742.7, 2.8814e-07
8744.7, 3.4367e-07
8746.7, 2.9834e-07
8748.7, 3.2577e-07
8750.7, 3.6127e-07
8752.7, 2.8744e-07
8754.7, 2.9958e-07
8756.7, 3.1953e-07
8758.7, 2.7284e-07
8760.8, 3.0887e-07
8762.8, 3.3608e-07
8764.8, 3.3444e-07
8766.8, 2.9616e-07
8768.8, 3.6218e-07
8770.8, 3.3486e-07
8772.8, 3.2911e-07
8774.8, 3.4235e-07
8776.8, 3.4966e-07
8778.8, 3.106e-07
8780.8, 2.8623e-07
8782.8, 3.0874e-07
8784.8, 3.2977e-07
8786.8, 3.3028e-07
8788.8, 3.0712e-07
8790.8, 3.3211e-07
8792.8, 2.7902e-07
8794.8, 3.2558e-07
8796.8, 3.3451e-07
8798.8, 3.2694e-07
8800.8, 3.0017e-07
8802.8, 3.3702e-07
8804.8, 3.1566e-07
8806.8, 3.0229e-07
8808.8, 3.254e-07
8810.8, 2.8154e-07
8812.8, 3.1315e-07
8814.8, 3.1116e-07
8816.8, 3.0983e-07
8818.8, 2.9675e-07
8820.8, 3.2956e-07
8822.8, 3.1934e-07
8824.8, 2.9997e-07
8826.8, 3.026e-07
8828.8, 3.415e-07
8830.8, 3.2042e-07
8832.8, 2.9818e-07
8834.8, 3.0497e-07
8836.8, 3.48e-07
8838.8, 3.1054e-07
8840.8, 3.2488e-07
8842.8, 3.3571e-07
8844.8, 3.1462e-07
8846.8, 3.1406e-07
8848.8, 3.4749e-07
8850.8, 3.0582e-07
8852.8, 3.0521e-07
8854.8, 3.2633e-07
8856.8, 3.3081e-07
8858.8, 3.0406e-07
8860.9, 3.3431e-07
8862.9, 3.3647e-07
8864.9, 3.1722e-07
8866.9, 3.0755e-07
8868.9, 3.0742e-07
8870.9, 3.1277e-07
8872.9, 2.7667e-07
8874.9, 3.1143e-07
8876.9, 3.1786e-07
8878.9, 3.1839e-07
8880.9, 3.8806e-07
8882.9, 3.8309e-07
8884.9, 3.3675e-07
8886.9, 3.1172e-07
8888.9, 3.0751e-07
8890.9, 3.2432e-07
8892.9, 3.2593e-07
8894.9, 3.1954e-07
8896.9, 3.2644e-07
8898.9, 3.2441e-07
8900.9, 3.2001e-07
8902.9, 3.2354e-07
8904.9, 3.3031e-07
8906.9, 3.3476e-07
8908.9, 3.0244e-07
8910.9, 3.0879e-07
8912.9, 3.4264e-07
8914.9, 3.4624e-07
8916.9, 3.2145e-07
8918.9, 3.494e-07
8920.9, 3.199e-07
8922.9, 3.1388e-07
8924.9, 3.1668e-07
8926.9, 3.3711e-07
8928.9, 3.2046e-07
8930.9, 2.9847e-07
8932.9, 3.0058e-07
8934.9, 3.45e-07
8936.9, 3.1518e-07
8938.9, 2.953e-07
8940.9, 2.9423e-07
8942.9, 3.2545e-07
8944.9, 3.0978e-07
8946.9, 3.3772e-07
8948.9, 3.0384e-07
8950.9, 3.158e-07
8952.9, 3.4047e-07
8954.9, 3.3511e-07
8956.9, 3.1663e-07
8958.9, 3.8206e-07
8961.0, 3.3925e-07
8963.0, 3.2499e-07
8965.0, 3.1367e-07
8967.0, 3.6466e-07
8969.0, 3.3174e-07
8971.0, 3.3484e-07
8973.0, 3.1119e-07
8975.0, 3.5009e-07
8977.0, 3.4206e-07
8979.0, 3.0538e-07
8981.0, 3.2986e-07
8983.0, 2.7431e-07
8985.0, 3.1782e-07
8987.0, 3.3068e-07
8989.0, 3.2637e-07
8991.0, 3.4432e-07
8993.0, 3.3436e-07
8995.0, 3.5604e-07
8997.0, 3.5768e-07
8999.0, 3.3086e-07
9001.0, 3.7106e-07
9003.0, 3.3497e-07
9005.0, 3.164e-07
9007.0, 2.7834e-07
9009.0, 2.8526e-07
9011.0, 3.2985e-07
9013.0, 3.2454e-07
9015.0, 3.7333e-07
9017.0, 3.0107e-07
9019.0, 3.5651e-07
9021.0, 2.8252e-07
9023.0, 3.1971e-07
9025.0, 3.3695e-07
9027.0, 3.3981e-07
9029.0, 3.4273e-07
9031.0, 3.2853e-07
9033.0, 3.8102e-07
9035.0, 3.7054e-07
9037.0, 3.0984e-07
9039.0, 3.4746e-07
9041.0, 3.6827e-07
9043.0, 3.1579e-07
9045.0, 3.2472e-07
9047.0, 3.429e-07
9049.0, 3.095e-07
9051.0, 3.2345e-07
9053.0, 3.1846e-07
9055.0, 3.3782e-07
9057.0, 3.2461e-07
9059.0, 2.9404e-07
9061.1, 3.3226e-07
9063.1, 2.885e-07
9065.1, 3.4089e-07
9067.1, 3.2538e-07
9069.1, 3.0386e-07
9071.1, 3.4285e-07
9073.1, 3.211e-07
9075.1, 3.4473e-07
9077.1, 2.7844e-07
9079.1, 3.2515e-07
9081.1, 3.5047e-07
9083.1, 2.8715e-07
9085.1, 3.2536e-07
9087.1, 2.7049e-07
9089.1, 2.8887e-07
9091.1, 3.15e-07
9093.1, 3.49e-07
9095.1, 3.4001e-07
9097.1, 3.0665e-07
9099.1, 3.2623e-07
9101.1, 2.5877e-07
9103.1, 3.0907e-07
9105.1, 2.9698e-07
9107.1, 3.2948e-07
9109.1, 2.7913e-07
9111.1, 3.163e-07
9113.1, 3.3241e-07
9115.1, 3.0561e-07
9117.1, 2.7363e-07
9119.1, 3.2514e-07
9121.1, 3.4381e-07
9123.1, 3.115e-07
9125.1, 3.3115e-07
9127.1, 3.2996e-07
9129.1, 3.7112e-07
9131.1, 3.2084e-07
9133.1, 3.1343e-07
9135.1, 3.1304e-07
9137.1, 2.8232e-07
9139.1, 3.379e-07
9141.1, 3.2553e-07
9143.1, 3.5546e-07
9145.1, 3.3804e-07
9147.1, 3.3621e-07
9149.1, 2.942e-07
9151.1, 3.1205e-07
9153.1, 3.3162e-07
9155.1, 3.6655e-07
9157.1, 3.2675e-07
9159.1, 3.1107e-07
9161.2, 3.5479e-07
9163.2, 3.4365e-07
9165.2, 3.2976e-07
9167.2, 3.0913e-07
9169.2, 3.3611e-07
9171.2, 3.3608e-07
9173.2, 3.0351e-07
9175.2, 3.2079e-07
9177.2, 3.4013e-07
9179.2, 3.2713e-07
9181.2, 3.2472e-07
9183.2, 2.9886e-07
9185.2, 3.244e-07
9187.2, 3.3319e-07
9189.2, 3.3214e-07
9191.2, 3.0003e-07
9193.2, 3.1086e-07
9195.2, 3.6051e-07
9197.2, 3.2564e-07
9199.2, 2.9894e-07
9201.2, 3.3342e-07
9203.2, 2.7049e-07
9205.2, 3.4001e-07
9207.2, 3.4311e-07
9209.2, 2.9377e-07
9211.2, 3.2855e-07
9213.2, 3.0649e-07
9215.2, 3.4406e-07
9217.2, 3.0989e-07
9219.2, 3.516e-07
9221.2, 3.3994e-07
9223.2, 2.8312e-07
9225.2, 2.9161e-07
9227.2, 3.0801e-07
9229.2, 3.4097e-07
9231.2, 3.8094e-07
9233.2, 3.1696e-07
9235.2, 3.07e-07
9237.2, 3.0677e-07
9239.2, 2.8605e-07
9241.2, 3.26e-07
9243.2, 3.0638e-07
9245.2, 1.5403e-07
9247.2, -1.948e-08
9249.2, -2.197e-08
9251.2, -2.16e-08
9253.2, -1.851e-08
9255.2, -1.801e-08
9257.2, -2.18e-08
9259.2, -1.924e-08
9261.3, -2.065e-08
9263.3, -2.138e-08
9265.3, -2.114e-08
9267.3, -2.142e-08
9269.3, -2.194e-08
9271.3, -2.187e-08
9273.3, -2.4e-08
9275.3, -2.135e-08
9277.3, -2.483e-08
9279.3, -2.32e-08
9281.3, -2.318e-08
9283.3, -2.186e-08
9285.3, -2.156e-08
9287.3, -2.249e-08
9289.3, -2.093e-08
9291.3, -2.589e-08
9293.3, -2.271e-08
9295.3, -2.321e-08
9297.3, -2.211e-08
9299.3, -2.361e-08
9301.3, -2.172e-08
9303.3, -1.821e-08
9305.3, -2.224e-08
9307.3, -2.13e-08
9309.3, -2.408e-08
9311.3, -2.163e-08
9313.3, -2.087e-08
9315.3, -2.467e-08
9317.3, -1.89e-08
9319.3, -2.261e-08
9321.3, -2.017e-08
9323.3, -1.624e-08
9325.3, -1.893e-08
9327.3, -2.224e-08
9329.3, -2.142e-08
9331.3, -2.133e-08
9333.3, -2.321e-08
9335.3, -2.528e-08
9337.3, -2.243e-08
9339.3, -2.445e-08
9341.3, -2.305e-08
9343.3, -2.463e-08
9345.3, -2.332e-08
9347.3, -2.325e-08
9349.3, -2.653e-08
9351.3, -2.139e-08
9353.3, -2.295e-08
9355.3, -2.643e-08
9357.3, -2.631e-08
9359.3, -2.305e-08
9361.4, -2.454e-08
9363.4, -2.346e-08
9365.4, -2.451e-08
9367.4, -2.331e-08
9369.4, -2.547e-08
9371.4, -2.519e-08
9373.4, -2.462e-08
9375.4, -2.518e-08
9377.4, -2.445e-08
9379.4, -2.466e-08
9381.4, -2.37e-08
9383.4, -2.392e-08
9385.4, -2.239e-08
9387.4, -2.747e-08
9389.4, -2.813e-08
9391.4, -2.557e-08
9393.4, -2.025e-08
9395.4, -2.172e-08
9397.4, -2.491e-08
9399.4, -2.114e-08
9401.4, -2.264e-08
9403.4, -2.308e-08
9405.4, -2.743e-08
9407.4, -2.641e-08
9409.4, -2.239e-08
9411.4, -2.317e-08
9413.4, -2.176e-08
9415.4, -2.245e-08
9417.4, -2.539e-08
9419.4, -2.238e-08
9421.4, -2.322e-08
9423.4, -2.865e-08
9425.4, -2.675e-08
9427.4, -2.845e-08
9429.4, -2.741e-08
9431.4, -2.61e-08
9433.4, -2.612e-08
9435.4, -2.522e-08
9437.4, -2.695e-08
9439.4, -2.701e-08
9441.4, -2.515e-08
9443.4, -2.311e-08
9445.4, -2.586e-08
9447.4, -2.347e-08
9449.4, -2.752e-08
9451.4, -2.964e-08
9453.4, -2.639e-08
9455.4, -2.707e-08
9457.4, -2.582e-08
9459.4, -2.741e-08
9461.5, -2.667e-08
9463.5, -2.242e-08
9465.5, -2.487e-08
9467.5, -2.335e-08
9469.5, -2.5e-08
9471.5, -2.345e-08
9473.5, -2.377e-08
9475.5, -2.581e-08
9477.5, -2.448e-08
9479.5, -2.476e-08
9481.5, -2.428e-08
9483.5, -2.453e-08
9485.5, -2.435e-08
9487.5, -2.097e-08
9489.5, -2.219e-08
9491.5, -2.613e-08
9493.5, -2.524e-08
9495.5, -2.539e-08
9497.5, -2.703e-08
9499.5, -2.466e-08
9501.5, -2.666e-08
9503.5, -2.447e-08
9505.5, -2.448e-08
9507.5, -2.311e-08
9509.5, -2.603e-08
9511.5, -2.758e-08
9513.5, -2.574e-08
9515.5, -2.176e-08
9517.5, -2.476e-08
9519.5, -2.309e-08
9521.5, -2.341e-08
9523.5, -2.605e-08
9525.5, -2.689e-08
9527.5, -2.384e-08
9529.5, -2.559e-08
9531.5, -2.329e-08
9533.5, -2.401e-08
9535.5, -2.259e-08
9537.5, -2.26e-08
9539.5, -2.184e-08
9541.5, -2.33e-08
9543.5, -2.293e-08
9545.5, -2.286e-08
9547.5, -2.078e-08
9549.5, -2.387e-08
9551.5, -2.299e-08
9553.5, -1.957e-08
9555.5, -2.239e-08
9557.5, -2.439e-08
9559.5, -2.784e-08
9561.6, -2.289e-08
9563.6, -2.179e-08
9565.6, -2.218e-08
9567.6, -2.534e-08
9569.6, -2.392e-08
9571.6, -2.658e-08
9573.6, -2.157e-08
9575.6, -2.427e-08
9577.6, -2.511e-08
9579.6, -2.466e-08
9581.6, -2.353e-08
9583.6, -2.349e-08
9585.6, -2.291e-08
9587.6, -2.32e-08
9589.6, -2.159e-08
9591.6, -1.792e-08
9593.6, -1.957e-08
9595.6, -2.519e-08
9597.6, -2.038e-08
9599.6, -2.19e-08
9601.6, -2.271e-08
9603.6, -2.049e-08
9605.6, -2.078e-08
9607.6, -2.005e-08
9609.6, -2.429e-08
9611.6, -2.483e-08
9613.6, -2.421e-08
9615.6, -2.142e-08
9617.6, -2.567e-08
9619.6, -2.346e-08
9621.6, -2.239e-08
9623.6, -2.152e-08
9625.6, -2.347e-08
9627.6, -2.038e-08
9629.6, -2.13e-08
9631.6, -2.247e-08
9633.6, -2.107e-08
9635.6, -2.188e-08
9637.6, -2.186e-08
9639.6, -2.134e-08
9641.6, -1.842e-08
9643.6, -2.08e-08
9645.6, -2.061e-08
9647.6, -1.896e-08
9649.6, -1.911e-08
9651.6, -1.82e-08
9653.6, -2.062e-08
9655.6, -1.956e-08
9657.6, -1.876e-08
9659.6, -2.522e-08
9661.7, -2.344e-08
9663.7, -1.995e-08
9665.7, -2.347e-08
9667.7, -2.11e-08
9669.7, -2.105e-08
9671.7, -2.017e-08
9673.7, -1.993e-08
9675.7, -2.058e-08
9677.7, -2.041e-08
9679.7, -2.238e-08
9681.7, -2e-08
9683.7, -2.194e-08
9685.7, -1.874e-08
9687.7, -1.871e-08
9689.7, -2.076e-08
9691.7, -2.207e-08
9693.7, -1.977e-08
9695.7, -1.999e-08
9697.7, -1.965e-08
9699.7, -2.001e-08
9701.7, -2.234e-08
9703.7, -2.348e-08
9705.7, -2.158e-08
9707.7, -2.306e-08
9709.7, -2.304e-08
9711.7, -2.295e-08
9713.7, -2.159e-08
9715.7, -2.414e-08
9717.7, -2.783e-08
9719.7, -2.267e-08
9721.7, -2.51e-08
9723.7, -2.173e-08
9725.7, -2.362e-08
9727.7, -2.463e-08
9729.7, -2.605e-08
9731.7, -2.475e-08
9733.7, -2.364e-08
9735.7, -2.46e-08
9737.7, -2.239e-08
9739.7, -2.557e-08
9741.7, -2.371e-08
9743.7, -1.848e-08
9745.7, -2.269e-08
9747.7, -2.125e-08
9749.7, -2.07e-08
9751.7, -2.067e-08
9753.7, -2.377e-08
9755.7, -1.889e-08
9757.7, -2.025e-08
9759.7, -2.403e-08
9761.8, -2.268e-08
9763.8, -2.454e-08
9765.8, -2.222e-08
9767.8, -2.266e-08
9769.8, -2.022e-08
9771.8, -2.13e-08
9773.8, -2.245e-08
9775.8, -2.409e-08
9777.8, -2.339e-08
9779.8, -2.246e-08
9781.8, -2.064e-08
9783.8, -2.517e-08
9785.8, -2.348e-08
9787.8, -2.506e-08
9789.8, -2.451e-08
9791.8, -2.259e-08
9793.8, -2.629e-08
9795.8, -2.195e-08
9797.8, -2.086e-08
9799.8, -2.366e-08
9801.8, -2.303e-08
9803.8, -2.3e-08
9805.8, -2.493e-08
9807.8, -2.539e-08
9809.8, -2.547e-08
9811.8, -2.783e-08
9813.8, -2.306e-08
9815.8, -2.897e-08
9817.8, -2.563e-08
9819.8, -2.376e-08
9821.8, -2.438e-08
9823.8, -2.397e-08
9825.8, -2.15e-08
9827.8, -2.175e-08
9829.8, -2.372e-08
9831.8, -2.148e-08
9833.8, -2.516e-08
9835.8, -2.044e-08
9837.8, -1.649e-08
9839.8, -1.748e-08
9841.8, -1.722e-08
9843.8, -2.026e-08
9845.8, -1.842e-08
9847.8, -2.192e-08
9849.8, -2.317e-08
9851.8, -2.082e-08
9853.8, -1.732e-08
9855.8, -1.834e-08
9857.8, -2.132e-08
9859.8, -2.272e-08
9861.9, -2.38e-08
9863.9, -1.967e-08
9865.9, -2.196e-08
9867.9, -2.098e-08
9869.9, -2.068e-08
9871.9, -1.947e-08
9873.9, -1.978e-08
9875.9, -1.838e-08
9877.9, -1.864e-08
9879.9, -2.153e-08
9881.9, -2.133e-08
9883.9, -2.108e-08
9885.9, -2.019e-08
9887.9, -2.013e-08
9889.9, -2.164e-08
9891.9, -2.006e-08
9893.9, -2.279e-08
9895.9, -2.484e-08
9897.9, -2.24e-08
9899.9, -2.418e-08
9901.9, -2.23e-08
9903.9, -2.117e-08
9905.9, -2.233e-08
9907.9, -2.259e-08
9909.9, -2.139e-08
9911.9, -2.396e-08
9913.9, -1.932e-08
9915.9, -2.096e-08
9917.9, -1.724e-08
9919.9, -1.853e-08
9921.9, -1.712e-08
9923.9, -1.814e-08
9925.9, -2.03e-08
9927.9, -2.036e-08
9929.9, -2.344e-08
9931.9, -2.159e-08
9933.9, -1.977e-08
9935.9, -1.885e-08
9937.9, -2.162e-08
9939.9, -1.893e-08
9941.9, -1.921e-08
9943.9, -2.225e-08
9945.9, -1.837e-08
9947.9, -2.358e-08
9949.9, -2.525e-08
9951.9, -2.167e-08
9953.9, -2.346e-08
9955.9, -2.2e-08
9957.9, -2.097e-08
9959.9, -1.973e-08
9962.0, -1.94e-08
9964.0, -2.132e-08
9966.0, -2.245e-08
9968.0, -1.719e-08
9970.0, -2.272e-08
9972.0, -2.072e-08
9974.0, -2.044e-08
9976.0, -1.714e-08
9978.0, -1.401e-08
9980.0, -1.776e-08
9982.0, -1.579e-08
9984.0, -1.766e-08
9986.0, -1.939e-08
9988.0, -1.827e-08
9990.0, -1.82e-08
9992.0, -1.99e-08
9994.0, -1.884e-08
9996.0, -1.721e-08
9998.0, -1.583e-08
10000.0, -1.88e-08
10002.0, -1.819e-08
10004.0, -2.014e-08
10006.0, -1.737e-08
10008.0, -1.662e-08
