Time sep (ms?), Current (A)
0.0, -2.004e-08
2.002, -1.818e-08
4.004, -1.604e-08
6.006, -1.899e-08
8.008, -1.967e-08
10.01, -1.758e-08
12.012, -2.04e-08
14.014, -1.55e-08
16.016, -2.022e-08
18.018, -1.721e-08
20.02, -1.853e-08
22.022, -1.687e-08
24.024, -2.17e-08
26.026, -2.198e-08
28.028, -2.295e-08
30.03, -2.279e-08
32.032, -2.181e-08
34.034, -2.207e-08
36.036, -2.036e-08
38.038, -2.189e-08
40.04, -2.299e-08
42.042, -2.009e-08
44.044, -2.135e-08
46.046, -1.802e-08
48.048, -1.979e-08
50.05, -1.993e-08
52.052, -2.004e-08
54.054, -1.961e-08
56.056, -1.583e-08
58.058, -1.519e-08
60.06, -1.508e-08
62.062, -2.073e-08
64.064, -1.513e-08
66.066, -1.617e-08
68.068, -1.794e-08
70.07, -2.012e-08
72.072, -1.868e-08
74.074, -2.144e-08
76.076, -2.197e-08
78.078, -1.67e-08
80.08, -1.879e-08
82.082, -2.129e-08
84.084, -1.863e-08
86.086, -1.874e-08
88.088, -2.07e-08
90.09, -1.675e-08
92.092, -2.14e-08
94.094, -2.053e-08
96.096, -1.602e-08
98.098, -1.633e-08
100.1, -2.173e-08
102.1, -2.148e-08
104.1, -1.927e-08
106.11, -1.903e-08
108.11, -2.233e-08
110.11, -1.832e-08
112.11, -2.333e-08
114.11, -2.052e-08
116.12, -2.073e-08
118.12, -1.981e-08
120.12, -2.075e-08
122.12, -1.688e-08
124.12, -1.94e-08
126.13, -2.221e-08
128.13, -2.258e-08
130.13, -1.972e-08
132.13, -2.064e-08
134.13, -2.104e-08
136.14, -1.923e-08
138.14, -1.976e-08
140.14, -2.263e-08
142.14, -2.2e-08
144.14, -2.182e-08
146.15, -2.284e-08
148.15, -2.441e-08
150.15, -2.305e-08
152.15, -2.098e-08
154.15, -2.171e-08
156.16, -2.139e-08
158.16, -1.99e-08
160.16, -1.842e-08
162.16, -2.039e-08
164.16, -2.069e-08
166.17, -2.246e-08
168.17, -2.192e-08
170.17, -2.064e-08
172.17, -1.819e-08
174.17, -1.914e-08
176.18, -1.687e-08
178.18, -1.709e-08
180.18, -1.548e-08
182.18, -2.047e-08
184.18, -1.526e-08
186.19, -1.86e-08
188.19, -1.91e-08
190.19, -2.141e-08
192.19, -2.042e-08
194.19, -2.13e-08
196.2, -2.127e-08
198.2, -1.889e-08
200.2, -2.043e-08
202.2, -2.037e-08
204.2, -1.86e-08
206.21, -1.691e-08
208.21, -1.432e-08
210.21, -2.001e-08
212.21, -1.782e-08
214.21, -1.807e-08
216.22, -2.033e-08
218.22, -2.021e-08
220.22, -1.598e-08
222.22, -1.464e-08
224.22, -1.626e-08
226.23, -1.757e-08
228.23, -1.775e-08
230.23, -1.636e-08
232.23, -1.886e-08
234.23, -1.816e-08
236.24, -1.598e-08
238.24, -1.605e-08
240.24, -1.368e-08
242.24, -1.8e-08
244.24, -1.647e-08
246.25, -1.537e-08
248.25, -1.49e-08
250.25, -1.68e-08
252.25, -1.611e-08
254.25, -1.223e-08
256.26, -1.407e-08
258.26, -1.43e-08
260.26, -1.97e-08
262.26, -1.555e-08
264.26, -1.485e-08
266.27, -1.648e-08
268.27, -1.783e-08
270.27, -1.847e-08
272.27, -1.942e-08
274.27, -1.892e-08
276.28, -1.718e-08
278.28, -2.058e-08
280.28, -2.102e-08
282.28, -1.899e-08
284.28, -1.668e-08
286.29, -1.941e-08
288.29, -1.767e-08
290.29, -1.837e-08
292.29, -1.813e-08
294.29, -2.141e-08
296.3, -1.765e-08
298.3, -1.843e-08
300.3, -1.462e-08
302.3, -1.809e-08
304.3, -1.795e-08
306.31, -1.693e-08
308.31, -1.84e-08
310.31, -1.558e-08
312.31, -1.681e-08
314.31, -1.603e-08
316.32, -1.565e-08
318.32, -1.307e-08
320.32, -1.593e-08
322.32, -1.28e-08
324.32, -1.712e-08
326.33, -1.897e-08
328.33, -1.887e-08
330.33, -1.721e-08
332.33, -1.709e-08
334.33, -1.668e-08
336.34, -1.594e-08
338.34, -1.65e-08
340.34, -1.63e-08
342.34, -1.665e-08
344.34, -1.835e-08
346.35, -1.516e-08
348.35, -1.973e-08
350.35, -1.769e-08
352.35, -1.945e-08
354.35, -1.622e-08
356.36, -1.67e-08
358.36, -2e-08
360.36, -1.566e-08
362.36, -1.542e-08
364.36, -1.654e-08
366.37, -1.685e-08
368.37, -1.749e-08
370.37, -1.752e-08
372.37, -1.679e-08
374.37, -1.644e-08
376.38, -1.716e-08
378.38, -1.669e-08
380.38, -2.063e-08
382.38, -1.988e-08
384.38, -1.766e-08
386.39, -1.546e-08
388.39, -1.526e-08
390.39, -1.258e-08
392.39, -1.662e-08
394.39, -1.57e-08
396.4, -1.62e-08
398.4, -1.614e-08
400.4, -1.633e-08
402.4, -1.745e-08
404.4, -1.705e-08
406.41, -1.39e-08
408.41, -1.429e-08
410.41, -1.57e-08
412.41, -1.526e-08
414.41, -1.585e-08
416.42, -1.755e-08
418.42, -1.766e-08
420.42, -1.624e-08
422.42, -1.869e-08
424.42, -1.729e-08
426.43, -1.936e-08
428.43, -1.913e-08
430.43, -1.968e-08
432.43, -2.078e-08
434.43, -1.72e-08
436.44, -1.892e-08
438.44, -1.591e-08
440.44, -1.717e-08
442.44, -1.548e-08
444.44, -2.158e-08
446.45, -1.471e-08
448.45, -2.145e-08
450.45, -1.892e-08
452.45, -1.609e-08
454.45, -1.585e-08
456.46, -1.855e-08
458.46, -1.912e-08
460.46, -1.625e-08
462.46, -1.91e-08
464.46, -2.018e-08
466.47, -1.811e-08
468.47, -2.077e-08
470.47, -2.031e-08
472.47, -2.282e-08
474.47, -1.755e-08
476.48, -2.05e-08
478.48, -1.626e-08
480.48, -1.825e-08
482.48, -1.725e-08
484.48, -1.921e-08
486.49, -1.746e-08
488.49, -2.149e-08
490.49, -1.809e-08
492.49, -1.792e-08
494.49, -1.499e-08
496.5, -1.738e-08
498.5, -1.608e-08
500.5, -1.593e-08
502.5, -1.713e-08
504.5, -1.408e-08
506.51, -1.767e-08
508.51, -1.566e-08
510.51, -1.708e-08
512.51, -1.719e-08
514.51, -1.962e-08
516.52, -1.7e-08
518.52, -1.755e-08
520.52, -1.951e-08
522.52, -1.622e-08
524.52, -1.798e-08
526.53, -1.906e-08
528.53, -1.628e-08
530.53, -1.952e-08
532.53, -1.608e-08
534.53, -1.555e-08
536.54, -1.874e-08
538.54, -2.162e-08
540.54, -1.848e-08
542.54, -1.781e-08
544.54, -1.799e-08
546.55, -1.623e-08
548.55, -1.792e-08
550.55, -1.671e-08
552.55, -1.715e-08
554.55, -1.934e-08
556.56, -1.503e-08
558.56, -2.116e-08
560.56, -2.067e-08
562.56, -2.01e-08
564.56, -1.851e-08
566.57, -2.084e-08
568.57, -1.919e-08
570.57, -1.575e-08
572.57, -1.624e-08
574.57, -2.425e-08
576.58, -2.214e-08
578.58, -2.117e-08
580.58, -1.9e-08
582.58, -2.245e-08
584.58, -1.774e-08
586.59, -1.689e-08
588.59, -2.047e-08
590.59, -2.134e-08
592.59, -1.883e-08
594.59, -2.037e-08
596.6, -1.861e-08
598.6, -1.687e-08
600.6, -1.896e-08
602.6, -1.832e-08
604.6, -1.861e-08
606.61, -1.787e-08
608.61, -1.904e-08
610.61, -1.647e-08
612.61, -1.678e-08
614.61, -1.68e-08
616.62, -1.855e-08
618.62, -1.826e-08
620.62, -1.534e-08
622.62, -1.85e-08
624.62, -2.024e-08
626.63, -2.009e-08
628.63, -1.957e-08
630.63, -1.971e-08
632.63, -1.913e-08
634.63, -1.706e-08
636.64, -1.366e-08
638.64, -1.504e-08
640.64, -1.913e-08
642.64, -1.683e-08
644.64, -1.313e-08
646.65, -1.262e-08
648.65, -1.716e-08
650.65, -1.64e-08
652.65, -1.563e-08
654.65, -1.916e-08
656.66, -1.949e-08
658.66, -1.632e-08
660.66, -1.914e-08
662.66, -1.731e-08
664.66, -1.642e-08
666.67, -1.694e-08
668.67, -2.225e-08
670.67, -2.141e-08
672.67, -1.994e-08
674.67, -2.078e-08
676.68, -1.746e-08
678.68, -1.79e-08
680.68, -1.794e-08
682.68, -1.899e-08
684.68, -2.061e-08
686.69, -2.353e-08
688.69, -2.161e-08
690.69, -1.82e-08
692.69, -1.774e-08
694.69, -1.627e-08
696.7, -1.811e-08
698.7, -2.259e-08
700.7, -1.709e-08
702.7, -1.667e-08
704.7, -2.098e-08
706.71, -1.974e-08
708.71, -1.935e-08
710.71, -1.89e-08
712.71, -2.037e-08
714.71, -1.872e-08
716.72, -1.856e-08
718.72, -2.012e-08
720.72, -1.873e-08
722.72, -2.283e-08
724.72, -1.891e-08
726.73, -1.768e-08
728.73, -1.944e-08
730.73, -1.824e-08
732.73, -1.667e-08
734.73, -1.949e-08
736.74, -1.981e-08
738.74, -2.224e-08
740.74, -2.367e-08
742.74, -2.305e-08
744.74, -2.284e-08
746.75, -2.092e-08
748.75, -2.44e-08
750.75, -2.208e-08
752.75, -1.806e-08
754.75, -1.916e-08
756.76, -2.097e-08
758.76, -2.359e-08
760.76, -2.1e-08
762.76, -2.15e-08
764.76, -2.008e-08
766.77, -1.881e-08
768.77, -2.14e-08
770.77, -2.092e-08
772.77, -1.913e-08
774.77, -2.033e-08
776.78, -1.774e-08
778.78, -1.838e-08
780.78, -2.171e-08
782.78, -2.294e-08
784.78, -2.085e-08
786.79, -1.834e-08
788.79, -1.707e-08
790.79, -1.985e-08
792.79, -2.197e-08
794.79, -2.231e-08
796.8, -2.362e-08
798.8, -2.571e-08
800.8, -2.286e-08
802.8, -2.386e-08
804.8, -2.196e-08
806.81, -1.764e-08
808.81, -1.946e-08
810.81, -1.947e-08
812.81, -1.63e-08
814.81, -2.064e-08
816.82, -2.044e-08
818.82, -1.925e-08
820.82, -1.903e-08
822.82, -2.053e-08
824.82, -1.851e-08
826.83, -1.65e-08
828.83, -2.23e-08
830.83, -2.045e-08
832.83, -1.965e-08
834.83, -1.946e-08
836.84, -1.796e-08
838.84, -1.861e-08
840.84, -1.99e-08
842.84, -2.062e-08
844.84, -2.048e-08
846.85, -2.04e-08
848.85, -1.751e-08
850.85, -2.033e-08
852.85, -2.287e-08
854.85, -2.192e-08
856.86, -2.016e-08
858.86, -2.28e-08
860.86, -2.25e-08
862.86, -1.973e-08
864.86, -2.016e-08
866.87, -2.006e-08
868.87, -1.733e-08
870.87, -2.324e-08
872.87, -1.996e-08
874.87, -1.957e-08
876.88, -1.799e-08
878.88, -2.209e-08
880.88, -2.161e-08
882.88, -1.589e-08
884.88, -2.118e-08
886.89, -1.728e-08
888.89, -2.228e-08
890.89, -2.162e-08
892.89, -2.115e-08
894.89, -1.789e-08
896.9, -1.972e-08
898.9, -2.128e-08
900.9, -2.299e-08
902.9, -2.358e-08
904.9, -2.262e-08
906.91, -1.966e-08
908.91, -2.357e-08
910.91, -2.275e-08
912.91, -2.043e-08
914.91, -2.111e-08
916.92, -2.218e-08
918.92, -2.287e-08
920.92, -2.058e-08
922.92, -1.898e-08
924.92, -1.939e-08
926.93, -2.477e-08
928.93, -2.383e-08
930.93, -2.407e-08
932.93, -2.214e-08
934.93, -2.086e-08
936.94, -2.733e-08
938.94, -2.463e-08
940.94, -2.585e-08
942.94, -2.596e-08
944.94, -2.132e-08
946.95, -2.075e-08
948.95, -2.275e-08
950.95, -2.184e-08
952.95, -2.253e-08
954.95, -2.195e-08
956.96, -2.092e-08
958.96, -1.821e-08
960.96, -2.049e-08
962.96, -2.215e-08
964.96, -2.096e-08
966.97, -2.036e-08
968.97, -2.084e-08
970.97, -2.137e-08
972.97, -2.108e-08
974.97, -1.91e-08
976.98, -2.522e-08
978.98, -1.773e-08
980.98, -2.437e-08
982.98, -1.926e-08
984.98, -2.229e-08
986.99, -2.035e-08
988.99, -1.993e-08
990.99, -2.096e-08
992.99, -2.211e-08
994.99, -2.102e-08
997.0, -1.901e-08
999.0, -2.306e-08
1001.0, -2.422e-08
1003.0, -2.146e-08
1005.0, -2.176e-08
1007.0, -1.891e-08
1009.0, -2.078e-08
1011.0, -2.109e-08
1013.0, -1.916e-08
1015.0, -2.086e-08
1017.0, -1.993e-08
1019.0, -2.205e-08
1021.0, -1.978e-08
1023.0, -2.425e-08
1025.0, -2.002e-08
1027.0, -1.761e-08
1029.0, -1.876e-08
1031.0, -2.396e-08
1033.0, -1.972e-08
1035.0, -1.951e-08
1037.0, -2.037e-08
1039.0, -2.42e-08
1041.0, -1.996e-08
1043.0, -1.986e-08
1045.0, -2.079e-08
1047.0, -2.188e-08
1049.0, -2.029e-08
1051.0, -1.657e-08
1053.1, 1.7774e-07
1055.1, 1.652e-07
1057.1, 1.7482e-07
1059.1, 1.6051e-07
1061.1, 1.9723e-07
1063.1, 1.2862e-07
1065.1, 1.5559e-07
1067.1, 1.6519e-07
1069.1, 1.6449e-07
1071.1, 2.1015e-07
1073.1, 1.5464e-07
1075.1, 1.5731e-07
1077.1, 2.0879e-07
1079.1, 1.6756e-07
1081.1, 1.7991e-07
1083.1, 1.6512e-07
1085.1, 1.9679e-07
1087.1, 1.4717e-07
1089.1, 1.9652e-07
1091.1, 2.1648e-07
1093.1, 1.4566e-07
1095.1, 1.8652e-07
1097.1, 1.627e-07
1099.1, 1.3246e-07
1101.1, 1.8915e-07
1103.1, 1.5307e-07
1105.1, 1.6884e-07
1107.1, 1.8169e-07
1109.1, 1.4056e-07
1111.1, 1.6974e-07
1113.1, 1.528e-07
1115.1, 1.4824e-07
1117.1, 1.746e-07
1119.1, 1.9356e-07
1121.1, 2.3461e-07
1123.1, 2.0102e-07
1125.1, 1.8377e-07
1127.1, 2.0105e-07
1129.1, 1.7145e-07
1131.1, 1.9092e-07
1133.1, 1.7565e-07
1135.1, 1.8751e-07
1137.1, 2.1608e-07
1139.1, 1.7513e-07
1141.1, 1.7228e-07
1143.1, 1.6233e-07
1145.1, 2.0338e-07
1147.1, 1.7883e-07
1149.1, 1.7659e-07
1151.1, 1.8408e-07
1153.2, 1.7878e-07
1155.2, 1.7695e-07
1157.2, 1.8775e-07
1159.2, 1.7012e-07
1161.2, 1.76e-07
1163.2, 2.0034e-07
1165.2, 1.7625e-07
1167.2, 1.4542e-07
1169.2, 1.341e-07
1171.2, 1.7059e-07
1173.2, 2.2336e-07
1175.2, 2.1844e-07
1177.2, 2.076e-07
1179.2, 1.7195e-07
1181.2, 1.7442e-07
1183.2, 1.8944e-07
1185.2, 1.6712e-07
1187.2, 1.3453e-07
1189.2, 2.1108e-07
1191.2, 1.9996e-07
1193.2, 1.7359e-07
1195.2, 1.9046e-07
1197.2, 1.2258e-07
1199.2, 1.844e-07
1201.2, 1.9043e-07
1203.2, 1.6558e-07
1205.2, 1.8933e-07
1207.2, 2.1506e-07
1209.2, 1.8182e-07
1211.2, 2.3834e-07
1213.2, 1.9332e-07
1215.2, 2.1458e-07
1217.2, 1.9039e-07
1219.2, 1.4696e-07
1221.2, 1.8282e-07
1223.2, 1.6516e-07
1225.2, 1.994e-07
1227.2, 2.284e-07
1229.2, 1.6507e-07
1231.2, 1.918e-07
1233.2, 1.9786e-07
1235.2, 1.8918e-07
1237.2, 1.8923e-07
1239.2, 1.8105e-07
1241.2, 1.657e-07
1243.2, 1.8833e-07
1245.2, 1.9059e-07
1247.2, 2.0878e-07
1249.2, 1.8888e-07
1251.2, 1.9152e-07
1253.3, 1.9352e-07
1255.3, 1.8726e-07
1257.3, 2.053e-07
1259.3, 1.7908e-07
1261.3, 2.1902e-07
1263.3, 2.0367e-07
1265.3, 2.2404e-07
1267.3, 2.1978e-07
1269.3, 1.8657e-07
1271.3, 1.8478e-07
1273.3, 1.5332e-07
1275.3, 1.8442e-07
1277.3, 1.9301e-07
1279.3, 1.9666e-07
1281.3, 1.9541e-07
1283.3, 1.4451e-07
1285.3, 1.9299e-07
1287.3, 2.2656e-07
1289.3, 1.8607e-07
1291.3, 2.0501e-07
1293.3, 1.9162e-07
1295.3, 1.7744e-07
1297.3, 1.7393e-07
1299.3, 1.9998e-07
1301.3, 1.5281e-07
1303.3, 2.078e-07
1305.3, 2.1731e-07
1307.3, 1.616e-07
1309.3, 1.8041e-07
1311.3, 2.3725e-07
1313.3, 1.999e-07
1315.3, 1.9909e-07
1317.3, 2.4982e-07
1319.3, 1.522e-07
1321.3, 1.4887e-07
1323.3, 1.831e-07
1325.3, 1.9303e-07
1327.3, 1.8607e-07
1329.3, 2.0226e-07
1331.3, 1.9797e-07
1333.3, 1.683e-07
1335.3, 2.1053e-07
1337.3, 1.9675e-07
1339.3, 1.8475e-07
1341.3, 1.8434e-07
1343.3, 2.0118e-07
1345.3, 2.1777e-07
1347.3, 2.1118e-07
1349.3, 2.3769e-07
1351.3, 1.7949e-07
1353.4, 1.9732e-07
1355.4, 2.0852e-07
1357.4, 1.8349e-07
1359.4, 2.0848e-07
1361.4, 2.3594e-07
1363.4, 1.7739e-07
1365.4, 2.1618e-07
1367.4, 2.1493e-07
1369.4, 1.6936e-07
1371.4, 2.1362e-07
1373.4, 2.0439e-07
1375.4, 2.2587e-07
1377.4, 2.2921e-07
1379.4, 2.1342e-07
1381.4, 1.887e-07
1383.4, 1.8595e-07
1385.4, 1.7894e-07
1387.4, 1.846e-07
1389.4, 1.9246e-07
1391.4, 1.647e-07
1393.4, 2.2211e-07
1395.4, 2.4116e-07
1397.4, 2.0541e-07
1399.4, 2.2098e-07
1401.4, 1.9589e-07
1403.4, 1.6492e-07
1405.4, 1.8233e-07
1407.4, 2.118e-07
1409.4, 2.0563e-07
1411.4, 1.8636e-07
1413.4, 2.043e-07
1415.4, 2.068e-07
1417.4, 1.7634e-07
1419.4, 1.9186e-07
1421.4, 1.8485e-07
1423.4, 1.9557e-07
1425.4, 1.5334e-07
1427.4, 2.0662e-07
1429.4, 1.7363e-07
1431.4, 2.3385e-07
1433.4, 1.9002e-07
1435.4, 2.2493e-07
1437.4, 1.8518e-07
1439.4, 1.7379e-07
1441.4, 2.0479e-07
1443.4, 2.0289e-07
1445.4, 2.6065e-07
1447.4, 1.9882e-07
1449.4, 1.9926e-07
1451.4, 2.2507e-07
1453.5, 2.0597e-07
1455.5, 2.0422e-07
1457.5, 1.7466e-07
1459.5, 2.1325e-07
1461.5, 2.2466e-07
1463.5, 2.1642e-07
1465.5, 2.4332e-07
1467.5, 2.1654e-07
1469.5, 2.467e-07
1471.5, 2.1629e-07
1473.5, 1.9545e-07
1475.5, 2.2793e-07
1477.5, 2.18e-07
1479.5, 1.8201e-07
1481.5, 2.0285e-07
1483.5, 2.2154e-07
1485.5, 1.8445e-07
1487.5, 2.0577e-07
1489.5, 1.7496e-07
1491.5, 2.0287e-07
1493.5, 1.8154e-07
1495.5, 2.1539e-07
1497.5, 2.6485e-07
1499.5, 1.736e-07
1501.5, 1.6603e-07
1503.5, 2.1457e-07
1505.5, 2.415e-07
1507.5, 2.1628e-07
1509.5, 2.1936e-07
1511.5, 2.3343e-07
1513.5, 1.4855e-07
1515.5, 2.017e-07
1517.5, 2.3709e-07
1519.5, 1.7115e-07
1521.5, 2.2931e-07
1523.5, 2.1319e-07
1525.5, 1.9346e-07
1527.5, 2.0447e-07
1529.5, 1.83e-07
1531.5, 2.2255e-07
1533.5, 1.9618e-07
1535.5, 2.0098e-07
1537.5, 2.3407e-07
1539.5, 2.0905e-07
1541.5, 2.2139e-07
1543.5, 2.2683e-07
1545.5, 1.9222e-07
1547.5, 2.1533e-07
1549.5, 1.8709e-07
1551.5, 2.3431e-07
1553.6, 2.2764e-07
1555.6, 1.6211e-07
1557.6, 2.069e-07
1559.6, 2.0342e-07
1561.6, 2.4966e-07
1563.6, 1.8025e-07
1565.6, 1.8381e-07
1567.6, 2.263e-07
1569.6, 2.3128e-07
1571.6, 2.2007e-07
1573.6, 2.2454e-07
1575.6, 1.8172e-07
1577.6, 2.147e-07
1579.6, 1.7077e-07
1581.6, 2.1853e-07
1583.6, 1.8599e-07
1585.6, 2.0054e-07
1587.6, 2.2869e-07
1589.6, 2.6165e-07
1591.6, 2.7372e-07
1593.6, 2.0683e-07
1595.6, 2.4098e-07
1597.6, 2.5317e-07
1599.6, 2.2241e-07
1601.6, 1.7696e-07
1603.6, 1.8691e-07
1605.6, 2.1481e-07
1607.6, 2.4278e-07
1609.6, 2.2532e-07
1611.6, 1.8851e-07
1613.6, 2.6655e-07
1615.6, 2.3567e-07
1617.6, 2.1492e-07
1619.6, 2.2714e-07
1621.6, 2.133e-07
1623.6, 2.2068e-07
1625.6, 1.7292e-07
1627.6, 2.4551e-07
1629.6, 2.4049e-07
1631.6, 2.037e-07
1633.6, 2.2698e-07
1635.6, 2.1545e-07
1637.6, 2.1511e-07
1639.6, 2.1284e-07
1641.6, 2.1192e-07
1643.6, 2.0525e-07
1645.6, 2.0676e-07
1647.6, 2.2282e-07
1649.6, 2.4149e-07
1651.6, 2.588e-07
1653.7, 1.6283e-07
1655.7, 2.5764e-07
1657.7, 2.1929e-07
1659.7, 1.8603e-07
1661.7, 2.0993e-07
1663.7, 1.5976e-07
1665.7, 2.0874e-07
1667.7, 2.3679e-07
1669.7, 2.0139e-07
1671.7, 2.0916e-07
1673.7, 1.9049e-07
1675.7, 1.9963e-07
1677.7, 2.1796e-07
1679.7, 1.9004e-07
1681.7, 1.8491e-07
1683.7, 2.3714e-07
1685.7, 2.2988e-07
1687.7, 2.1845e-07
1689.7, 1.968e-07
1691.7, 2.2194e-07
1693.7, 2.1338e-07
1695.7, 2.0227e-07
1697.7, 1.913e-07
1699.7, 1.9411e-07
1701.7, 2.0181e-07
1703.7, 2.185e-07
1705.7, 2.458e-07
1707.7, 2.0094e-07
1709.7, 2.6845e-07
1711.7, 2.3217e-07
1713.7, 2.5565e-07
1715.7, 2.1823e-07
1717.7, 2.1487e-07
1719.7, 1.6671e-07
1721.7, 2.2761e-07
1723.7, 2.2099e-07
1725.7, 2.1278e-07
1727.7, 2.0998e-07
1729.7, 1.974e-07
1731.7, 2.2084e-07
1733.7, 1.8158e-07
1735.7, 2.2694e-07
1737.7, 1.9851e-07
1739.7, 1.6473e-07
1741.7, 2.1557e-07
1743.7, 1.9641e-07
1745.7, 2.3548e-07
1747.7, 1.7695e-07
1749.7, 1.9858e-07
1751.7, 2.3382e-07
1753.8, 2.1576e-07
1755.8, 2.2921e-07
1757.8, 2.5338e-07
1759.8, 1.8381e-07
1761.8, 1.878e-07
1763.8, 2.4615e-07
1765.8, 2.096e-07
1767.8, 2.1529e-07
1769.8, 2.1966e-07
1771.8, 2.0329e-07
1773.8, 2.6817e-07
1775.8, 2.0075e-07
1777.8, 2.245e-07
1779.8, 2.1182e-07
1781.8, 2.0406e-07
1783.8, 2.1475e-07
1785.8, 2.4796e-07
1787.8, 2.4225e-07
1789.8, 2.3952e-07
1791.8, 2.4744e-07
1793.8, 2.1624e-07
1795.8, 1.9908e-07
1797.8, 2.0459e-07
1799.8, 2.0768e-07
1801.8, 2.0582e-07
1803.8, 2.1703e-07
1805.8, 2.3354e-07
1807.8, 2.4996e-07
1809.8, 2.1331e-07
1811.8, 2.3248e-07
1813.8, 2.1746e-07
1815.8, 1.9821e-07
1817.8, 2.3652e-07
1819.8, 2.0297e-07
1821.8, 2.3992e-07
1823.8, 2.3147e-07
1825.8, 1.9996e-07
1827.8, 2.2035e-07
1829.8, 2.2804e-07
1831.8, 2.0589e-07
1833.8, 2.1865e-07
1835.8, 2.4659e-07
1837.8, 2.1543e-07
1839.8, 2.1834e-07
1841.8, 2.6124e-07
1843.8, 2.548e-07
1845.8, 2.1062e-07
1847.8, 2.356e-07
1849.8, 2.4748e-07
1851.8, 2.163e-07
1853.9, 2.5914e-07
1855.9, 2.1881e-07
1857.9, 2.1128e-07
1859.9, 1.9553e-07
1861.9, 2.0514e-07
1863.9, 2.4656e-07
1865.9, 2.05e-07
1867.9, 2.5583e-07
1869.9, 2.2776e-07
1871.9, 2.0378e-07
1873.9, 2.0689e-07
1875.9, 2.2746e-07
1877.9, 2.0254e-07
1879.9, 1.9568e-07
1881.9, 2.1118e-07
1883.9, 1.8643e-07
1885.9, 2.1839e-07
1887.9, 1.8378e-07
1889.9, 2.2353e-07
1891.9, 2.1114e-07
1893.9, 1.8271e-07
1895.9, 2.1244e-07
1897.9, 2.037e-07
1899.9, 2.3638e-07
1901.9, 1.729e-07
1903.9, 2.4847e-07
1905.9, 2.251e-07
1907.9, 2.0342e-07
1909.9, 2.1876e-07
1911.9, 1.9507e-07
1913.9, 1.9995e-07
1915.9, 1.8085e-07
1917.9, 2.3034e-07
1919.9, 2.138e-07
1921.9, 2.2813e-07
1923.9, 1.9098e-07
1925.9, 2.3899e-07
1927.9, 2.0107e-07
1929.9, 2.3401e-07
1931.9, 2.2018e-07
1933.9, 1.7538e-07
1935.9, 2.6697e-07
1937.9, 2.3547e-07
1939.9, 2.2621e-07
1941.9, 2.2809e-07
1943.9, 2.4047e-07
1945.9, 2.0593e-07
1947.9, 1.623e-07
1949.9, 1.9039e-07
1951.9, 2.6038e-07
1954.0, 2.3617e-07
1956.0, 2.0809e-07
1958.0, 2.583e-07
1960.0, 2.1364e-07
1962.0, 2.2214e-07
1964.0, 2.1071e-07
1966.0, 1.9839e-07
1968.0, 2.037e-07
1970.0, 2.2309e-07
1972.0, 2.5017e-07
1974.0, 1.826e-07
1976.0, 2.7644e-07
1978.0, 1.7422e-07
1980.0, 1.6946e-07
1982.0, 2.2726e-07
1984.0, 2.1534e-07
1986.0, 1.8952e-07
1988.0, 2.026e-07
1990.0, 2.0314e-07
1992.0, 2.5116e-07
1994.0, 2.2955e-07
1996.0, 1.7127e-07
1998.0, 2.222e-07
2000.0, 2.1709e-07
2002.0, 2.4503e-07
2004.0, 2.0623e-07
2006.0, 2.25e-07
2008.0, 2.3332e-07
2010.0, 2.2051e-07
2012.0, 2.4864e-07
2014.0, 1.9091e-07
2016.0, 2.0299e-07
2018.0, 1.791e-07
2020.0, 2.1495e-07
2022.0, 2.6842e-07
2024.0, 1.764e-07
2026.0, 1.973e-07
2028.0, 2.2458e-07
2030.0, 2.3042e-07
2032.0, 2.335e-07
2034.0, 2.2729e-07
2036.0, 2.2663e-07
2038.0, 2.006e-07
2040.0, 2.3819e-07
2042.0, 1.936e-07
2044.0, 2.048e-07
2046.0, 2.029e-07
2048.0, 1.7214e-07
2050.0, 2.205e-07
2052.0, 2.6744e-07
2054.1, -2.064e-08
2056.1, -1.959e-08
2058.1, -1.907e-08
2060.1, -2.106e-08
2062.1, -1.897e-08
2064.1, -1.869e-08
2066.1, -1.871e-08
2068.1, -1.664e-08
2070.1, -1.993e-08
2072.1, -2.288e-08
2074.1, -2.129e-08
2076.1, -2.094e-08
2078.1, -1.821e-08
2080.1, -2.286e-08
2082.1, -1.968e-08
2084.1, -1.915e-08
2086.1, -1.632e-08
2088.1, -1.865e-08
2090.1, -1.973e-08
2092.1, -1.875e-08
2094.1, -1.854e-08
2096.1, -1.522e-08
2098.1, -1.669e-08
2100.1, -1.609e-08
2102.1, -1.817e-08
2104.1, -1.67e-08
2106.1, -1.687e-08
2108.1, -1.343e-08
2110.1, -2.063e-08
2112.1, -2.111e-08
2114.1, -2.143e-08
2116.1, -1.901e-08
2118.1, -1.928e-08
2120.1, -1.833e-08
2122.1, -1.764e-08
2124.1, -1.846e-08
2126.1, -1.922e-08
2128.1, -2.125e-08
2130.1, -1.89e-08
2132.1, -2.009e-08
2134.1, -1.704e-08
2136.1, -2.423e-08
2138.1, -1.978e-08
2140.1, -2.076e-08
2142.1, -1.827e-08
2144.1, -1.872e-08
2146.1, -1.913e-08
2148.1, -1.639e-08
2150.1, -2.416e-08
2152.1, -1.918e-08
2154.2, -1.618e-08
2156.2, -1.934e-08
2158.2, -1.981e-08
2160.2, -2.155e-08
2162.2, -2.01e-08
2164.2, -2.058e-08
2166.2, -2.29e-08
2168.2, -2.038e-08
2170.2, -2.231e-08
2172.2, -2.441e-08
2174.2, -2.176e-08
2176.2, -1.864e-08
2178.2, -2.114e-08
2180.2, -2.102e-08
2182.2, -2.015e-08
2184.2, -1.786e-08
2186.2, -1.907e-08
2188.2, -1.941e-08
2190.2, -2.016e-08
2192.2, -1.844e-08
2194.2, -1.771e-08
2196.2, -1.485e-08
2198.2, -1.834e-08
2200.2, -1.873e-08
2202.2, -2.066e-08
2204.2, -1.933e-08
2206.2, -2.106e-08
2208.2, -2.074e-08
2210.2, -1.959e-08
2212.2, -2.29e-08
2214.2, -2.092e-08
2216.2, -2.033e-08
2218.2, -2.162e-08
2220.2, -1.927e-08
2222.2, -2.288e-08
2224.2, -2.195e-08
2226.2, -2.222e-08
2228.2, -1.951e-08
2230.2, -1.908e-08
2232.2, -1.923e-08
2234.2, -1.955e-08
2236.2, -1.987e-08
2238.2, -2.203e-08
2240.2, -1.919e-08
2242.2, -2.444e-08
2244.2, -2.307e-08
2246.2, -2.048e-08
2248.2, -2.089e-08
2250.2, -2.05e-08
2252.2, -2.253e-08
2254.3, -2.146e-08
2256.3, -2.266e-08
2258.3, -2.07e-08
2260.3, -2.271e-08
2262.3, -2.02e-08
2264.3, -2.316e-08
2266.3, -2.084e-08
2268.3, -2.58e-08
2270.3, -2.467e-08
2272.3, -2.377e-08
2274.3, -1.886e-08
2276.3, -2.02e-08
2278.3, -2.315e-08
2280.3, -2.188e-08
2282.3, -2.54e-08
2284.3, -1.766e-08
2286.3, -2.392e-08
2288.3, -2.306e-08
2290.3, -2.039e-08
2292.3, -2.046e-08
2294.3, -1.641e-08
2296.3, -1.797e-08
2298.3, -2.022e-08
2300.3, -2.063e-08
2302.3, -1.882e-08
2304.3, -2.01e-08
2306.3, -1.502e-08
2308.3, -1.8e-08
2310.3, -1.924e-08
2312.3, -2.033e-08
2314.3, -2.17e-08
2316.3, -2.215e-08
2318.3, -2.068e-08
2320.3, -2.43e-08
2322.3, -2.242e-08
2324.3, -2.028e-08
2326.3, -1.922e-08
2328.3, -2.05e-08
2330.3, -2.257e-08
2332.3, -2.458e-08
2334.3, -2.185e-08
2336.3, -2.062e-08
2338.3, -2.207e-08
2340.3, -2.275e-08
2342.3, -2.089e-08
2344.3, -2.236e-08
2346.3, -2.155e-08
2348.3, -1.982e-08
2350.3, -1.798e-08
2352.3, -1.75e-08
2354.4, -1.805e-08
2356.4, -1.819e-08
2358.4, -2.062e-08
2360.4, -2.067e-08
2362.4, -2.041e-08
2364.4, -1.362e-08
2366.4, -1.498e-08
2368.4, -1.959e-08
2370.4, -1.723e-08
2372.4, -2.026e-08
2374.4, -1.694e-08
2376.4, -1.897e-08
2378.4, -1.778e-08
2380.4, -1.724e-08
2382.4, -2.019e-08
2384.4, -2.08e-08
2386.4, -1.739e-08
2388.4, -1.963e-08
2390.4, -2.011e-08
2392.4, -2.039e-08
2394.4, -1.409e-08
2396.4, -1.833e-08
2398.4, -1.793e-08
2400.4, -1.368e-08
2402.4, -1.895e-08
2404.4, -1.935e-08
2406.4, -1.304e-08
2408.4, -1.39e-08
2410.4, -1.609e-08
2412.4, -2.109e-08
2414.4, -2.126e-08
2416.4, -1.971e-08
2418.4, -1.803e-08
2420.4, -1.932e-08
2422.4, -1.89e-08
2424.4, -1.712e-08
2426.4, -1.506e-08
2428.4, -1.695e-08
2430.4, -1.285e-08
2432.4, -1.598e-08
2434.4, -1.414e-08
2436.4, -1.814e-08
2438.4, -1.779e-08
2440.4, -1.813e-08
2442.4, -1.406e-08
2444.4, -1.644e-08
2446.4, -1.509e-08
2448.4, -1.964e-08
2450.4, -1.623e-08
2452.4, -1.751e-08
2454.5, -1.57e-08
2456.5, -1.936e-08
2458.5, -1.886e-08
2460.5, -2.037e-08
2462.5, -2.006e-08
2464.5, -1.865e-08
2466.5, -1.391e-08
2468.5, -1.591e-08
2470.5, -1.469e-08
2472.5, -1.458e-08
2474.5, -1.611e-08
2476.5, -1.672e-08
2478.5, -1.583e-08
2480.5, -1.63e-08
2482.5, -1.85e-08
2484.5, -1.72e-08
2486.5, -1.533e-08
2488.5, -1.599e-08
2490.5, -1.996e-08
2492.5, -1.533e-08
2494.5, -1.722e-08
2496.5, -1.662e-08
2498.5, -1.662e-08
2500.5, -2.03e-08
2502.5, -2.14e-08
2504.5, -2.029e-08
2506.5, -2.211e-08
2508.5, -2.128e-08
2510.5, -2.481e-08
2512.5, -2.282e-08
2514.5, -2.194e-08
2516.5, -1.712e-08
2518.5, -1.869e-08
2520.5, -1.827e-08
2522.5, -1.736e-08
2524.5, -2.012e-08
2526.5, -1.793e-08
2528.5, -1.608e-08
2530.5, -1.929e-08
2532.5, -1.909e-08
2534.5, -1.85e-08
2536.5, -1.76e-08
2538.5, -1.718e-08
2540.5, -1.765e-08
2542.5, -1.64e-08
2544.5, -1.886e-08
2546.5, -2.191e-08
2548.5, -1.761e-08
2550.5, -1.783e-08
2552.5, -1.759e-08
2554.6, -1.939e-08
2556.6, -2.358e-08
2558.6, -2.038e-08
2560.6, -1.973e-08
2562.6, -2.435e-08
2564.6, -2.144e-08
2566.6, -1.898e-08
2568.6, -2.099e-08
2570.6, -2.073e-08
2572.6, -2.093e-08
2574.6, -2.069e-08
2576.6, -2.012e-08
2578.6, -2.066e-08
2580.6, -2.149e-08
2582.6, -2.277e-08
2584.6, -2.107e-08
2586.6, -1.745e-08
2588.6, -1.807e-08
2590.6, -1.986e-08
2592.6, -2.17e-08
2594.6, -1.89e-08
2596.6, -1.958e-08
2598.6, -1.843e-08
2600.6, -1.843e-08
2602.6, -2.148e-08
2604.6, -1.753e-08
2606.6, -1.904e-08
2608.6, -1.772e-08
2610.6, -1.678e-08
2612.6, -1.937e-08
2614.6, -1.789e-08
2616.6, -2.178e-08
2618.6, -2.264e-08
2620.6, -1.9e-08
2622.6, -2.029e-08
2624.6, -1.956e-08
2626.6, -2.156e-08
2628.6, -2.229e-08
2630.6, -1.769e-08
2632.6, -2.382e-08
2634.6, -1.975e-08
2636.6, -2.174e-08
2638.6, -1.98e-08
2640.6, -2.134e-08
2642.6, -2.228e-08
2644.6, -2.272e-08
2646.6, -2.352e-08
2648.6, -2.33e-08
2650.6, -2.683e-08
2652.6, -2.299e-08
2654.7, -2.22e-08
2656.7, -2.101e-08
2658.7, -2.109e-08
2660.7, -1.892e-08
2662.7, -2.077e-08
2664.7, -1.903e-08
2666.7, -2.197e-08
2668.7, -1.987e-08
2670.7, -1.873e-08
2672.7, -2.1e-08
2674.7, -1.772e-08
2676.7, -1.72e-08
2678.7, -2.317e-08
2680.7, -1.785e-08
2682.7, -2.38e-08
2684.7, -2.189e-08
2686.7, -2.243e-08
2688.7, -2.05e-08
2690.7, -2.309e-08
2692.7, -2.209e-08
2694.7, -1.7e-08
2696.7, -1.645e-08
2698.7, -1.628e-08
2700.7, -1.831e-08
2702.7, -1.738e-08
2704.7, -1.674e-08
2706.7, -1.797e-08
2708.7, -1.786e-08
2710.7, -1.905e-08
2712.7, -2.073e-08
2714.7, -2.051e-08
2716.7, -1.895e-08
2718.7, -1.818e-08
2720.7, -2.033e-08
2722.7, -1.689e-08
2724.7, -1.847e-08
2726.7, -1.657e-08
2728.7, -1.887e-08
2730.7, -1.879e-08
2732.7, -1.661e-08
2734.7, -1.716e-08
2736.7, -1.52e-08
2738.7, -1.343e-08
2740.7, -1.761e-08
2742.7, -1.636e-08
2744.7, -1.973e-08
2746.7, -2.035e-08
2748.7, -2.026e-08
2750.7, -2.064e-08
2752.7, -1.89e-08
2754.8, -2.061e-08
2756.8, -1.671e-08
2758.8, -1.702e-08
2760.8, -1.667e-08
2762.8, -1.714e-08
2764.8, -1.707e-08
2766.8, -2.037e-08
2768.8, -1.751e-08
2770.8, -1.497e-08
2772.8, -1.4e-08
2774.8, -1.831e-08
2776.8, -1.561e-08
2778.8, -1.346e-08
2780.8, -1.751e-08
2782.8, -1.874e-08
2784.8, -1.606e-08
2786.8, -1.226e-08
2788.8, -1.787e-08
2790.8, -1.758e-08
2792.8, -1.574e-08
2794.8, -1.808e-08
2796.8, -1.407e-08
2798.8, -1.94e-08
2800.8, -1.816e-08
2802.8, -2.192e-08
2804.8, -1.914e-08
2806.8, -2.022e-08
2808.8, -1.639e-08
2810.8, -1.656e-08
2812.8, -1.491e-08
2814.8, -1.786e-08
2816.8, -1.295e-08
2818.8, -1.696e-08
2820.8, -1.69e-08
2822.8, -1.619e-08
2824.8, -1.713e-08
2826.8, -1.499e-08
2828.8, -1.457e-08
2830.8, -1.89e-08
2832.8, -1.529e-08
2834.8, -1.606e-08
2836.8, -1.495e-08
2838.8, -1.755e-08
2840.8, -1.573e-08
2842.8, -1.313e-08
2844.8, -1.579e-08
2846.8, -1.612e-08
2848.8, -1.363e-08
2850.8, -1.866e-08
2852.8, -1.744e-08
2854.9, -1.923e-08
2856.9, -1.459e-08
2858.9, -1.561e-08
2860.9, -1.818e-08
2862.9, -1.545e-08
2864.9, -1.817e-08
2866.9, -1.841e-08
2868.9, -1.761e-08
2870.9, -1.918e-08
2872.9, -1.859e-08
2874.9, -1.691e-08
2876.9, -1.948e-08
2878.9, -2.069e-08
2880.9, -1.9e-08
2882.9, -1.968e-08
2884.9, -2.313e-08
2886.9, -1.923e-08
2888.9, -1.799e-08
2890.9, -1.657e-08
2892.9, -1.936e-08
2894.9, -1.66e-08
2896.9, -1.558e-08
2898.9, -1.749e-08
2900.9, -2.03e-08
2902.9, -1.586e-08
2904.9, -1.812e-08
2906.9, -1.665e-08
2908.9, -1.55e-08
2910.9, -1.55e-08
2912.9, -1.834e-08
2914.9, -1.769e-08
2916.9, -1.634e-08
2918.9, -1.737e-08
2920.9, -1.542e-08
2922.9, -1.902e-08
2924.9, -1.579e-08
2926.9, -1.856e-08
2928.9, -1.775e-08
2930.9, -1.971e-08
2932.9, -2.187e-08
2934.9, -1.966e-08
2936.9, -1.759e-08
2938.9, -1.988e-08
2940.9, -1.45e-08
2942.9, -1.562e-08
2944.9, -1.68e-08
2946.9, -1.547e-08
2948.9, -1.472e-08
2950.9, -1.682e-08
2952.9, -1.929e-08
2955.0, -1.788e-08
2957.0, -1.949e-08
2959.0, -1.883e-08
2961.0, -1.856e-08
2963.0, -1.9e-08
2965.0, -2.022e-08
2967.0, -1.513e-08
2969.0, -1.777e-08
2971.0, -2.299e-08
2973.0, -2.155e-08
2975.0, -1.822e-08
2977.0, -1.605e-08
2979.0, -1.984e-08
2981.0, -2.077e-08
2983.0, -2.118e-08
2985.0, -1.862e-08
2987.0, -1.883e-08
2989.0, -2.037e-08
2991.0, -1.987e-08
2993.0, -2.244e-08
2995.0, -1.89e-08
2997.0, -2.098e-08
2999.0, -2.054e-08
3001.0, -2.207e-08
3003.0, -2.293e-08
3005.0, -2.184e-08
3007.0, -1.86e-08
3009.0, -1.988e-08
3011.0, -2.215e-08
3013.0, -2.142e-08
3015.0, -1.815e-08
3017.0, -2.031e-08
3019.0, -1.786e-08
3021.0, -1.58e-08
3023.0, -1.911e-08
3025.0, -2.025e-08
3027.0, -1.947e-08
3029.0, -1.791e-08
3031.0, -1.881e-08
3033.0, -1.962e-08
3035.0, -1.931e-08
3037.0, -1.811e-08
3039.0, -1.518e-08
3041.0, -2.045e-08
3043.0, -2.171e-08
3045.0, -2.131e-08
3047.0, -1.63e-08
3049.0, -1.914e-08
3051.0, -2.019e-08
3053.0, -1.967e-08
3055.1, -1.785e-08
3057.1, -1.588e-08
3059.1, -2.141e-08
3061.1, -1.976e-08
3063.1, -2.297e-08
3065.1, -1.875e-08
3067.1, -1.848e-08
3069.1, -1.92e-08
3071.1, -1.797e-08
3073.1, -1.95e-08
3075.1, -2.113e-08
3077.1, -1.468e-08
3079.1, -1.453e-08
3081.1, -1.664e-08
3083.1, -1.906e-08
3085.1, 1.9317e-07
3087.1, 1.6885e-07
3089.1, 1.7906e-07
3091.1, 1.6325e-07
3093.1, 2.1829e-07
3095.1, 1.7958e-07
3097.1, 1.7221e-07
3099.1, 1.6675e-07
3101.1, 1.8487e-07
3103.1, 1.6512e-07
3105.1, 1.8312e-07
3107.1, 1.7515e-07
3109.1, 2.0786e-07
3111.1, 2.0095e-07
3113.1, 1.6728e-07
3115.1, 2.3677e-07
3117.1, 1.6327e-07
3119.1, 2.0203e-07
3121.1, 1.5309e-07
3123.1, 1.8733e-07
3125.1, 2.0839e-07
3127.1, 1.9278e-07
3129.1, 1.8786e-07
3131.1, 1.6302e-07
3133.1, 1.6073e-07
3135.1, 1.5202e-07
3137.1, 2.2004e-07
3139.1, 1.8205e-07
3141.1, 2.2766e-07
3143.1, 1.2904e-07
3145.1, 2.1083e-07
3147.1, 1.689e-07
3149.1, 1.9223e-07
3151.1, 2.1643e-07
3153.1, 1.5969e-07
3155.2, 1.7108e-07
3157.2, 2.4054e-07
3159.2, 2.2394e-07
3161.2, 1.7395e-07
3163.2, 1.7623e-07
3165.2, 1.8891e-07
3167.2, 2.0048e-07
3169.2, 2.0691e-07
3171.2, 1.8766e-07
3173.2, 2.0084e-07
3175.2, 1.989e-07
3177.2, 1.6264e-07
3179.2, 2.2651e-07
3181.2, 1.5562e-07
3183.2, 2.0474e-07
3185.2, 2.2646e-07
3187.2, 1.9717e-07
3189.2, 1.668e-07
3191.2, 1.7905e-07
3193.2, 1.7556e-07
3195.2, 1.8698e-07
3197.2, 1.6947e-07
3199.2, 1.7503e-07
3201.2, 1.5716e-07
3203.2, 2.1085e-07
3205.2, 1.8808e-07
3207.2, 1.8929e-07
3209.2, 1.9785e-07
3211.2, 2.1541e-07
3213.2, 1.8213e-07
3215.2, 1.7044e-07
3217.2, 1.5848e-07
3219.2, 1.651e-07
3221.2, 1.5213e-07
3223.2, 1.8589e-07
3225.2, 2.2015e-07
3227.2, 2.0833e-07
3229.2, 1.3119e-07
3231.2, 1.8885e-07
3233.2, 1.8616e-07
3235.2, 1.6705e-07
3237.2, 1.7434e-07
3239.2, 2.2241e-07
3241.2, 2.087e-07
3243.2, 2.1216e-07
3245.2, 1.8865e-07
3247.2, 2.0064e-07
3249.2, 1.74e-07
3251.2, 1.6367e-07
3253.2, 2.1387e-07
3255.3, 2.2827e-07
3257.3, 1.7335e-07
3259.3, 1.9085e-07
3261.3, 2.036e-07
3263.3, 2.2915e-07
3265.3, 2.0502e-07
3267.3, 1.8964e-07
3269.3, 2.2056e-07
3271.3, 2.0829e-07
3273.3, 1.8394e-07
3275.3, 1.9387e-07
3277.3, 2.1356e-07
3279.3, 1.3112e-07
3281.3, 2.2544e-07
3283.3, 1.307e-07
3285.3, 2.3482e-07
3287.3, 1.9117e-07
3289.3, 1.651e-07
3291.3, 2.1016e-07
3293.3, 1.9892e-07
3295.3, 2.043e-07
3297.3, 1.675e-07
3299.3, 1.9405e-07
3301.3, 1.4714e-07
3303.3, 1.8528e-07
3305.3, 2.428e-07
3307.3, 2.4628e-07
3309.3, 1.8267e-07
3311.3, 1.9663e-07
3313.3, 2.0878e-07
3315.3, 1.6878e-07
3317.3, 2.3864e-07
3319.3, 2.2658e-07
3321.3, 2.3514e-07
3323.3, 2.1257e-07
3325.3, 2.1436e-07
3327.3, 2.0519e-07
3329.3, 1.9736e-07
3331.3, 2.0734e-07
3333.3, 2.0972e-07
3335.3, 2.0873e-07
3337.3, 1.7741e-07
3339.3, 2.075e-07
3341.3, 2.0274e-07
3343.3, 2.1971e-07
3345.3, 1.5827e-07
3347.3, 1.5758e-07
3349.3, 1.7732e-07
3351.3, 2.3531e-07
3353.3, 1.9139e-07
3355.4, 1.5377e-07
3357.4, 1.9245e-07
3359.4, 1.7265e-07
3361.4, 1.7987e-07
3363.4, 2.0402e-07
3365.4, 1.7974e-07
3367.4, 2.1645e-07
3369.4, 2.0355e-07
3371.4, 2.5749e-07
3373.4, 1.8999e-07
3375.4, 1.962e-07
3377.4, 2.2138e-07
3379.4, 1.6601e-07
3381.4, 1.9068e-07
3383.4, 2.1945e-07
3385.4, 2.0183e-07
3387.4, 2.0997e-07
3389.4, 1.6974e-07
3391.4, 1.7486e-07
3393.4, 1.7941e-07
3395.4, 2.0501e-07
3397.4, 2.1151e-07
3399.4, 2.0865e-07
3401.4, 2.1427e-07
3403.4, 2.205e-07
3405.4, 2.0029e-07
3407.4, 1.8686e-07
3409.4, 2.6137e-07
3411.4, 2.5334e-07
3413.4, 1.7976e-07
3415.4, 1.8221e-07
3417.4, 2.4618e-07
3419.4, 2.6807e-07
3421.4, 1.7012e-07
3423.4, 1.9645e-07
3425.4, 2.4587e-07
3427.4, 1.8095e-07
3429.4, 2.2795e-07
3431.4, 2.0004e-07
3433.4, 2.1129e-07
3435.4, 2.1378e-07
3437.4, 1.8939e-07
3439.4, 2.5893e-07
3441.4, 1.8549e-07
3443.4, 1.6228e-07
3445.4, 2.5133e-07
3447.4, 2.1696e-07
3449.4, 2.3723e-07
3451.4, 2.2719e-07
3453.4, 2.3175e-07
3455.5, 2.1752e-07
3457.5, 2.0461e-07
3459.5, 1.8426e-07
3461.5, 2.3898e-07
3463.5, 1.9022e-07
3465.5, 1.7345e-07
3467.5, 1.8707e-07
3469.5, 2.1225e-07
3471.5, 2.8293e-07
3473.5, 1.8775e-07
3475.5, 2.5566e-07
3477.5, 2.1698e-07
3479.5, 2.0629e-07
3481.5, 2.1619e-07
3483.5, 2.5561e-07
3485.5, 2.057e-07
3487.5, 1.8132e-07
3489.5, 2.3037e-07
3491.5, 2.3725e-07
3493.5, 1.9672e-07
3495.5, 1.9456e-07
3497.5, 2.2528e-07
3499.5, 2.204e-07
3501.5, 2.0543e-07
3503.5, 2.5013e-07
3505.5, 2.6745e-07
3507.5, 1.7502e-07
3509.5, 2.2763e-07
3511.5, 2.3023e-07
3513.5, 2.2371e-07
3515.5, 2.2897e-07
3517.5, 1.8125e-07
3519.5, 2.145e-07
3521.5, 2.2633e-07
3523.5, 2.2362e-07
3525.5, 2.2978e-07
3527.5, 2.0522e-07
3529.5, 1.9549e-07
3531.5, 1.7011e-07
3533.5, 2.0553e-07
3535.5, 2.1008e-07
3537.5, 2.4256e-07
3539.5, 2.2262e-07
3541.5, 2.3405e-07
3543.5, 1.6232e-07
3545.5, 2.1346e-07
3547.5, 2.2128e-07
3549.5, 2.4332e-07
3551.5, 2.2077e-07
3553.5, 2.1627e-07
3555.6, 2.0928e-07
3557.6, 2.0483e-07
3559.6, 1.9581e-07
3561.6, 2.3162e-07
3563.6, 1.9106e-07
3565.6, 2.071e-07
3567.6, 2.3606e-07
3569.6, 2.4543e-07
3571.6, 1.8601e-07
3573.6, 2.1247e-07
3575.6, 2.0706e-07
3577.6, 2.4094e-07
3579.6, 2.336e-07
3581.6, 1.847e-07
3583.6, 2.0521e-07
3585.6, 2.0938e-07
3587.6, 2.6303e-07
3589.6, 2.1644e-07
3591.6, 2.3257e-07
3593.6, 2.0929e-07
3595.6, 2.0626e-07
3597.6, 2.2399e-07
3599.6, 2.5441e-07
3601.6, 2.0916e-07
3603.6, 2.0077e-07
3605.6, 1.9959e-07
3607.6, 2.6214e-07
3609.6, 2.7748e-07
3611.6, 2.3199e-07
3613.6, 1.8044e-07
3615.6, 2.3078e-07
3617.6, 1.9214e-07
3619.6, 2.3563e-07
3621.6, 2.1507e-07
3623.6, 2.4391e-07
3625.6, 2.1122e-07
3627.6, 1.9438e-07
3629.6, 1.9607e-07
3631.6, 2.3038e-07
3633.6, 2.4155e-07
3635.6, 2.098e-07
3637.6, 2.267e-07
3639.6, 2.0171e-07
3641.6, 2.4126e-07
3643.6, 2.0409e-07
3645.6, 2.1903e-07
3647.6, 1.8668e-07
3649.6, 2.6518e-07
3651.6, 2.6473e-07
3653.6, 2.1707e-07
3655.7, 1.9119e-07
3657.7, 2.435e-07
3659.7, 2.0028e-07
3661.7, 2.0919e-07
3663.7, 2.0293e-07
3665.7, 2.3234e-07
3667.7, 2.1783e-07
3669.7, 2.2331e-07
3671.7, 1.7428e-07
3673.7, 2.5233e-07
3675.7, 2.2654e-07
3677.7, 2.2302e-07
3679.7, 2.4555e-07
3681.7, 1.9357e-07
3683.7, 2.2104e-07
3685.7, 2.6411e-07
3687.7, 2.1231e-07
3689.7, 1.8447e-07
3691.7, 2.5312e-07
3693.7, 2.276e-07
3695.7, 1.6047e-07
3697.7, 2.1958e-07
3699.7, 2.1384e-07
3701.7, 2.0212e-07
3703.7, 2.173e-07
3705.7, 1.8944e-07
3707.7, 1.8942e-07
3709.7, 2.271e-07
3711.7, 1.4514e-07
3713.7, 2.2764e-07
3715.7, 2.3125e-07
3717.7, 1.6997e-07
3719.7, 2.226e-07
3721.7, 2.2262e-07
3723.7, 2.4078e-07
3725.7, 2.0081e-07
3727.7, 2.3099e-07
3729.7, 2.1478e-07
3731.7, 1.9821e-07
3733.7, 2.0655e-07
3735.7, 1.9843e-07
3737.7, 2.2551e-07
3739.7, 2.128e-07
3741.7, 1.9801e-07
3743.7, 2.0394e-07
3745.7, 2.2533e-07
3747.7, 2.4117e-07
3749.7, 2.4444e-07
3751.7, 2.1198e-07
3753.7, 2.2438e-07
3755.8, 2.1425e-07
3757.8, 2.0067e-07
3759.8, 2.1193e-07
3761.8, 1.9934e-07
3763.8, 2.1928e-07
3765.8, 2.2116e-07
3767.8, 2.5061e-07
3769.8, 2.2461e-07
3771.8, 1.9804e-07
3773.8, 2.2035e-07
3775.8, 2.342e-07
3777.8, 2.4434e-07
3779.8, 1.7756e-07
3781.8, 2.2035e-07
3783.8, 1.8191e-07
3785.8, 2.2007e-07
3787.8, 2.5332e-07
3789.8, 2.3259e-07
3791.8, 1.8028e-07
3793.8, 1.9033e-07
3795.8, 2.4613e-07
3797.8, 2.2025e-07
3799.8, 2.3344e-07
3801.8, 2.6609e-07
3803.8, 2.1203e-07
3805.8, 1.7701e-07
3807.8, 2.1718e-07
3809.8, 2.1287e-07
3811.8, 2.0144e-07
3813.8, 1.7217e-07
3815.8, 2.1164e-07
3817.8, 1.8979e-07
3819.8, 2.3211e-07
3821.8, 1.99e-07
3823.8, 2.0477e-07
3825.8, 2.2369e-07
3827.8, 1.9735e-07
3829.8, 1.9247e-07
3831.8, 2.4797e-07
3833.8, 2.4384e-07
3835.8, 2.4458e-07
3837.8, 1.9544e-07
3839.8, 2.1054e-07
3841.8, 2.2213e-07
3843.8, 2.1283e-07
3845.8, 2.1267e-07
3847.8, 2.1444e-07
3849.8, 2.2926e-07
3851.8, 2.3621e-07
3853.8, 2.167e-07
3855.9, 2.5102e-07
3857.9, 2.4724e-07
3859.9, 2.1903e-07
3861.9, 2.3603e-07
3863.9, 1.9242e-07
3865.9, 2.4143e-07
3867.9, 2.1656e-07
3869.9, 2.448e-07
3871.9, 1.8895e-07
3873.9, 2.4132e-07
3875.9, 2.4423e-07
3877.9, 2.336e-07
3879.9, 2.3069e-07
3881.9, 2.4308e-07
3883.9, 2.3412e-07
3885.9, 2.4645e-07
3887.9, 2.4098e-07
3889.9, 2.1274e-07
3891.9, 2.4641e-07
3893.9, 2.1658e-07
3895.9, 1.7984e-07
3897.9, 1.9347e-07
3899.9, 2.3709e-07
3901.9, 2.1842e-07
3903.9, 2.1317e-07
3905.9, 2.3068e-07
3907.9, 2.0999e-07
3909.9, 2.1402e-07
3911.9, 2.1908e-07
3913.9, 2.3512e-07
3915.9, 1.9611e-07
3917.9, 2.024e-07
3919.9, 2.139e-07
3921.9, 2.1736e-07
3923.9, 2.1793e-07
3925.9, 2.4785e-07
3927.9, 2.5052e-07
3929.9, 2.0745e-07
3931.9, 2.5495e-07
3933.9, 1.8876e-07
3935.9, 1.8855e-07
3937.9, 2.1496e-07
3939.9, 2.2742e-07
3941.9, 2.1699e-07
3943.9, 2.3892e-07
3945.9, 1.8767e-07
3947.9, 2.6542e-07
3949.9, 2.3668e-07
3951.9, 2.0825e-07
3953.9, 2.1314e-07
3956.0, 2.4139e-07
3958.0, 1.8311e-07
3960.0, 2.1417e-07
3962.0, 2.003e-07
3964.0, 1.9696e-07
3966.0, 2.1832e-07
3968.0, 1.9561e-07
3970.0, 2.0667e-07
3972.0, 1.8961e-07
3974.0, 2.4291e-07
3976.0, 2.1012e-07
3978.0, 1.9373e-07
3980.0, 2.2267e-07
3982.0, 2.1045e-07
3984.0, 2.0184e-07
3986.0, 2.0684e-07
3988.0, 2.034e-07
3990.0, 2.4335e-07
3992.0, 2.3508e-07
3994.0, 2.431e-07
3996.0, 2.0119e-07
3998.0, 1.8496e-07
4000.0, 2.0126e-07
4002.0, 2.2507e-07
4004.0, 1.9109e-07
4006.0, 2.4104e-07
4008.0, 1.5745e-07
4010.0, 2.3926e-07
4012.0, 2.0974e-07
4014.0, 2.1126e-07
4016.0, 2.1775e-07
4018.0, 2.4028e-07
4020.0, 2.2857e-07
4022.0, 2.2991e-07
4024.0, 1.9821e-07
4026.0, 2.4873e-07
4028.0, 2.3381e-07
4030.0, 2.5796e-07
4032.0, 2.4928e-07
4034.0, 2.0262e-07
4036.0, 2.635e-07
4038.0, 2.2147e-07
4040.0, 1.5168e-07
4042.0, 1.978e-07
4044.0, 2.2423e-07
4046.0, 2.2291e-07
4048.0, 1.8102e-07
4050.0, 2.166e-07
4052.0, 2.4238e-07
4054.0, 2.2812e-07
4056.1, 2.1525e-07
4058.1, 1.9085e-07
4060.1, 2.2593e-07
4062.1, 2.3098e-07
4064.1, 2.5243e-07
4066.1, 2.0928e-07
4068.1, 2.0772e-07
4070.1, 1.7805e-07
4072.1, 1.9591e-07
4074.1, 2.1241e-07
4076.1, 2.3023e-07
4078.1, 2.1846e-07
4080.1, 1.957e-07
4082.1, 1.9016e-07
4084.1, 1.9046e-07
4086.1, -1.847e-08
4088.1, -2.146e-08
4090.1, -2.157e-08
4092.1, -2.063e-08
4094.1, -1.892e-08
4096.1, -1.842e-08
4098.1, -1.756e-08
4100.1, -1.963e-08
4102.1, -1.461e-08
4104.1, -1.733e-08
4106.1, -2.01e-08
4108.1, -1.721e-08
4110.1, -1.56e-08
4112.1, -1.738e-08
4114.1, -1.753e-08
4116.1, -1.862e-08
4118.1, -1.724e-08
4120.1, -1.661e-08
4122.1, -1.804e-08
4124.1, -1.622e-08
4126.1, -1.623e-08
4128.1, -1.77e-08
4130.1, -1.848e-08
4132.1, -1.954e-08
4134.1, -2.107e-08
4136.1, -1.427e-08
4138.1, -1.582e-08
4140.1, -1.779e-08
4142.1, -1.711e-08
4144.1, -2.266e-08
4146.1, -1.659e-08
4148.1, -2.257e-08
4150.1, -1.935e-08
4152.1, -1.816e-08
4154.1, -2.471e-08
4156.2, -1.93e-08
4158.2, -1.94e-08
4160.2, -2.178e-08
4162.2, -1.912e-08
4164.2, -2.274e-08
4166.2, -2.14e-08
4168.2, -2.111e-08
4170.2, -1.757e-08
4172.2, -1.683e-08
4174.2, -1.931e-08
4176.2, -1.724e-08
4178.2, -2.013e-08
4180.2, -1.732e-08
4182.2, -1.831e-08
4184.2, -1.878e-08
4186.2, -1.767e-08
4188.2, -1.992e-08
4190.2, -1.562e-08
4192.2, -1.829e-08
4194.2, -1.777e-08
4196.2, -1.806e-08
4198.2, -1.794e-08
4200.2, -1.457e-08
4202.2, -1.631e-08
4204.2, -1.501e-08
4206.2, -1.78e-08
4208.2, -1.702e-08
4210.2, -2.475e-08
4212.2, -2.103e-08
4214.2, -2.261e-08
4216.2, -1.829e-08
4218.2, -1.8e-08
4220.2, -1.712e-08
4222.2, -1.813e-08
4224.2, -1.674e-08
4226.2, -1.971e-08
4228.2, -1.584e-08
4230.2, -1.746e-08
4232.2, -1.604e-08
4234.2, -1.838e-08
4236.2, -1.68e-08
4238.2, -1.149e-08
4240.2, -1.549e-08
4242.2, -1.924e-08
4244.2, -1.348e-08
4246.2, -1.412e-08
4248.2, -1.426e-08
4250.2, -1.674e-08
4252.2, -1.692e-08
4254.2, -1.29e-08
4256.3, -1.862e-08
4258.3, -1.644e-08
4260.3, -1.586e-08
4262.3, -1.763e-08
4264.3, -1.579e-08
4266.3, -1.211e-08
4268.3, -1.435e-08
4270.3, -1.33e-08
4272.3, -1.481e-08
4274.3, -1.693e-08
4276.3, -1.353e-08
4278.3, -1.649e-08
4280.3, -1.421e-08
4282.3, -1.645e-08
4284.3, -1.788e-08
4286.3, -1.628e-08
4288.3, -1.377e-08
4290.3, -1.346e-08
4292.3, -1.733e-08
4294.3, -1.521e-08
4296.3, -1.282e-08
4298.3, -1.17e-08
4300.3, -1.297e-08
4302.3, -9.64e-09
4304.3, -1.69e-08
4306.3, -1.731e-08
4308.3, -1.505e-08
4310.3, -1.508e-08
4312.3, -1.505e-08
4314.3, -1.682e-08
4316.3, -1.609e-08
4318.3, -1.311e-08
4320.3, -1.508e-08
4322.3, -1.671e-08
4324.3, -1.655e-08
4326.3, -1.749e-08
4328.3, -1.398e-08
4330.3, -1.632e-08
4332.3, -1.527e-08
4334.3, -1.85e-08
4336.3, -2.001e-08
4338.3, -1.585e-08
4340.3, -1.673e-08
4342.3, -1.73e-08
4344.3, -1.64e-08
4346.3, -1.356e-08
4348.3, -1.522e-08
4350.3, -1.298e-08
4352.3, -1.42e-08
4354.3, -1.417e-08
4356.4, -1.58e-08
4358.4, -1.579e-08
4360.4, -1.96e-08
4362.4, -1.754e-08
4364.4, -1.567e-08
4366.4, -1.963e-08
4368.4, -2.019e-08
4370.4, -1.709e-08
4372.4, -1.763e-08
4374.4, -1.876e-08
4376.4, -1.417e-08
4378.4, -1.618e-08
4380.4, -1.654e-08
4382.4, -1.761e-08
4384.4, -1.529e-08
4386.4, -2.06e-08
4388.4, -1.763e-08
4390.4, -1.758e-08
4392.4, -1.527e-08
4394.4, -1.683e-08
4396.4, -1.413e-08
4398.4, -1.632e-08
4400.4, -1.51e-08
4402.4, -1.734e-08
4404.4, -1.721e-08
4406.4, -2.077e-08
4408.4, -1.947e-08
4410.4, -1.726e-08
4412.4, -1.854e-08
4414.4, -1.536e-08
4416.4, -1.443e-08
4418.4, -1.597e-08
4420.4, -1.944e-08
4422.4, -1.554e-08
4424.4, -1.845e-08
4426.4, -1.88e-08
4428.4, -1.681e-08
4430.4, -1.607e-08
4432.4, -1.429e-08
4434.4, -1.877e-08
4436.4, -1.906e-08
4438.4, -1.621e-08
4440.4, -1.729e-08
4442.4, -1.464e-08
4444.4, -1.801e-08
4446.4, -1.763e-08
4448.4, -1.759e-08
4450.4, -1.586e-08
4452.4, -1.692e-08
4454.4, -1.349e-08
4456.5, -1.859e-08
4458.5, -1.668e-08
4460.5, -1.634e-08
4462.5, -1.809e-08
4464.5, -1.897e-08
4466.5, -1.826e-08
4468.5, -1.787e-08
4470.5, -1.675e-08
4472.5, -1.637e-08
4474.5, -1.44e-08
4476.5, -1.646e-08
4478.5, -1.765e-08
4480.5, -1.992e-08
4482.5, -1.807e-08
4484.5, -1.991e-08
4486.5, -1.934e-08
4488.5, -1.737e-08
4490.5, -1.638e-08
4492.5, -1.669e-08
4494.5, -1.454e-08
4496.5, -1.571e-08
4498.5, -1.37e-08
4500.5, -1.325e-08
4502.5, -1.41e-08
4504.5, -1.434e-08
4506.5, -1.646e-08
4508.5, -1.538e-08
4510.5, -1.787e-08
4512.5, -1.924e-08
4514.5, -2.418e-08
4516.5, -1.954e-08
4518.5, -1.873e-08
4520.5, -1.925e-08
4522.5, -1.573e-08
4524.5, -1.149e-08
4526.5, -1.412e-08
4528.5, -1.323e-08
4530.5, -1.674e-08
4532.5, -1.837e-08
4534.5, -2.028e-08
4536.5, -1.999e-08
4538.5, -1.639e-08
4540.5, -1.877e-08
4542.5, -1.741e-08
4544.5, -1.809e-08
4546.5, -1.79e-08
4548.5, -1.668e-08
4550.5, -1.238e-08
4552.5, -1.604e-08
4554.5, -1.722e-08
4556.6, -1.896e-08
4558.6, -1.345e-08
4560.6, -1.073e-08
4562.6, -1.651e-08
4564.6, -1.638e-08
4566.6, -1.652e-08
4568.6, -1.687e-08
4570.6, -1.687e-08
4572.6, -1.538e-08
4574.6, -1.563e-08
4576.6, -1.621e-08
4578.6, -1.668e-08
4580.6, -1.726e-08
4582.6, -1.644e-08
4584.6, -1.746e-08
4586.6, -1.557e-08
4588.6, -1.718e-08
4590.6, -1.836e-08
4592.6, -1.73e-08
4594.6, -1.961e-08
4596.6, -1.871e-08
4598.6, -1.722e-08
4600.6, -1.773e-08
4602.6, -1.662e-08
4604.6, -1.732e-08
4606.6, -1.124e-08
4608.6, -1.744e-08
4610.6, -1.084e-08
4612.6, -1.601e-08
4614.6, -1.461e-08
4616.6, -1.513e-08
4618.6, -1.871e-08
4620.6, -2.161e-08
4622.6, -1.528e-08
4624.6, -1.552e-08
4626.6, -1.706e-08
4628.6, -1.474e-08
4630.6, -1.416e-08
4632.6, -1.619e-08
4634.6, -1.71e-08
4636.6, -1.587e-08
4638.6, -1.318e-08
4640.6, -1.225e-08
4642.6, -1.436e-08
4644.6, -1.376e-08
4646.6, -1.67e-08
4648.6, -1.533e-08
4650.6, -1.299e-08
4652.6, -1.988e-08
4654.6, -1.943e-08
4656.7, -1.562e-08
4658.7, -1.276e-08
4660.7, -1.622e-08
4662.7, -1.535e-08
4664.7, -1.506e-08
4666.7, -1.421e-08
4668.7, -1.471e-08
4670.7, -1.414e-08
4672.7, -1.56e-08
4674.7, -1.522e-08
4676.7, -1.445e-08
4678.7, -1.479e-08
4680.7, -1.709e-08
4682.7, -1.37e-08
4684.7, -1.765e-08
4686.7, -1.878e-08
4688.7, -1.206e-08
4690.7, -1.357e-08
4692.7, -1.751e-08
4694.7, -1.796e-08
4696.7, -1.574e-08
4698.7, -1.677e-08
4700.7, -1.894e-08
4702.7, -1.372e-08
4704.7, -1.798e-08
4706.7, -1.924e-08
4708.7, -2.092e-08
4710.7, -1.715e-08
4712.7, -1.492e-08
4714.7, -1.773e-08
4716.7, -1.359e-08
4718.7, -1.759e-08
4720.7, -2.363e-08
4722.7, -1.623e-08
4724.7, -2.056e-08
4726.7, -1.803e-08
4728.7, -2.182e-08
4730.7, -1.396e-08
4732.7, -1.95e-08
4734.7, -1.786e-08
4736.7, -1.878e-08
4738.7, -2.114e-08
4740.7, -1.823e-08
4742.7, -1.464e-08
4744.7, -1.452e-08
4746.7, -2.008e-08
4748.7, -1.934e-08
4750.7, -1.704e-08
4752.7, -1.722e-08
4754.7, -1.677e-08
4756.8, -1.753e-08
4758.8, -1.665e-08
4760.8, -2.096e-08
4762.8, -1.627e-08
4764.8, -1.358e-08
4766.8, -1.678e-08
4768.8, -1.627e-08
4770.8, -1.707e-08
4772.8, -1.536e-08
4774.8, -1.789e-08
4776.8, -1.983e-08
4778.8, -1.601e-08
4780.8, -1.614e-08
4782.8, -1.722e-08
4784.8, -1.859e-08
4786.8, -1.704e-08
4788.8, -1.776e-08
4790.8, -1.809e-08
4792.8, -1.69e-08
4794.8, -2.134e-08
4796.8, -1.954e-08
4798.8, -2.054e-08
4800.8, -1.883e-08
4802.8, -2.017e-08
4804.8, -1.612e-08
4806.8, -1.666e-08
4808.8, -1.78e-08
4810.8, -1.717e-08
4812.8, -1.863e-08
4814.8, -1.688e-08
4816.8, -1.892e-08
4818.8, -1.99e-08
4820.8, -1.75e-08
4822.8, -1.975e-08
4824.8, -1.783e-08
4826.8, -1.463e-08
4828.8, -1.638e-08
4830.8, -1.533e-08
4832.8, -1.805e-08
4834.8, -1.448e-08
4836.8, -1.689e-08
4838.8, -1.412e-08
4840.8, -1.694e-08
4842.8, -1.745e-08
4844.8, -1.496e-08
4846.8, -1.689e-08
4848.8, -1.42e-08
4850.8, -1.468e-08
4852.8, -2.035e-08
4854.8, -1.67e-08
4856.9, -1.528e-08
4858.9, -1.694e-08
4860.9, -1.351e-08
4862.9, -1.52e-08
4864.9, -1.626e-08
4866.9, -1.574e-08
4868.9, -1.596e-08
4870.9, -1.738e-08
4872.9, -1.443e-08
4874.9, -1.372e-08
4876.9, -1.73e-08
4878.9, -1.612e-08
4880.9, -1.763e-08
4882.9, -1.805e-08
4884.9, -1.762e-08
4886.9, -2e-08
4888.9, -1.876e-08
4890.9, -1.832e-08
4892.9, -1.751e-08
4894.9, -1.655e-08
4896.9, -1.28e-08
4898.9, -1.121e-08
4900.9, -1.662e-08
4902.9, -1.818e-08
4904.9, -1.788e-08
4906.9, -1.662e-08
4908.9, -2.234e-08
4910.9, -1.982e-08
4912.9, -2.079e-08
4914.9, -1.891e-08
4916.9, -1.785e-08
4918.9, -1.422e-08
4920.9, -1.727e-08
4922.9, -1.404e-08
4924.9, -1.572e-08
4926.9, -1.93e-08
4928.9, -1.421e-08
4930.9, -2.009e-08
4932.9, -1.739e-08
4934.9, -1.703e-08
4936.9, -1.627e-08
4938.9, -2.029e-08
4940.9, -1.463e-08
4942.9, -1.595e-08
4944.9, -1.701e-08
4946.9, -1.591e-08
4948.9, -1.373e-08
4950.9, -1.71e-08
4952.9, -1.629e-08
4954.9, -1.671e-08
4957.0, -1.744e-08
4959.0, -1.783e-08
4961.0, -1.318e-08
4963.0, -1.316e-08
4965.0, -1.402e-08
4967.0, -1.454e-08
4969.0, -1.444e-08
4971.0, -1.574e-08
4973.0, -1.291e-08
4975.0, -1.1e-08
4977.0, -1.19e-08
4979.0, -1.443e-08
4981.0, -1.383e-08
4983.0, -1.724e-08
4985.0, -1.841e-08
4987.0, -1.628e-08
4989.0, -1.406e-08
4991.0, -1.187e-08
4993.0, -1.277e-08
4995.0, -1.692e-08
4997.0, -1.798e-08
4999.0, -1.775e-08
5001.0, -1.569e-08
5003.0, -1.617e-08
5005.0, -1.623e-08
5007.0, -1.474e-08
5009.0, -1.157e-08
5011.0, -1.435e-08
5013.0, -1.623e-08
5015.0, -1.59e-08
5017.0, -1.662e-08
5019.0, -1.711e-08
5021.0, -1.457e-08
5023.0, -1.467e-08
5025.0, -1.314e-08
5027.0, -1.397e-08
5029.0, -1.335e-08
5031.0, -1.77e-08
5033.0, -1.926e-08
5035.0, -1.8e-08
5037.0, -1.417e-08
5039.0, -1.456e-08
5041.0, -1.39e-08
5043.0, -1.651e-08
5045.0, -1.505e-08
5047.0, -1.174e-08
5049.0, -1.317e-08
5051.0, -1.121e-08
5053.0, -1.032e-08
5055.0, -1.304e-08
5057.1, -1.162e-08
5059.1, -1.401e-08
5061.1, -1.432e-08
5063.1, -1.23e-08
5065.1, -1.145e-08
5067.1, -1.351e-08
5069.1, -8.94e-09
5071.1, -1.035e-08
5073.1, -1.38e-08
5075.1, -1.131e-08
5077.1, -1.248e-08
5079.1, -1.337e-08
5081.1, -1.484e-08
5083.1, -1.13e-08
5085.1, -1.363e-08
5087.1, -1.305e-08
5089.1, -1.205e-08
5091.1, -1.284e-08
5093.1, -1.634e-08
5095.1, -1.426e-08
5097.1, -1.42e-08
5099.1, -1.145e-08
5101.1, -1.088e-08
5103.1, -1.412e-08
5105.1, -1.431e-08
5107.1, -1.046e-08
5109.1, -1.161e-08
5111.1, -1.446e-08
5113.1, -1.349e-08
5115.1, -1.483e-08
5117.1, -1.588e-08
5119.1, -1.445e-08
5121.1, -1.032e-08
5123.1, -8.33e-09
5125.1, -6.13e-09
5127.1, -9.88e-09
5129.1, -1.212e-08
5131.1, -1.596e-08
5133.1, -1.213e-08
5135.1, -1.013e-08
5137.1, -1.003e-08
5139.1, -1.053e-08
5141.1, -1.369e-08
5143.1, -6.29e-09
5145.1, -9.03e-09
5147.1, -1.182e-08
5149.1, -1.217e-08
5151.1, -1.001e-08
5153.1, -1.106e-08
5155.1, -1.204e-08
5157.2, -1.263e-08
5159.2, -1.291e-08
5161.2, -9.76e-09
5163.2, -1.03e-08
5165.2, -1.484e-08
5167.2, -1.375e-08
5169.2, -1.298e-08
5171.2, -1.235e-08
5173.2, -1.191e-08
5175.2, -1.175e-08
5177.2, -1.158e-08
5179.2, -1.649e-08
5181.2, -1.287e-08
5183.2, -1.254e-08
5185.2, -1.584e-08
5187.2, -1.366e-08
5189.2, -1.192e-08
5191.2, -1.42e-08
5193.2, -1.59e-08
5195.2, -9.36e-09
5197.2, -1.516e-08
5199.2, -1.057e-08
5201.2, -1.356e-08
5203.2, -1.429e-08
5205.2, -1.21e-08
5207.2, -1.349e-08
5209.2, -1.372e-08
5211.2, -1.849e-08
5213.2, -1.311e-08
5215.2, -1.249e-08
5217.2, -1.411e-08
5219.2, -1.182e-08
5221.2, -1.03e-08
5223.2, -1.465e-08
5225.2, -1.321e-08
5227.2, -1.493e-08
5229.2, -1.45e-08
5231.2, -1.096e-08
5233.2, -1.418e-08
5235.2, -1.136e-08
5237.2, -1.726e-08
5239.2, -1.492e-08
5241.2, -1.184e-08
5243.2, -1.174e-08
5245.2, -1.44e-08
5247.2, -1.559e-08
5249.2, -1.336e-08
5251.2, -1.564e-08
5253.2, -1.296e-08
5255.2, -1.592e-08
5257.3, -1.378e-08
5259.3, -1.595e-08
5261.3, -1.433e-08
5263.3, -1.561e-08
5265.3, -1.19e-08
5267.3, -1.492e-08
5269.3, -1.806e-08
5271.3, -1.422e-08
5273.3, -1.198e-08
5275.3, -1.364e-08
5277.3, -1.289e-08
5279.3, -1.114e-08
5281.3, -1.083e-08
5283.3, -1.429e-08
5285.3, -1.068e-08
5287.3, -1.759e-08
5289.3, -1.542e-08
5291.3, -1.346e-08
5293.3, -1.344e-08
5295.3, -1.303e-08
5297.3, -1.261e-08
5299.3, -1.255e-08
5301.3, -1.441e-08
5303.3, -1.424e-08
5305.3, -1.369e-08
5307.3, -1.476e-08
5309.3, -1.179e-08
5311.3, -1.341e-08
5313.3, -1.575e-08
5315.3, -1.379e-08
5317.3, -1.464e-08
5319.3, -1.326e-08
5321.3, -1.127e-08
5323.3, -1.486e-08
5325.3, -1.314e-08
5327.3, -1.211e-08
5329.3, -1.364e-08
5331.3, -9.89e-09
5333.3, -8.24e-09
5335.3, -1.258e-08
5337.3, -1.641e-08
5339.3, -1.639e-08
5341.3, -1.504e-08
5343.3, -1.342e-08
5345.3, -1.529e-08
5347.3, -1.63e-08
5349.3, -1.62e-08
5351.3, -1.708e-08
5353.3, -1.73e-08
5355.3, -1.401e-08
5357.4, -1.533e-08
5359.4, -1.344e-08
5361.4, -1.516e-08
5363.4, -1.445e-08
5365.4, -1.438e-08
5367.4, -1.809e-08
5369.4, -1.963e-08
5371.4, -1.446e-08
5373.4, -1.727e-08
5375.4, -1.415e-08
5377.4, -1.445e-08
5379.4, -1.753e-08
5381.4, -1.33e-08
5383.4, -1.689e-08
5385.4, -1.761e-08
5387.4, -1.222e-08
5389.4, -1.44e-08
5391.4, -1.069e-08
5393.4, -1.3e-08
5395.4, -1.463e-08
5397.4, -1.873e-08
5399.4, -1.547e-08
5401.4, -1.734e-08
5403.4, -1.528e-08
5405.4, -1.532e-08
5407.4, -1.163e-08
5409.4, -1.648e-08
5411.4, -1.014e-08
5413.4, -1.435e-08
5415.4, -1.283e-08
5417.4, -1.262e-08
5419.4, -1.249e-08
5421.4, -1.579e-08
5423.4, -1.09e-08
5425.4, -9.5e-09
5427.4, -1.227e-08
5429.4, -1.045e-08
5431.4, -1.294e-08
5433.4, -1.288e-08
5435.4, -1.353e-08
5437.4, -1.252e-08
5439.4, -1.048e-08
5441.4, -8.98e-09
5443.4, -9.86e-09
5445.4, -1.589e-08
5447.4, -1.632e-08
5449.4, -1.402e-08
5451.4, -1.227e-08
5453.4, -1.037e-08
5455.4, -9.09e-09
5457.5, -1.051e-08
5459.5, -1.007e-08
5461.5, -7.78e-09
5463.5, -1.159e-08
5465.5, -1.048e-08
5467.5, -1.031e-08
5469.5, -8.21e-09
5471.5, -1.19e-08
5473.5, -1.062e-08
5475.5, -1.189e-08
5477.5, -1.013e-08
5479.5, -9.59e-09
5481.5, -1.076e-08
5483.5, -1.013e-08
5485.5, -1.01e-08
5487.5, -1.134e-08
5489.5, -1.039e-08
5491.5, -1.042e-08
5493.5, -8.45e-09
5495.5, -9.81e-09
5497.5, -1.111e-08
5499.5, -8.25e-09
5501.5, -8.84e-09
5503.5, -1.101e-08
5505.5, -1.114e-08
5507.5, -1.152e-08
5509.5, -1.037e-08
5511.5, -1.107e-08
5513.5, -9.07e-09
5515.5, -1.273e-08
5517.5, -1.088e-08
5519.5, -1.198e-08
5521.5, -1.015e-08
5523.5, -1.219e-08
5525.5, -1.306e-08
5527.5, -1.507e-08
5529.5, -1.127e-08
5531.5, -6.87e-09
5533.5, -1.021e-08
5535.5, -9.91e-09
5537.5, -1.143e-08
5539.5, -1.182e-08
5541.5, -1.282e-08
5543.5, -1.398e-08
5545.5, -1.252e-08
5547.5, -1.361e-08
5549.5, -1.275e-08
5551.5, -1.06e-08
5553.5, -1.387e-08
5555.5, -1.4e-08
5557.6, -1.125e-08
5559.6, -1.205e-08
5561.6, -1.167e-08
5563.6, -1.482e-08
5565.6, -9.67e-09
5567.6, -1.392e-08
5569.6, -1.203e-08
5571.6, -1.377e-08
5573.6, -1.164e-08
5575.6, -1.604e-08
5577.6, -1.344e-08
5579.6, -1.344e-08
5581.6, -1.008e-08
5583.6, -1.065e-08
5585.6, -9.22e-09
5587.6, -1.32e-08
5589.6, -1.391e-08
5591.6, -1.133e-08
5593.6, 1.3001e-07
5595.6, 2.0075e-07
5597.6, 1.9842e-07
5599.6, 1.8248e-07
5601.6, 1.3513e-07
5603.6, 1.6689e-07
5605.6, 1.754e-07
5607.6, 2.0263e-07
5609.6, 2.1842e-07
5611.6, 1.7936e-07
5613.6, 1.7651e-07
5615.6, 2.0776e-07
5617.6, 2.34e-07
5619.6, 1.7402e-07
5621.6, 1.9073e-07
5623.6, 1.8587e-07
5625.6, 1.7429e-07
5627.6, 1.7659e-07
5629.6, 1.8741e-07
5631.6, 1.7868e-07
5633.6, 1.742e-07
5635.6, 1.7203e-07
5637.6, 1.4302e-07
5639.6, 2.3665e-07
5641.6, 1.4696e-07
5643.6, 2.0192e-07
5645.6, 1.7765e-07
5647.6, 1.4987e-07
5649.6, 2.0004e-07
5651.6, 2.5021e-07
5653.6, 1.6874e-07
5655.6, 2.2726e-07
5657.7, 1.921e-07
5659.7, 1.9946e-07
5661.7, 2.1107e-07
5663.7, 1.9846e-07
5665.7, 1.8835e-07
5667.7, 1.5344e-07
5669.7, 2.1853e-07
5671.7, 1.5544e-07
5673.7, 1.9662e-07
5675.7, 1.5025e-07
5677.7, 1.6874e-07
5679.7, 1.9215e-07
5681.7, 1.9567e-07
5683.7, 2.1567e-07
5685.7, 1.758e-07
5687.7, 1.8889e-07
5689.7, 2.0272e-07
5691.7, 2.0314e-07
5693.7, 2.3023e-07
5695.7, 1.6617e-07
5697.7, 2.1616e-07
5699.7, 1.5791e-07
5701.7, 1.8136e-07
5703.7, 1.6998e-07
5705.7, 1.9497e-07
5707.7, 1.8306e-07
5709.7, 2.3234e-07
5711.7, 2.0287e-07
5713.7, 1.9627e-07
5715.7, 1.772e-07
5717.7, 1.7809e-07
5719.7, 2.148e-07
5721.7, 1.9113e-07
5723.7, 2.0648e-07
5725.7, 2.3488e-07
5727.7, 1.8762e-07
5729.7, 2.1591e-07
5731.7, 1.9211e-07
5733.7, 1.8658e-07
5735.7, 1.7866e-07
5737.7, 2.2421e-07
5739.7, 1.8746e-07
5741.7, 1.7923e-07
5743.7, 2.0554e-07
5745.7, 2.2463e-07
5747.7, 2.1677e-07
5749.7, 1.7637e-07
5751.7, 2.3581e-07
5753.7, 1.7872e-07
5755.7, 2.1949e-07
5757.8, 2.0044e-07
5759.8, 1.9713e-07
5761.8, 2.1498e-07
5763.8, 2.2838e-07
5765.8, 1.744e-07
5767.8, 2.1595e-07
5769.8, 1.8346e-07
5771.8, 1.7447e-07
5773.8, 2.3362e-07
5775.8, 2.7103e-07
5777.8, 1.9889e-07
5779.8, 1.6728e-07
5781.8, 2.1662e-07
5783.8, 2.0413e-07
5785.8, 2.1549e-07
5787.8, 2.0582e-07
5789.8, 2.6948e-07
5791.8, 2.1109e-07
5793.8, 2.245e-07
5795.8, 1.7657e-07
5797.8, 1.9642e-07
5799.8, 2.0847e-07
5801.8, 1.7688e-07
5803.8, 2.4977e-07
5805.8, 1.679e-07
5807.8, 2.017e-07
5809.8, 1.962e-07
5811.8, 2.34e-07
5813.8, 2.4199e-07
5815.8, 2.1726e-07
5817.8, 1.8279e-07
5819.8, 2.124e-07
5821.8, 2.3272e-07
5823.8, 1.9464e-07
5825.8, 1.9859e-07
5827.8, 2.028e-07
5829.8, 2.1047e-07
5831.8, 2.3508e-07
5833.8, 1.8005e-07
5835.8, 2.8324e-07
5837.8, 2.1714e-07
5839.8, 2.7723e-07
5841.8, 2.2724e-07
5843.8, 1.9393e-07
5845.8, 2.0722e-07
5847.8, 1.8751e-07
5849.8, 2.3211e-07
5851.8, 2.2627e-07
5853.8, 2.3586e-07
5855.8, 2.1203e-07
5857.9, 2.2996e-07
5859.9, 1.9152e-07
5861.9, 2.3124e-07
5863.9, 2.1108e-07
5865.9, 2.3479e-07
5867.9, 2.2247e-07
5869.9, 2.1588e-07
5871.9, 2.3119e-07
5873.9, 2.1601e-07
5875.9, 1.8031e-07
5877.9, 2.1845e-07
5879.9, 1.892e-07
5881.9, 2.5236e-07
5883.9, 2.3489e-07
5885.9, 2.5831e-07
5887.9, 2.1831e-07
5889.9, 1.9048e-07
5891.9, 1.8708e-07
5893.9, 2.1227e-07
5895.9, 1.9867e-07
5897.9, 2.8002e-07
5899.9, 2.1333e-07
5901.9, 1.6944e-07
5903.9, 1.6603e-07
5905.9, 1.8496e-07
5907.9, 1.8665e-07
5909.9, 2.2367e-07
5911.9, 1.9283e-07
5913.9, 2.1854e-07
5915.9, 2.0164e-07
5917.9, 1.7283e-07
5919.9, 2.3038e-07
5921.9, 2.2588e-07
5923.9, 2.5313e-07
5925.9, 2.1502e-07
5927.9, 1.8398e-07
5929.9, 2.4826e-07
5931.9, 2.3361e-07
5933.9, 1.9355e-07
5935.9, 2.5691e-07
5937.9, 2.4847e-07
5939.9, 2.2047e-07
5941.9, 1.9017e-07
5943.9, 2.3954e-07
5945.9, 2.1646e-07
5947.9, 1.9769e-07
5949.9, 1.8886e-07
5951.9, 2.0503e-07
5953.9, 2.2934e-07
5955.9, 1.93e-07
5958.0, 2.1661e-07
5960.0, 2.1309e-07
5962.0, 2.087e-07
5964.0, 1.9272e-07
5966.0, 2.1211e-07
5968.0, 2.6015e-07
5970.0, 2.0747e-07
5972.0, 2.5658e-07
5974.0, 2.8465e-07
5976.0, 1.7486e-07
5978.0, 2.2785e-07
5980.0, 1.9587e-07
5982.0, 1.7712e-07
5984.0, 1.8527e-07
5986.0, 1.9057e-07
5988.0, 1.9179e-07
5990.0, 1.8353e-07
5992.0, 2.2368e-07
5994.0, 2.3701e-07
5996.0, 2.0727e-07
5998.0, 2.1935e-07
6000.0, 2.5038e-07
6002.0, 1.8562e-07
6004.0, 2.2009e-07
6006.0, 1.832e-07
6008.0, 2.3628e-07
6010.0, 2.2565e-07
6012.0, 2.2739e-07
6014.0, 2.3517e-07
6016.0, 1.9833e-07
6018.0, 2.3579e-07
6020.0, 2.2069e-07
6022.0, 2.3447e-07
6024.0, 1.8994e-07
6026.0, 2.1089e-07
6028.0, 2.0824e-07
6030.0, 2.2585e-07
6032.0, 2.2017e-07
6034.0, 2.1573e-07
6036.0, 2.396e-07
6038.0, 1.839e-07
6040.0, 2.1121e-07
6042.0, 1.9462e-07
6044.0, 2.1655e-07
6046.0, 2.2965e-07
6048.0, 2.4063e-07
6050.0, 1.8961e-07
6052.0, 2.0293e-07
6054.0, 2.6632e-07
6056.0, 1.9556e-07
6058.1, 1.9195e-07
6060.1, 1.9327e-07
6062.1, 2.1682e-07
6064.1, 1.7587e-07
6066.1, 2.2028e-07
6068.1, 1.8687e-07
6070.1, 2.18e-07
6072.1, 2.1083e-07
6074.1, 1.969e-07
6076.1, 2.0281e-07
6078.1, 2.168e-07
6080.1, 1.9479e-07
6082.1, 2.3673e-07
6084.1, 2.2719e-07
6086.1, 2.3526e-07
6088.1, 2.4304e-07
6090.1, 2.8468e-07
6092.1, 2.2129e-07
6094.1, 1.772e-07
6096.1, 2.2539e-07
6098.1, 2.2838e-07
6100.1, 1.9195e-07
6102.1, 2.2985e-07
6104.1, 1.9521e-07
6106.1, 2.2113e-07
6108.1, 2.2874e-07
6110.1, 2.4416e-07
6112.1, 2.5337e-07
6114.1, 2.4079e-07
6116.1, 2.4851e-07
6118.1, 1.9422e-07
6120.1, 2.3913e-07
6122.1, 1.6918e-07
6124.1, 2.5311e-07
6126.1, 2.3374e-07
6128.1, 2.0869e-07
6130.1, 2.0619e-07
6132.1, 2.1183e-07
6134.1, 2.1127e-07
6136.1, 2.2031e-07
6138.1, 2.1867e-07
6140.1, 2.3599e-07
6142.1, 2.364e-07
6144.1, 2.1478e-07
6146.1, 2.4126e-07
6148.1, 2.1695e-07
6150.1, 2.2979e-07
6152.1, 2.228e-07
6154.1, 2.3331e-07
6156.1, 2.3574e-07
6158.2, 2.1978e-07
6160.2, 2.4717e-07
6162.2, 2.1459e-07
6164.2, 2.2759e-07
6166.2, 1.7968e-07
6168.2, 1.4999e-07
6170.2, 2.4861e-07
6172.2, 2.3592e-07
6174.2, 1.9562e-07
6176.2, 2.48e-07
6178.2, 2.4709e-07
6180.2, 2.5283e-07
6182.2, 2.3843e-07
6184.2, 2.2298e-07
6186.2, 2.3297e-07
6188.2, 2.2497e-07
6190.2, 2.3264e-07
6192.2, 2.1576e-07
6194.2, 1.8841e-07
6196.2, 2.1938e-07
6198.2, 2.5184e-07
6200.2, 2.2716e-07
6202.2, 1.774e-07
6204.2, 2.4909e-07
6206.2, 2.1207e-07
6208.2, 2.4547e-07
6210.2, 2.4636e-07
6212.2, 2.0685e-07
6214.2, 2.3732e-07
6216.2, 2.5243e-07
6218.2, 2.216e-07
6220.2, 2.1095e-07
6222.2, 2.1896e-07
6224.2, 2.1858e-07
6226.2, 2.4803e-07
6228.2, 2.7504e-07
6230.2, 2.1393e-07
6232.2, 2.2341e-07
6234.2, 2.1713e-07
6236.2, 2.4706e-07
6238.2, 2.3702e-07
6240.2, 2.2926e-07
6242.2, 2.0329e-07
6244.2, 2.189e-07
6246.2, 2.2735e-07
6248.2, 2.0139e-07
6250.2, 2.5258e-07
6252.2, 2.0848e-07
6254.2, 2.1975e-07
6256.2, 2.4949e-07
6258.3, 2.4313e-07
6260.3, 1.8814e-07
6262.3, 2.6704e-07
6264.3, 2.4839e-07
6266.3, 2.4065e-07
6268.3, 2.7005e-07
6270.3, 2.2458e-07
6272.3, 2.1842e-07
6274.3, 2.2164e-07
6276.3, 1.9688e-07
6278.3, 2.0597e-07
6280.3, 2.0667e-07
6282.3, 2.3131e-07
6284.3, 2.1689e-07
6286.3, 1.7066e-07
6288.3, 2.2795e-07
6290.3, 2.1635e-07
6292.3, 2.0891e-07
6294.3, 2.4673e-07
6296.3, 2.2864e-07
6298.3, 2.551e-07
6300.3, 2.4712e-07
6302.3, 1.9779e-07
6304.3, 2.3912e-07
6306.3, 2.0696e-07
6308.3, 2.7591e-07
6310.3, 1.9463e-07
6312.3, 2.0968e-07
6314.3, 2.5339e-07
6316.3, 2.3604e-07
6318.3, 2.5596e-07
6320.3, 2.2628e-07
6322.3, 2.5209e-07
6324.3, 2.1182e-07
6326.3, 2.3471e-07
6328.3, 2.5297e-07
6330.3, 2.4892e-07
6332.3, 2.0652e-07
6334.3, 2.2786e-07
6336.3, 2.5172e-07
6338.3, 2.2745e-07
6340.3, 2.3781e-07
6342.3, 2.6438e-07
6344.3, 2.3599e-07
6346.3, 2.5651e-07
6348.3, 2.6092e-07
6350.3, 2.4644e-07
6352.3, 2.1218e-07
6354.3, 1.797e-07
6356.3, 2.4052e-07
6358.4, 2.1817e-07
6360.4, 2.6216e-07
6362.4, 2.573e-07
6364.4, 2.3474e-07
6366.4, 2.313e-07
6368.4, 2.0883e-07
6370.4, 2.3193e-07
6372.4, 1.8769e-07
6374.4, 2.0482e-07
6376.4, 2.351e-07
6378.4, 2.4595e-07
6380.4, 2.0285e-07
6382.4, 2.0445e-07
6384.4, 2.312e-07
6386.4, 2.0325e-07
6388.4, 2.236e-07
6390.4, 2.1753e-07
6392.4, 2.3108e-07
6394.4, 2.0773e-07
6396.4, 1.6668e-07
6398.4, 1.5184e-07
6400.4, 2.3267e-07
6402.4, 2.3939e-07
6404.4, 2.5329e-07
6406.4, 1.9366e-07
6408.4, 2.1606e-07
6410.4, 2.1895e-07
6412.4, 1.7804e-07
6414.4, 2.1958e-07
6416.4, 2.4686e-07
6418.4, 2.3011e-07
6420.4, 2.1346e-07
6422.4, 2.0598e-07
6424.4, 1.7689e-07
6426.4, 2.3463e-07
6428.4, 2.1378e-07
6430.4, 2.5262e-07
6432.4, 2.5136e-07
6434.4, 2.1284e-07
6436.4, 1.9677e-07
6438.4, 2.2049e-07
6440.4, 2.4375e-07
6442.4, 2.0626e-07
6444.4, 2.0036e-07
6446.4, 2.0535e-07
6448.4, 1.8622e-07
6450.4, 2.0634e-07
6452.4, 1.9031e-07
6454.4, 2.2661e-07
6456.4, 2.2497e-07
6458.5, 1.5895e-07
6460.5, 2.3205e-07
6462.5, 2.3077e-07
6464.5, 2.4553e-07
6466.5, 2.0238e-07
6468.5, 2.0701e-07
6470.5, 2.6317e-07
6472.5, 2.2341e-07
6474.5, 1.9692e-07
6476.5, 2.9702e-07
6478.5, 2.3459e-07
6480.5, 2.1823e-07
6482.5, 1.7035e-07
6484.5, 2.339e-07
6486.5, 2.3796e-07
6488.5, 2.2743e-07
6490.5, 2.6538e-07
6492.5, 2.0162e-07
6494.5, 2.6434e-07
6496.5, 2.1312e-07
6498.5, 2.1041e-07
6500.5, 2.4127e-07
6502.5, 2.4396e-07
6504.5, 2.2069e-07
6506.5, 2.2485e-07
6508.5, 2.53e-07
6510.5, 2.5744e-07
6512.5, 2.2617e-07
6514.5, 2.2277e-07
6516.5, 2.3048e-07
6518.5, 2.353e-07
6520.5, 2.336e-07
6522.5, 2.041e-07
6524.5, 2.4075e-07
6526.5, 1.9569e-07
6528.5, 2.5698e-07
6530.5, 2.7935e-07
6532.5, 2.3782e-07
6534.5, 1.8607e-07
6536.5, 2.827e-07
6538.5, 1.6741e-07
6540.5, 2.2996e-07
6542.5, 2.3947e-07
6544.5, 2.5801e-07
6546.5, 2.2636e-07
6548.5, 2.2121e-07
6550.5, 1.7908e-07
6552.5, 2.1825e-07
6554.5, 2.5765e-07
6556.5, 2.484e-07
6558.6, 1.8084e-07
6560.6, 2.2196e-07
6562.6, 2.1082e-07
6564.6, 2.4787e-07
6566.6, 2.2156e-07
6568.6, 2.3695e-07
6570.6, 2.7221e-07
6572.6, 2.5056e-07
6574.6, 2.4641e-07
6576.6, 2.3695e-07
6578.6, 2.3873e-07
6580.6, 2.2396e-07
6582.6, 2.2789e-07
6584.6, 2.0383e-07
6586.6, 2.5813e-07
6588.6, 2.1268e-07
6590.6, 2.3771e-07
6592.6, 2.4702e-07
6594.6, 1.0554e-07
6596.6, -1.33e-08
6598.6, -1.496e-08
6600.6, -1.61e-08
6602.6, -2.003e-08
6604.6, -1.876e-08
6606.6, -1.871e-08
6608.6, -2.025e-08
6610.6, -1.938e-08
6612.6, -2.104e-08
6614.6, -1.887e-08
6616.6, -2.126e-08
6618.6, -2.181e-08
6620.6, -2.121e-08
6622.6, -2.127e-08
6624.6, -2.49e-08
6626.6, -2.082e-08
6628.6, -2.036e-08
6630.6, -2.436e-08
6632.6, -2.014e-08
6634.6, -1.895e-08
6636.6, -2.09e-08
6638.6, -2.198e-08
6640.6, -1.831e-08
6642.6, -1.986e-08
6644.6, -1.645e-08
6646.6, -1.937e-08
6648.6, -1.821e-08
6650.6, -2.032e-08
6652.6, -1.796e-08
6654.6, -1.95e-08
6656.6, -2.028e-08
6658.7, -2.117e-08
6660.7, -1.751e-08
6662.7, -1.919e-08
6664.7, -2.037e-08
6666.7, -1.934e-08
6668.7, -2.058e-08
6670.7, -1.768e-08
6672.7, -1.923e-08
6674.7, -1.52e-08
6676.7, -2.106e-08
6678.7, -1.898e-08
6680.7, -1.84e-08
6682.7, -2.191e-08
6684.7, -1.928e-08
6686.7, -2.435e-08
6688.7, -2.255e-08
6690.7, -1.844e-08
6692.7, -2.158e-08
6694.7, -1.683e-08
6696.7, -1.772e-08
6698.7, -1.466e-08
6700.7, -1.592e-08
6702.7, -1.509e-08
6704.7, -1.485e-08
6706.7, -2.009e-08
6708.7, -1.903e-08
6710.7, -1.895e-08
6712.7, -1.966e-08
6714.7, -1.689e-08
6716.7, -2.019e-08
6718.7, -1.968e-08
6720.7, -1.773e-08
6722.7, -1.567e-08
6724.7, -1.616e-08
6726.7, -1.724e-08
6728.7, -2.289e-08
6730.7, -2.135e-08
6732.7, -1.831e-08
6734.7, -2.041e-08
6736.7, -2.002e-08
6738.7, -2.067e-08
6740.7, -2.303e-08
6742.7, -2.419e-08
6744.7, -2.102e-08
6746.7, -2.212e-08
6748.7, -1.574e-08
6750.7, -1.801e-08
6752.7, -1.741e-08
6754.7, -1.358e-08
6756.7, -1.774e-08
6758.8, -1.544e-08
6760.8, -1.759e-08
6762.8, -1.582e-08
6764.8, -1.751e-08
6766.8, -1.733e-08
6768.8, -1.742e-08
6770.8, -1.868e-08
6772.8, -1.49e-08
6774.8, -1.755e-08
6776.8, -1.899e-08
6778.8, -2.086e-08
6780.8, -2.032e-08
6782.8, -1.847e-08
6784.8, -1.865e-08
6786.8, -1.852e-08
6788.8, -2.25e-08
6790.8, -2.011e-08
6792.8, -2.045e-08
6794.8, -2.056e-08
6796.8, -1.757e-08
6798.8, -2.174e-08
6800.8, -1.808e-08
6802.8, -2.452e-08
6804.8, -2.22e-08
6806.8, -2.073e-08
6808.8, -1.967e-08
6810.8, -1.693e-08
6812.8, -1.471e-08
6814.8, -1.222e-08
6816.8, -1.666e-08
6818.8, -2.128e-08
6820.8, -1.891e-08
6822.8, -2.244e-08
6824.8, -1.747e-08
6826.8, -2.543e-08
6828.8, -2.412e-08
6830.8, -2.099e-08
6832.8, -2.177e-08
6834.8, -1.958e-08
6836.8, -2.17e-08
6838.8, -1.871e-08
6840.8, -2.256e-08
6842.8, -2.252e-08
6844.8, -2.329e-08
6846.8, -2.048e-08
6848.8, -2.416e-08
6850.8, -2.379e-08
6852.8, -2.043e-08
6854.8, -2.211e-08
6856.8, -2.101e-08
6858.9, -1.875e-08
6860.9, -1.891e-08
6862.9, -1.899e-08
6864.9, -1.845e-08
6866.9, -2.296e-08
6868.9, -1.84e-08
6870.9, -2.11e-08
6872.9, -2.093e-08
6874.9, -2.131e-08
6876.9, -2.037e-08
6878.9, -2.548e-08
6880.9, -2.145e-08
6882.9, -2.62e-08
6884.9, -2.196e-08
6886.9, -2.114e-08
6888.9, -2.095e-08
6890.9, -2.26e-08
6892.9, -2.323e-08
6894.9, -2.053e-08
6896.9, -1.987e-08
6898.9, -2.216e-08
6900.9, -1.995e-08
6902.9, -1.84e-08
6904.9, -1.724e-08
6906.9, -2.116e-08
6908.9, -1.875e-08
6910.9, -1.992e-08
6912.9, -1.829e-08
6914.9, -2.116e-08
6916.9, -2.204e-08
6918.9, -2.365e-08
6920.9, -2.115e-08
6922.9, -2.206e-08
6924.9, -2.376e-08
6926.9, -2e-08
6928.9, -1.728e-08
6930.9, -1.962e-08
6932.9, -1.933e-08
6934.9, -2.314e-08
6936.9, -1.817e-08
6938.9, -1.802e-08
6940.9, -1.939e-08
6942.9, -2.033e-08
6944.9, -1.891e-08
6946.9, -2.151e-08
6948.9, -1.601e-08
6950.9, -1.673e-08
6952.9, -1.804e-08
6954.9, -1.693e-08
6956.9, -1.66e-08
6959.0, -1.322e-08
6961.0, -1.51e-08
6963.0, -1.69e-08
6965.0, -1.906e-08
6967.0, -1.569e-08
6969.0, -1.887e-08
6971.0, -1.666e-08
6973.0, -1.38e-08
6975.0, -1.439e-08
6977.0, -1.555e-08
6979.0, -1.697e-08
6981.0, -1.654e-08
6983.0, -1.763e-08
6985.0, -1.554e-08
6987.0, -1.389e-08
6989.0, -1.592e-08
6991.0, -1.854e-08
6993.0, -1.863e-08
6995.0, -1.872e-08
6997.0, -1.811e-08
6999.0, -1.603e-08
7001.0, -1.448e-08
7003.0, -1.416e-08
7005.0, -1.385e-08
7007.0, -1.482e-08
7009.0, -1.857e-08
7011.0, -1.855e-08
7013.0, -1.366e-08
7015.0, -1.532e-08
7017.0, -1.376e-08
7019.0, -1.717e-08
7021.0, -1.767e-08
7023.0, -2.099e-08
7025.0, -2.161e-08
7027.0, -1.96e-08
7029.0, -2.106e-08
7031.0, -1.964e-08
7033.0, -1.687e-08
7035.0, -1.279e-08
7037.0, -1.793e-08
7039.0, -2.336e-08
7041.0, -1.884e-08
7043.0, -1.876e-08
7045.0, -1.952e-08
7047.0, -2.14e-08
7049.0, -2.422e-08
7051.0, -1.865e-08
7053.0, -1.925e-08
7055.0, -1.813e-08
7057.0, -2.125e-08
7059.1, -2.423e-08
7061.1, -2.224e-08
7063.1, -2.125e-08
7065.1, -1.914e-08
7067.1, -2.037e-08
7069.1, -2.161e-08
7071.1, -2.272e-08
7073.1, -2.12e-08
7075.1, -2.216e-08
7077.1, -2.416e-08
7079.1, -2.419e-08
7081.1, -2.104e-08
7083.1, -2.38e-08
7085.1, -2.463e-08
7087.1, -2.225e-08
7089.1, -2.338e-08
7091.1, -2.332e-08
7093.1, -2.178e-08
7095.1, -2.071e-08
7097.1, -2.128e-08
7099.1, -2.356e-08
7101.1, -2.35e-08
7103.1, -1.99e-08
7105.1, -2.423e-08
7107.1, -2.142e-08
7109.1, -2.382e-08
7111.1, -2.3e-08
7113.1, -2.213e-08
7115.1, -2.409e-08
7117.1, -2.131e-08
7119.1, -2.286e-08
7121.1, -2.079e-08
7123.1, -1.724e-08
7125.1, -2.064e-08
7127.1, -2.185e-08
7129.1, -1.954e-08
7131.1, -2.096e-08
7133.1, -2.098e-08
7135.1, -2.025e-08
7137.1, -1.733e-08
7139.1, -1.991e-08
7141.1, -1.688e-08
7143.1, -2.049e-08
7145.1, -1.943e-08
7147.1, -2.165e-08
7149.1, -2.385e-08
7151.1, -1.994e-08
7153.1, -1.712e-08
7155.1, -1.895e-08
7157.1, -1.985e-08
7159.2, -1.841e-08
7161.2, -1.937e-08
7163.2, -2.087e-08
7165.2, -1.98e-08
7167.2, -1.834e-08
7169.2, -1.779e-08
7171.2, -1.611e-08
7173.2, -1.605e-08
7175.2, -1.447e-08
7177.2, -1.669e-08
7179.2, -1.799e-08
7181.2, -2.056e-08
7183.2, -2.079e-08
7185.2, -1.91e-08
7187.2, -2.142e-08
7189.2, -1.844e-08
7191.2, -2.654e-08
7193.2, -2.179e-08
7195.2, -2.112e-08
7197.2, -2.409e-08
7199.2, -1.875e-08
7201.2, -1.879e-08
7203.2, -1.86e-08
7205.2, -1.919e-08
7207.2, -1.857e-08
7209.2, -2.104e-08
7211.2, -1.827e-08
7213.2, -1.741e-08
7215.2, -1.772e-08
7217.2, -1.691e-08
7219.2, -1.637e-08
7221.2, -1.545e-08
7223.2, -2.141e-08
7225.2, -1.731e-08
7227.2, -2.266e-08
7229.2, -2.11e-08
7231.2, -1.786e-08
7233.2, -1.964e-08
7235.2, -1.926e-08
7237.2, -2.104e-08
7239.2, -2.098e-08
7241.2, -2.123e-08
7243.2, -2.087e-08
7245.2, -1.795e-08
7247.2, -1.737e-08
7249.2, -2.384e-08
7251.2, -2.348e-08
7253.2, -2.089e-08
7255.2, -2.009e-08
7257.2, -2.117e-08
7259.3, -1.966e-08
7261.3, -2.048e-08
7263.3, -2.074e-08
7265.3, -2.555e-08
7267.3, -2.037e-08
7269.3, -2.142e-08
7271.3, -2.061e-08
7273.3, -1.936e-08
7275.3, -1.833e-08
7277.3, -2.033e-08
7279.3, -2.049e-08
7281.3, -2.161e-08
7283.3, -2.038e-08
7285.3, -2.411e-08
7287.3, -1.877e-08
7289.3, -2.375e-08
7291.3, -2.42e-08
7293.3, -1.935e-08
7295.3, -1.943e-08
7297.3, -2.021e-08
7299.3, -2.01e-08
7301.3, -2.256e-08
7303.3, -2.223e-08
7305.3, -1.998e-08
7307.3, -2.229e-08
7309.3, -2.49e-08
7311.3, -2.462e-08
7313.3, -2.562e-08
7315.3, -2.417e-08
7317.3, -1.889e-08
7319.3, -2.42e-08
7321.3, -2.064e-08
7323.3, -1.747e-08
7325.3, -2.211e-08
7327.3, -2.192e-08
7329.3, -2.221e-08
7331.3, -1.969e-08
7333.3, -1.718e-08
7335.3, -1.811e-08
7337.3, -1.874e-08
7339.3, -1.948e-08
7341.3, -1.603e-08
7343.3, -2.083e-08
7345.3, -1.921e-08
7347.3, -1.728e-08
7349.3, -2.204e-08
7351.3, -1.783e-08
7353.3, -1.984e-08
7355.3, -2.082e-08
7357.3, -2.121e-08
7359.4, -1.758e-08
7361.4, -1.988e-08
7363.4, -2.168e-08
7365.4, -2.164e-08
7367.4, -1.975e-08
7369.4, -1.967e-08
7371.4, -2.324e-08
7373.4, -2.255e-08
7375.4, -1.715e-08
7377.4, -2.049e-08
7379.4, -1.656e-08
7381.4, -1.673e-08
7383.4, -1.611e-08
7385.4, -1.719e-08
7387.4, -1.741e-08
7389.4, -1.831e-08
7391.4, -2.194e-08
7393.4, -1.628e-08
7395.4, -1.99e-08
7397.4, -2.123e-08
7399.4, -1.934e-08
7401.4, -1.639e-08
7403.4, -1.649e-08
7405.4, -1.68e-08
7407.4, -1.637e-08
7409.4, -1.912e-08
7411.4, -1.668e-08
7413.4, -1.391e-08
7415.4, -1.958e-08
7417.4, -1.999e-08
7419.4, -2.004e-08
7421.4, -1.908e-08
7423.4, -1.888e-08
7425.4, -2.097e-08
7427.4, -1.846e-08
7429.4, -1.662e-08
7431.4, -2.264e-08
7433.4, -1.74e-08
7435.4, -1.752e-08
7437.4, -1.603e-08
7439.4, -1.83e-08
7441.4, -2.088e-08
7443.4, -1.906e-08
7445.4, -1.823e-08
7447.4, -1.592e-08
7449.4, -1.904e-08
7451.4, -1.82e-08
7453.4, -1.795e-08
7455.4, -1.842e-08
7457.4, -1.918e-08
7459.5, -2.407e-08
7461.5, -2.254e-08
7463.5, -2.027e-08
7465.5, -2.026e-08
7467.5, -1.644e-08
7469.5, -2.056e-08
7471.5, -2.013e-08
7473.5, -1.785e-08
7475.5, -1.886e-08
7477.5, -1.96e-08
7479.5, -1.995e-08
7481.5, -2.014e-08
7483.5, -1.696e-08
7485.5, -1.961e-08
7487.5, -2.029e-08
7489.5, -2.088e-08
7491.5, -2.191e-08
7493.5, -1.819e-08
7495.5, -1.831e-08
7497.5, -1.812e-08
7499.5, -2.09e-08
7501.5, -1.924e-08
7503.5, -1.609e-08
7505.5, -1.812e-08
7507.5, -1.706e-08
7509.5, -1.567e-08
7511.5, -1.943e-08
7513.5, -1.744e-08
7515.5, -1.665e-08
7517.5, -1.956e-08
7519.5, -1.724e-08
7521.5, -1.826e-08
7523.5, -2.084e-08
7525.5, -1.794e-08
7527.5, -1.863e-08
7529.5, -1.611e-08
7531.5, -2.082e-08
7533.5, -1.873e-08
7535.5, -1.821e-08
7537.5, -1.967e-08
7539.5, -2.179e-08
7541.5, -2.081e-08
7543.5, -2.171e-08
7545.5, -2.078e-08
7547.5, -2.123e-08
7549.5, -1.977e-08
7551.5, -2.14e-08
7553.5, -2.199e-08
7555.5, -2.007e-08
7557.5, -2.076e-08
7559.6, -1.979e-08
7561.6, -1.843e-08
7563.6, -1.665e-08
7565.6, -1.98e-08
7567.6, -1.655e-08
7569.6, -1.62e-08
7571.6, -1.955e-08
7573.6, -1.744e-08
7575.6, -2.057e-08
7577.6, -2.109e-08
7579.6, -1.713e-08
7581.6, -1.924e-08
7583.6, -1.967e-08
7585.6, -1.789e-08
7587.6, -2.192e-08
7589.6, -2.04e-08
7591.6, -2.061e-08
7593.6, -1.775e-08
7595.6, -1.651e-08
7597.6, -1.427e-08
7599.6, -1.296e-08
7601.6, -1.766e-08
7603.6, -2.089e-08
7605.6, -1.63e-08
7607.6, -2.097e-08
7609.6, -1.983e-08
7611.6, -1.776e-08
7613.6, -2.167e-08
7615.6, -1.673e-08
7617.6, -1.642e-08
7619.6, -1.706e-08
7621.6, -1.823e-08
7623.6, -1.639e-08
7625.6, -1.597e-08
7627.6, -1.343e-08
7629.6, -1.949e-08
7631.6, -2.033e-08
7633.6, -1.776e-08
7635.6, -1.698e-08
7637.6, -1.747e-08
7639.6, -1.615e-08
7641.6, -1.528e-08
7643.6, -1.261e-08
7645.6, -1.41e-08
7647.6, -1.54e-08
7649.6, -1.53e-08
7651.6, -1.554e-08
7653.6, -1.229e-08
7655.6, -1.75e-08
7657.6, -1.711e-08
7659.7, -1.68e-08
7661.7, -1.694e-08
7663.7, -1.786e-08
7665.7, -1.617e-08
7667.7, -1.143e-08
7669.7, -1.632e-08
7671.7, -1.613e-08
7673.7, -1.604e-08
7675.7, -1.277e-08
7677.7, -1.681e-08
7679.7, -1.714e-08
7681.7, -1.79e-08
7683.7, -1.266e-08
7685.7, -1.179e-08
7687.7, -1.297e-08
7689.7, -1.296e-08
7691.7, -1.426e-08
7693.7, -1.738e-08
7695.7, -1.014e-08
7697.7, -1.46e-08
7699.7, -1.44e-08
7701.7, -1.542e-08
7703.7, -1.442e-08
7705.7, -1.268e-08
7707.7, -1.526e-08
7709.7, 1.9395e-07
7711.7, 1.8196e-07
7713.7, 1.7628e-07
7715.7, 1.9231e-07
7717.7, 1.7264e-07
7719.7, 2.0039e-07
7721.7, 1.6515e-07
7723.7, 1.8815e-07
7725.7, 1.9554e-07
7727.7, 1.8574e-07
7729.7, 1.8521e-07
7731.7, 1.9036e-07
7733.7, 2.0616e-07
7735.7, 1.9213e-07
7737.7, 1.8382e-07
7739.7, 1.8485e-07
7741.7, 1.539e-07
7743.7, 1.9777e-07
7745.7, 2.1184e-07
7747.7, 1.978e-07
7749.7, 1.9257e-07
7751.7, 1.7429e-07
7753.7, 2.2856e-07
7755.7, 1.9865e-07
7757.7, 2.0115e-07
7759.8, 2.0059e-07
7761.8, 1.6324e-07
7763.8, 2.4223e-07
7765.8, 1.8492e-07
7767.8, 2.0814e-07
7769.8, 1.8348e-07
7771.8, 2.4773e-07
7773.8, 2.0203e-07
7775.8, 1.9493e-07
7777.8, 1.7685e-07
7779.8, 1.5345e-07
7781.8, 1.6185e-07
7783.8, 2.1795e-07
7785.8, 1.9001e-07
7787.8, 1.6415e-07
7789.8, 1.8358e-07
7791.8, 1.7553e-07
7793.8, 1.9528e-07
7795.8, 1.4769e-07
7797.8, 2.1506e-07
7799.8, 1.9075e-07
7801.8, 1.7352e-07
7803.8, 1.9552e-07
7805.8, 2.3803e-07
7807.8, 1.8374e-07
7809.8, 2.0095e-07
7811.8, 1.9793e-07
7813.8, 2.1168e-07
7815.8, 1.6544e-07
7817.8, 1.6777e-07
7819.8, 1.597e-07
7821.8, 1.8372e-07
7823.8, 1.594e-07
7825.8, 2.0638e-07
7827.8, 2.1531e-07
7829.8, 2.2606e-07
7831.8, 1.9484e-07
7833.8, 1.8566e-07
7835.8, 2.2079e-07
7837.8, 1.7234e-07
7839.8, 1.7471e-07
7841.8, 2.0811e-07
7843.8, 2.1019e-07
7845.8, 1.7259e-07
7847.8, 1.7028e-07
7849.8, 1.7838e-07
7851.8, 1.8812e-07
7853.8, 2.1053e-07
7855.8, 1.8552e-07
7857.8, 1.6774e-07
7859.9, 2.0067e-07
7861.9, 2.6175e-07
7863.9, 2.5602e-07
7865.9, 2.3899e-07
7867.9, 2.6319e-07
7869.9, 2.0816e-07
7871.9, 2.2304e-07
7873.9, 1.9264e-07
7875.9, 1.8134e-07
7877.9, 1.7031e-07
7879.9, 1.8181e-07
7881.9, 2.0501e-07
7883.9, 2.4397e-07
7885.9, 1.9608e-07
7887.9, 1.9809e-07
7889.9, 1.9748e-07
7891.9, 2.3249e-07
7893.9, 2.5837e-07
7895.9, 2.1015e-07
7897.9, 1.7281e-07
7899.9, 2.0821e-07
7901.9, 2.0418e-07
7903.9, 2.156e-07
7905.9, 2.0496e-07
7907.9, 2.352e-07
7909.9, 1.993e-07
7911.9, 1.859e-07
7913.9, 2.3149e-07
7915.9, 2.0714e-07
7917.9, 2.0469e-07
7919.9, 2.3783e-07
7921.9, 2.0504e-07
7923.9, 2.543e-07
7925.9, 2.5013e-07
7927.9, 2.0148e-07
7929.9, 1.8694e-07
7931.9, 2.0404e-07
7933.9, 2.2035e-07
7935.9, 2.8987e-07
7937.9, 2.0139e-07
7939.9, 1.7519e-07
7941.9, 1.8138e-07
7943.9, 2.7212e-07
7945.9, 2.2094e-07
7947.9, 2.2357e-07
7949.9, 2.1654e-07
7951.9, 1.8504e-07
7953.9, 2.5417e-07
7955.9, 2.0148e-07
7957.9, 1.6274e-07
7960.0, 2.3017e-07
7962.0, 1.881e-07
7964.0, 2.362e-07
7966.0, 2.0146e-07
7968.0, 2.2928e-07
7970.0, 1.3619e-07
7972.0, 1.7989e-07
7974.0, 2.0117e-07
7976.0, 1.7681e-07
7978.0, 2.3203e-07
7980.0, 2.1167e-07
7982.0, 2.1073e-07
7984.0, 2.4408e-07
7986.0, 2.0537e-07
7988.0, 1.9956e-07
7990.0, 2.28e-07
7992.0, 2.3765e-07
7994.0, 1.9205e-07
7996.0, 2.5564e-07
7998.0, 1.874e-07
8000.0, 2.1095e-07
8002.0, 1.9616e-07
8004.0, 2.0958e-07
8006.0, 2.078e-07
8008.0, 2.3986e-07
8010.0, 2.2391e-07
8012.0, 1.961e-07
8014.0, 1.9167e-07
8016.0, 2.2165e-07
8018.0, 2.063e-07
8020.0, 2.2392e-07
8022.0, 2.133e-07
8024.0, 2.3356e-07
8026.0, 2.3086e-07
8028.0, 2.1144e-07
8030.0, 2.0023e-07
8032.0, 2.3411e-07
8034.0, 1.8237e-07
8036.0, 1.6103e-07
8038.0, 2.1579e-07
8040.0, 2.0963e-07
8042.0, 2.113e-07
8044.0, 2.2267e-07
8046.0, 2.3066e-07
8048.0, 2.1938e-07
8050.0, 2.0712e-07
8052.0, 2.5206e-07
8054.0, 2.0402e-07
8056.0, 1.973e-07
8058.0, 1.7965e-07
8060.1, 2.2844e-07
8062.1, 2.0324e-07
8064.1, 2.0425e-07
8066.1, 2.3884e-07
8068.1, 1.9999e-07
8070.1, 1.9416e-07
8072.1, 2.0204e-07
8074.1, 2.0112e-07
8076.1, 2.6123e-07
8078.1, 1.9284e-07
8080.1, 2.3892e-07
8082.1, 2.298e-07
8084.1, 2.3521e-07
8086.1, 2.3042e-07
8088.1, 2.0965e-07
8090.1, 2.3143e-07
8092.1, 2.2883e-07
8094.1, 2.7719e-07
8096.1, 1.9983e-07
8098.1, 2.0032e-07
8100.1, 2.3124e-07
8102.1, 2.3208e-07
8104.1, 2.582e-07
8106.1, 2.3609e-07
8108.1, 2.3344e-07
8110.1, 2.536e-07
8112.1, 1.8462e-07
8114.1, 2.3045e-07
8116.1, 1.7831e-07
8118.1, 2.3757e-07
8120.1, 1.9968e-07
8122.1, 1.9036e-07
8124.1, 2.3358e-07
8126.1, 2.3757e-07
8128.1, 2.1789e-07
8130.1, 2.0233e-07
8132.1, 2.0673e-07
8134.1, 1.9623e-07
8136.1, 2.3712e-07
8138.1, 2.0387e-07
8140.1, 2.0865e-07
8142.1, 2.5828e-07
8144.1, 1.9624e-07
8146.1, 2.2933e-07
8148.1, 2.0199e-07
8150.1, 2.1306e-07
8152.1, 1.9001e-07
8154.1, 2.0063e-07
8156.1, 2.4567e-07
8158.1, 2.2752e-07
8160.2, 2.3798e-07
8162.2, 2.0923e-07
8164.2, 2.2714e-07
8166.2, 2.4177e-07
8168.2, 2.4136e-07
8170.2, 2.2318e-07
8172.2, 2.5213e-07
8174.2, 2.737e-07
8176.2, 2.2842e-07
8178.2, 2.0033e-07
8180.2, 2.0937e-07
8182.2, 2.2569e-07
8184.2, 1.9849e-07
8186.2, 2.1255e-07
8188.2, 2.0299e-07
8190.2, 2.7098e-07
8192.2, 2.4514e-07
8194.2, 2.2951e-07
8196.2, 1.8928e-07
8198.2, 2.294e-07
8200.2, 1.9394e-07
8202.2, 2.1973e-07
8204.2, 2.3313e-07
8206.2, 2.2592e-07
8208.2, 2.2671e-07
8210.2, 2.1576e-07
8212.2, 1.7354e-07
8214.2, 2.5129e-07
8216.2, 1.8703e-07
8218.2, 1.8971e-07
8220.2, 2.288e-07
8222.2, 2.222e-07
8224.2, 2.2687e-07
8226.2, 2.3863e-07
8228.2, 2.3892e-07
8230.2, 2.2673e-07
8232.2, 2.2666e-07
8234.2, 2.3328e-07
8236.2, 2.1743e-07
8238.2, 2.3287e-07
8240.2, 2.0359e-07
8242.2, 2.2388e-07
8244.2, 2.5274e-07
8246.2, 2.2418e-07
8248.2, 2.2839e-07
8250.2, 2.7103e-07
8252.2, 2.2991e-07
8254.2, 2.6932e-07
8256.2, 1.8757e-07
8258.2, 1.9663e-07
8260.3, 2.1555e-07
8262.3, 2.2733e-07
8264.3, 2.1892e-07
8266.3, 2.0705e-07
8268.3, 2.3104e-07
8270.3, 2.2712e-07
8272.3, 2.3828e-07
8274.3, 2.373e-07
8276.3, 2.4029e-07
8278.3, 2.407e-07
8280.3, 2.1791e-07
8282.3, 2.2308e-07
8284.3, 1.8976e-07
8286.3, 2.3326e-07
8288.3, 1.9348e-07
8290.3, 2.1289e-07
8292.3, 2.2024e-07
8294.3, 2.4932e-07
8296.3, 2.2592e-07
8298.3, 2.223e-07
8300.3, 2.6216e-07
8302.3, 2.2557e-07
8304.3, 2.3131e-07
8306.3, 1.9765e-07
8308.3, 2.4769e-07
8310.3, 2.26e-07
8312.3, 2.1073e-07
8314.3, 2.7955e-07
8316.3, 2.287e-07
8318.3, 2.0319e-07
8320.3, 1.9654e-07
8322.3, 2.5668e-07
8324.3, 1.8435e-07
8326.3, 1.7294e-07
8328.3, 2.6647e-07
8330.3, 2.128e-07
8332.3, 1.7595e-07
8334.3, 2.1805e-07
8336.3, 2.2968e-07
8338.3, 2.2524e-07
8340.3, 2.2545e-07
8342.3, 2.0534e-07
8344.3, 1.7924e-07
8346.3, 2.5568e-07
8348.3, 2.2752e-07
8350.3, 1.9986e-07
8352.3, 2.0316e-07
8354.3, 1.9502e-07
8356.3, 2.5212e-07
8358.3, 2.077e-07
8360.4, 2.0657e-07
8362.4, 2.0866e-07
8364.4, 2.2669e-07
8366.4, 2.3418e-07
8368.4, 2.0453e-07
8370.4, 1.9718e-07
8372.4, 2.6654e-07
8374.4, 2.6532e-07
8376.4, 1.9506e-07
8378.4, 2.2358e-07
8380.4, 1.8086e-07
8382.4, 2.233e-07
8384.4, 2.3123e-07
8386.4, 1.9949e-07
8388.4, 2.2939e-07
8390.4, 2.0135e-07
8392.4, 1.9741e-07
8394.4, 1.6888e-07
8396.4, 1.9615e-07
8398.4, 2.3475e-07
8400.4, 2.4768e-07
8402.4, 2.1965e-07
8404.4, 1.769e-07
8406.4, 1.9949e-07
8408.4, 2.6215e-07
8410.4, 1.95e-07
8412.4, 2.0865e-07
8414.4, 2.6064e-07
8416.4, 2.1023e-07
8418.4, 2.5983e-07
8420.4, 2.359e-07
8422.4, 2.436e-07
8424.4, 2.2395e-07
8426.4, 2.2073e-07
8428.4, 2.259e-07
8430.4, 2.2045e-07
8432.4, 1.8044e-07
8434.4, 2.6444e-07
8436.4, 1.8615e-07
8438.4, 2.1229e-07
8440.4, 2.0738e-07
8442.4, 2.4506e-07
8444.4, 2.3727e-07
8446.4, 2.2152e-07
8448.4, 2.2407e-07
8450.4, 1.8601e-07
8452.4, 2.2487e-07
8454.4, 2.0234e-07
8456.4, 2.2185e-07
8458.4, 2.2405e-07
8460.5, 2.2992e-07
8462.5, 2.0756e-07
8464.5, 1.9628e-07
8466.5, 2.1935e-07
8468.5, 2.0124e-07
8470.5, 2.2141e-07
8472.5, 2.5874e-07
8474.5, 1.9048e-07
8476.5, 2.5722e-07
8478.5, 2.1745e-07
8480.5, 1.8942e-07
8482.5, 1.9077e-07
8484.5, 2.1503e-07
8486.5, 2.1089e-07
8488.5, 2.2275e-07
8490.5, 2.1466e-07
8492.5, 2.406e-07
8494.5, 2.4855e-07
8496.5, 2.0737e-07
8498.5, 2.2794e-07
8500.5, 2.3826e-07
8502.5, 2.2685e-07
8504.5, 1.6879e-07
8506.5, 2.3152e-07
8508.5, 2.0589e-07
8510.5, 2.4199e-07
8512.5, 1.9717e-07
8514.5, 2.2432e-07
8516.5, 2.4869e-07
8518.5, 2.0991e-07
8520.5, 2.3742e-07
8522.5, 2.0191e-07
8524.5, 2.132e-07
8526.5, 2.1396e-07
8528.5, 2.3291e-07
8530.5, 1.9481e-07
8532.5, 2.0734e-07
8534.5, 2.2447e-07
8536.5, 2.3946e-07
8538.5, 2.2196e-07
8540.5, 2.1099e-07
8542.5, 2.4954e-07
8544.5, 2.1685e-07
8546.5, 2.3743e-07
8548.5, 2.7803e-07
8550.5, 2.2275e-07
8552.5, 2.0975e-07
8554.5, 2.5576e-07
8556.5, 2.0396e-07
8558.5, 1.9926e-07
8560.6, 2.5745e-07
8562.6, 2.2818e-07
8564.6, 2.044e-07
8566.6, 2.1233e-07
8568.6, 2.4626e-07
8570.6, 2.5974e-07
8572.6, 2.3809e-07
8574.6, 2.4047e-07
8576.6, 2.1352e-07
8578.6, 2.0149e-07
8580.6, 1.4251e-07
8582.6, 2.2526e-07
8584.6, 2.4783e-07
8586.6, 2.3969e-07
8588.6, 2.385e-07
8590.6, 2.1754e-07
8592.6, 2.0204e-07
8594.6, 2.0894e-07
8596.6, 2.1735e-07
8598.6, 2.4108e-07
8600.6, 2.1163e-07
8602.6, 2.1573e-07
8604.6, 2.4594e-07
8606.6, 2.1644e-07
8608.6, 2.4307e-07
8610.6, 2.1957e-07
8612.6, 1.9247e-07
8614.6, 2.4036e-07
8616.6, 2.0155e-07
8618.6, 1.8339e-07
8620.6, 1.9202e-07
8622.6, 2.445e-07
8624.6, 2.6197e-07
8626.6, 2.2708e-07
8628.6, 2.5496e-07
8630.6, 2.156e-07
8632.6, 2.2976e-07
8634.6, 2.438e-07
8636.6, 2.2511e-07
8638.6, 2.0032e-07
8640.6, 2.0712e-07
8642.6, 2.5455e-07
8644.6, 2.6567e-07
8646.6, 2.6257e-07
8648.6, 2.4885e-07
8650.6, 2.184e-07
8652.6, 2.6152e-07
8654.6, 1.4676e-07
8656.6, 2.1147e-07
8658.6, 2.2308e-07
8660.7, 2.1404e-07
8662.7, 2.0469e-07
8664.7, 2.831e-07
8666.7, 2.2718e-07
8668.7, 2.143e-07
8670.7, 2.7798e-07
8672.7, 2.274e-07
8674.7, 2.0227e-07
8676.7, 2.2108e-07
8678.7, 2.1376e-07
8680.7, 2.3243e-07
8682.7, 2.4466e-07
8684.7, 2.1216e-07
8686.7, 2.3812e-07
8688.7, 1.8843e-07
8690.7, 2.075e-07
8692.7, 2.3667e-07
8694.7, 2.2747e-07
8696.7, 2.4324e-07
8698.7, 2.0932e-07
8700.7, 2.8264e-07
8702.7, 2.5874e-07
8704.7, 1.9955e-07
8706.7, 2.4849e-07
8708.7, 1.9884e-07
8710.7, -1.135e-08
8712.7, -1.141e-08
8714.7, -9.88e-09
8716.7, -1.016e-08
8718.7, -1.206e-08
8720.7, -1.206e-08
8722.7, -1.442e-08
8724.7, -1.383e-08
8726.7, -1.263e-08
8728.7, -1.712e-08
8730.7, -1.338e-08
8732.7, -1.815e-08
8734.7, -1.597e-08
8736.7, -1.477e-08
8738.7, -1.237e-08
8740.7, -1.627e-08
8742.7, -1.299e-08
8744.7, -1.307e-08
8746.7, -1.41e-08
8748.7, -1.451e-08
8750.7, -1.59e-08
8752.7, -1.168e-08
8754.7, -1.362e-08
8756.7, -1.235e-08
8758.7, -1.344e-08
8760.8, -1.037e-08
8762.8, -1.45e-08
8764.8, -1.401e-08
8766.8, -1.106e-08
8768.8, -1.231e-08
8770.8, -1.389e-08
8772.8, -1.878e-08
8774.8, -1.799e-08
8776.8, -1.79e-08
8778.8, -1.643e-08
8780.8, -1.283e-08
8782.8, -1.312e-08
8784.8, -1.437e-08
8786.8, -1.333e-08
8788.8, -1.331e-08
8790.8, -1.567e-08
8792.8, -1.526e-08
8794.8, -1.52e-08
8796.8, -1.604e-08
8798.8, -1.464e-08
8800.8, -1.68e-08
8802.8, -1.4e-08
8804.8, -1.566e-08
8806.8, -1.355e-08
8808.8, -1.446e-08
8810.8, -1.078e-08
8812.8, -1.303e-08
8814.8, -1.456e-08
8816.8, -1.5e-08
8818.8, -1.689e-08
8820.8, -1.749e-08
8822.8, -1.278e-08
8824.8, -1.497e-08
8826.8, -1.191e-08
8828.8, -1.33e-08
8830.8, -1.434e-08
8832.8, -1.627e-08
8834.8, -9.93e-09
8836.8, -1.229e-08
8838.8, -1.431e-08
8840.8, -1.237e-08
8842.8, -1.059e-08
8844.8, -1.441e-08
8846.8, -1.082e-08
8848.8, -1.171e-08
8850.8, -1.455e-08
8852.8, -9.84e-09
8854.8, -1.315e-08
8856.8, -9.95e-09
8858.8, -1.309e-08
8860.9, -1.206e-08
8862.9, -1.29e-08
8864.9, -8.96e-09
8866.9, -1.138e-08
8868.9, -1.238e-08
8870.9, -1.209e-08
8872.9, -8.45e-09
8874.9, -1.169e-08
8876.9, -1.609e-08
8878.9, -1.555e-08
8880.9, -1.677e-08
8882.9, -1.686e-08
8884.9, -1.973e-08
8886.9, -1.649e-08
8888.9, -1.373e-08
8890.9, -1.79e-08
8892.9, -1.88e-08
8894.9, -1.459e-08
8896.9, -1.48e-08
8898.9, -1.629e-08
8900.9, -1.765e-08
8902.9, -1.575e-08
8904.9, -1.411e-08
8906.9, -1.352e-08
8908.9, -1.057e-08
8910.9, -1.45e-08
8912.9, -1.428e-08
8914.9, -1.388e-08
8916.9, -9.55e-09
8918.9, -1.003e-08
8920.9, -9.91e-09
8922.9, -8.92e-09
8924.9, -1.337e-08
8926.9, -1.213e-08
8928.9, -1.146e-08
8930.9, -1.073e-08
8932.9, -1.057e-08
8934.9, -7.51e-09
8936.9, -9.35e-09
8938.9, -7.57e-09
8940.9, -8.37e-09
8942.9, -8.35e-09
8944.9, -8.59e-09
8946.9, -1.039e-08
8948.9, -7.77e-09
8950.9, -8.96e-09
8952.9, -1.34e-08
8954.9, -1.005e-08
8956.9, -1.087e-08
8958.9, -1.276e-08
8961.0, -1.39e-08
8963.0, -1.173e-08
8965.0, -1.345e-08
8967.0, -1.085e-08
8969.0, -1.503e-08
8971.0, -1.195e-08
8973.0, -1.033e-08
8975.0, -1.38e-08
8977.0, -1.393e-08
8979.0, -1.148e-08
8981.0, -9.6e-09
8983.0, -1.22e-08
8985.0, -1.308e-08
8987.0, -1.115e-08
8989.0, -1.201e-08
8991.0, -1.377e-08
8993.0, -1.166e-08
8995.0, -1.178e-08
8997.0, -1.27e-08
8999.0, -9.86e-09
9001.0, -1.408e-08
9003.0, -1.547e-08
9005.0, -1.147e-08
9007.0, -1.099e-08
9009.0, -1.048e-08
9011.0, -1.197e-08
9013.0, -1.183e-08
9015.0, -9.51e-09
9017.0, -1.236e-08
9019.0, -7.95e-09
9021.0, -1.087e-08
9023.0, -9.11e-09
9025.0, -8.51e-09
9027.0, -1.057e-08
9029.0, -1.136e-08
9031.0, -1.209e-08
9033.0, -1.45e-08
9035.0, -1.268e-08
9037.0, -9.68e-09
9039.0, -1.114e-08
9041.0, -1.245e-08
9043.0, -8.12e-09
9045.0, -7.37e-09
9047.0, -1.097e-08
9049.0, -3.84e-09
9051.0, -5.52e-09
9053.0, -9.55e-09
9055.0, -1.206e-08
9057.0, -9.24e-09
9059.0, -7.3e-09
9061.1, -9.8e-09
9063.1, -1.037e-08
9065.1, -9.94e-09
9067.1, -1.093e-08
9069.1, -1.17e-08
9071.1, -1.414e-08
9073.1, -1.268e-08
9075.1, -1.133e-08
9077.1, -8.06e-09
9079.1, -1.181e-08
9081.1, -1.012e-08
9083.1, -1.192e-08
9085.1, -9.84e-09
9087.1, -7.38e-09
9089.1, -9.21e-09
9091.1, -7.82e-09
9093.1, -1.158e-08
9095.1, -9.5e-09
9097.1, -8.23e-09
9099.1, -1.434e-08
9101.1, -9.01e-09
9103.1, -1.158e-08
9105.1, -1.31e-08
9107.1, -1.168e-08
9109.1, -1.113e-08
9111.1, -1.066e-08
9113.1, -1.53e-08
9115.1, -1.575e-08
9117.1, -1.392e-08
9119.1, -1.468e-08
9121.1, -1.191e-08
9123.1, -1.457e-08
9125.1, -1.294e-08
9127.1, -1.128e-08
9129.1, -8.36e-09
9131.1, -9.99e-09
9133.1, -9.78e-09
9135.1, -1.269e-08
9137.1, -9.56e-09
9139.1, -1.369e-08
9141.1, -1.143e-08
9143.1, -1.518e-08
9145.1, -1.501e-08
9147.1, -1.137e-08
9149.1, -1.468e-08
9151.1, -1.392e-08
9153.1, -1.499e-08
9155.1, -1.34e-08
9157.1, -1.427e-08
9159.1, -1.529e-08
9161.2, -1.345e-08
9163.2, -1.217e-08
9165.2, -1.18e-08
9167.2, -1.37e-08
9169.2, -1.303e-08
9171.2, -1.523e-08
9173.2, -1.686e-08
9175.2, -1.651e-08
9177.2, -1.413e-08
9179.2, -1.307e-08
9181.2, -1.787e-08
9183.2, -1.548e-08
9185.2, -1.849e-08
9187.2, -1.783e-08
9189.2, -1.393e-08
9191.2, -1.673e-08
9193.2, -1.459e-08
9195.2, -1.537e-08
9197.2, -1.498e-08
9199.2, -1.442e-08
9201.2, -1.508e-08
9203.2, -1.571e-08
9205.2, -1.467e-08
9207.2, -1.572e-08
9209.2, -1.266e-08
9211.2, -1.536e-08
9213.2, -1.321e-08
9215.2, -1.678e-08
9217.2, -1.456e-08
9219.2, -1.222e-08
9221.2, -1.315e-08
9223.2, -1.182e-08
9225.2, -1.155e-08
9227.2, -1.061e-08
9229.2, -1.548e-08
9231.2, -1.383e-08
9233.2, -1.303e-08
9235.2, -1.563e-08
9237.2, -1.237e-08
9239.2, -1.479e-08
9241.2, -1.111e-08
9243.2, -1.621e-08
9245.2, -1.333e-08
9247.2, -1.506e-08
9249.2, -1.609e-08
9251.2, -1.801e-08
9253.2, -1.336e-08
9255.2, -1.366e-08
9257.2, -1.518e-08
9259.2, -1.999e-08
9261.3, -1.743e-08
9263.3, -1.769e-08
9265.3, -1.96e-08
9267.3, -1.787e-08
9269.3, -1.277e-08
9271.3, -1.473e-08
9273.3, -1.368e-08
9275.3, -1.518e-08
9277.3, -1.268e-08
9279.3, -1.499e-08
9281.3, -1.69e-08
9283.3, -1.096e-08
9285.3, -1.683e-08
9287.3, -1.621e-08
9289.3, -1.128e-08
9291.3, -1.55e-08
9293.3, -1.132e-08
9295.3, -1.7e-08
9297.3, -1.024e-08
9299.3, -1.363e-08
9301.3, -1.308e-08
9303.3, -1.592e-08
9305.3, -1.52e-08
9307.3, -1.817e-08
9309.3, -1.361e-08
9311.3, -1.135e-08
9313.3, -1.307e-08
9315.3, -1.422e-08
9317.3, -1.404e-08
9319.3, -1.344e-08
9321.3, -1.643e-08
9323.3, -1.278e-08
9325.3, -1.183e-08
9327.3, -1.274e-08
9329.3, -1.507e-08
9331.3, -1.826e-08
9333.3, -1.607e-08
9335.3, -2e-08
9337.3, -1.464e-08
9339.3, -1.248e-08
9341.3, -2.033e-08
9343.3, -1.488e-08
9345.3, -1.654e-08
9347.3, -1.725e-08
9349.3, -1.703e-08
9351.3, -1.682e-08
9353.3, -1.851e-08
9355.3, -1.856e-08
9357.3, -1.375e-08
9359.3, -1.54e-08
9361.4, -1.72e-08
9363.4, -1.384e-08
9365.4, -1.401e-08
9367.4, -1.548e-08
9369.4, -1.441e-08
9371.4, -1.243e-08
9373.4, -1.705e-08
9375.4, -1.63e-08
9377.4, -1.557e-08
9379.4, -1.534e-08
9381.4, -1.737e-08
9383.4, -2.046e-08
9385.4, -1.483e-08
9387.4, -1.667e-08
9389.4, -1.842e-08
9391.4, -1.828e-08
9393.4, -2.133e-08
9395.4, -2.03e-08
9397.4, -1.601e-08
9399.4, -1.624e-08
9401.4, -1.802e-08
9403.4, -1.69e-08
9405.4, -1.72e-08
9407.4, -1.488e-08
9409.4, -1.811e-08
9411.4, -1.484e-08
9413.4, -1.093e-08
9415.4, -1.424e-08
9417.4, -1.602e-08
9419.4, -1.348e-08
9421.4, -1.581e-08
9423.4, -1.811e-08
9425.4, -1.747e-08
9427.4, -1.638e-08
9429.4, -1.631e-08
9431.4, -2.032e-08
9433.4, -1.749e-08
9435.4, -1.942e-08
9437.4, -1.856e-08
9439.4, -1.861e-08
9441.4, -1.555e-08
9443.4, -1.641e-08
9445.4, -1.356e-08
9447.4, -1.591e-08
9449.4, -1.531e-08
9451.4, -1.488e-08
9453.4, -1.615e-08
9455.4, -1.652e-08
9457.4, -1.8e-08
9459.4, -2.008e-08
9461.5, -1.483e-08
9463.5, -1.468e-08
9465.5, -1.676e-08
9467.5, -1.86e-08
9469.5, -1.457e-08
9471.5, -1.476e-08
9473.5, -1.694e-08
9475.5, -1.459e-08
9477.5, -1.574e-08
9479.5, -1.91e-08
9481.5, -1.874e-08
9483.5, -1.885e-08
9485.5, -1.812e-08
9487.5, -1.674e-08
9489.5, -1.34e-08
9491.5, -1.771e-08
9493.5, -2.05e-08
9495.5, -1.975e-08
9497.5, -1.821e-08
9499.5, -1.903e-08
9501.5, -1.598e-08
9503.5, -1.767e-08
9505.5, -1.502e-08
9507.5, -1.582e-08
9509.5, -1.586e-08
9511.5, -1.456e-08
9513.5, -1.666e-08
9515.5, -1.736e-08
9517.5, -1.612e-08
9519.5, -1.608e-08
9521.5, -1.904e-08
9523.5, -1.372e-08
9525.5, -1.498e-08
9527.5, -1.455e-08
9529.5, -1.319e-08
9531.5, -1.69e-08
9533.5, -1.304e-08
9535.5, -1.524e-08
9537.5, -1.716e-08
9539.5, -1.885e-08
9541.5, -1.741e-08
9543.5, -1.759e-08
9545.5, -1.421e-08
9547.5, -1.81e-08
9549.5, -1.552e-08
9551.5, -1.48e-08
9553.5, -1.077e-08
9555.5, -1.226e-08
9557.5, -1.037e-08
9559.5, -1.315e-08
9561.6, -1.709e-08
9563.6, -1.47e-08
9565.6, -1.674e-08
9567.6, -1.283e-08
9569.6, -1.43e-08
9571.6, -1.646e-08
9573.6, -1.594e-08
9575.6, -1.595e-08
9577.6, -1.674e-08
9579.6, -1.443e-08
9581.6, -1.702e-08
9583.6, -1.697e-08
9585.6, -1.633e-08
9587.6, -1.678e-08
9589.6, -1.356e-08
9591.6, -1.465e-08
9593.6, -1.804e-08
9595.6, -1.658e-08
9597.6, -1.445e-08
9599.6, -1.461e-08
9601.6, -1.384e-08
9603.6, -1.485e-08
9605.6, -1.129e-08
9607.6, -1.363e-08
9609.6, -1.412e-08
9611.6, -1.173e-08
9613.6, -1.155e-08
9615.6, -1.241e-08
9617.6, -1.497e-08
9619.6, -1.214e-08
9621.6, -1.307e-08
9623.6, -1.265e-08
9625.6, -1.287e-08
9627.6, -1.29e-08
9629.6, -9.95e-09
9631.6, -8.66e-09
9633.6, -1.358e-08
9635.6, -1.396e-08
9637.6, -1.201e-08
9639.6, -1.49e-08
9641.6, -1.447e-08
9643.6, -1.414e-08
9645.6, -1.698e-08
9647.6, -1.286e-08
9649.6, -1.906e-08
9651.6, -1.378e-08
9653.6, -1.373e-08
9655.6, -1.368e-08
9657.6, -1.114e-08
9659.6, -1.402e-08
9661.7, -1.421e-08
9663.7, -1.66e-08
9665.7, -1.423e-08
9667.7, -1.821e-08
9669.7, -1.93e-08
9671.7, -1.776e-08
9673.7, -1.343e-08
9675.7, -1.22e-08
9677.7, -1.427e-08
9679.7, -1.91e-08
9681.7, -1.361e-08
9683.7, -1.661e-08
9685.7, -1.4e-08
9687.7, -1.547e-08
9689.7, -1.343e-08
9691.7, -1.133e-08
9693.7, -1.265e-08
9695.7, -1.317e-08
9697.7, -1.218e-08
9699.7, -1.158e-08
9701.7, -1.294e-08
9703.7, -1.307e-08
9705.7, -1.171e-08
9707.7, -1.216e-08
9709.7, -1.145e-08
9711.7, -1.171e-08
9713.7, -1.436e-08
9715.7, -1.226e-08
9717.7, -1.364e-08
9719.7, -1.287e-08
9721.7, -9.29e-09
9723.7, -1.117e-08
9725.7, -1.327e-08
9727.7, -1.512e-08
9729.7, -1.726e-08
9731.7, -1.639e-08
9733.7, -1.651e-08
9735.7, -1.307e-08
9737.7, -1.592e-08
9739.7, -1.767e-08
9741.7, -1.748e-08
9743.7, -1.7e-08
9745.7, -1.591e-08
9747.7, -1.541e-08
9749.7, -1.322e-08
9751.7, -1.693e-08
9753.7, -1.349e-08
9755.7, -1.148e-08
9757.7, -1.484e-08
9759.7, -1.36e-08
9761.8, -1.373e-08
9763.8, -1.133e-08
9765.8, -1.374e-08
9767.8, -1.394e-08
9769.8, -1.462e-08
9771.8, -1.712e-08
9773.8, -1.422e-08
9775.8, -1.298e-08
9777.8, -1.52e-08
9779.8, -1.63e-08
9781.8, -1.713e-08
9783.8, -1.624e-08
9785.8, -1.184e-08
9787.8, -1.49e-08
9789.8, -1.643e-08
9791.8, -1.245e-08
9793.8, -1.201e-08
9795.8, -1.403e-08
9797.8, -1.928e-08
9799.8, -1.573e-08
9801.8, -1.639e-08
9803.8, -1.286e-08
9805.8, -1.445e-08
9807.8, -1.481e-08
9809.8, -1.717e-08
9811.8, -1.817e-08
9813.8, -2.03e-08
9815.8, -1.214e-08
9817.8, -1.396e-08
9819.8, -1.798e-08
9821.8, -2.101e-08
9823.8, -2.118e-08
9825.8, -1.514e-08
9827.8, -1.473e-08
9829.8, -1.712e-08
9831.8, -1.657e-08
9833.8, -1.816e-08
9835.8, -1.594e-08
9837.8, -1.608e-08
9839.8, -1.756e-08
9841.8, -1.724e-08
9843.8, -1.572e-08
9845.8, -1.636e-08
9847.8, -1.553e-08
9849.8, -1.83e-08
9851.8, -1.723e-08
9853.8, -1.949e-08
9855.8, -1.806e-08
9857.8, -1.591e-08
9859.8, -1.88e-08
9861.9, -1.688e-08
9863.9, -1.569e-08
9865.9, -1.634e-08
9867.9, -1.857e-08
9869.9, -2.036e-08
9871.9, -1.748e-08
9873.9, -2.02e-08
9875.9, -1.766e-08
9877.9, -1.595e-08
9879.9, -2.191e-08
9881.9, -2.006e-08
9883.9, -2.282e-08
9885.9, -2.216e-08
9887.9, -1.862e-08
9889.9, -1.778e-08
9891.9, -1.781e-08
9893.9, -1.995e-08
9895.9, -1.857e-08
9897.9, -1.416e-08
9899.9, -1.65e-08
9901.9, -2.087e-08
9903.9, -1.771e-08
9905.9, -1.688e-08
9907.9, -2.041e-08
9909.9, -1.495e-08
9911.9, -1.593e-08
9913.9, -1.67e-08
9915.9, -1.903e-08
9917.9, -1.783e-08
9919.9, -1.617e-08
9921.9, -1.94e-08
9923.9, -1.881e-08
9925.9, -1.871e-08
9927.9, -1.511e-08
9929.9, -1.727e-08
9931.9, -1.934e-08
9933.9, -1.878e-08
9935.9, -2.034e-08
9937.9, -1.884e-08
9939.9, -1.795e-08
9941.9, -1.998e-08
9943.9, -1.62e-08
9945.9, -1.528e-08
9947.9, -1.782e-08
9949.9, -1.395e-08
9951.9, -1.873e-08
9953.9, -2.051e-08
9955.9, -1.665e-08
9957.9, -1.492e-08
9959.9, -1.576e-08
9962.0, -1.73e-08
9964.0, -1.963e-08
9966.0, -1.641e-08
9968.0, -1.696e-08
9970.0, -1.86e-08
9972.0, -2.092e-08
9974.0, -2.209e-08
9976.0, -1.993e-08
9978.0, -2.292e-08
9980.0, -1.848e-08
9982.0, -2.111e-08
9984.0, -1.86e-08
9986.0, -1.787e-08
9988.0, -1.97e-08
9990.0, -1.952e-08
9992.0, -1.952e-08
9994.0, -1.743e-08
9996.0, -1.718e-08
9998.0, -1.557e-08
10000.0, -2.119e-08
10002.0, -1.793e-08
10004.0, -1.784e-08
10006.0, -2.142e-08
10008.0, -1.655e-08
