Time sep (ms?), Current (A)
0.0, -2.229e-08
2.002, -2.029e-08
4.004, -2.009e-08
6.006, -2.234e-08
8.008, -2.253e-08
10.01, -1.92e-08
12.012, -1.978e-08
14.014, -1.984e-08
16.016, -2.178e-08
18.018, -2.137e-08
20.02, -2.117e-08
22.022, -2.463e-08
24.024, -2.077e-08
26.026, -2.108e-08
28.028, -1.954e-08
30.03, -2.026e-08
32.032, -2.307e-08
34.034, -2.093e-08
36.036, -2.089e-08
38.038, -1.878e-08
40.04, -1.632e-08
42.042, -2.177e-08
44.044, -2.4e-08
46.046, -2.298e-08
48.048, -2.173e-08
50.05, -2.332e-08
52.052, -2.637e-08
54.054, -2.335e-08
56.056, -2.57e-08
58.058, -2.289e-08
60.06, -2.376e-08
62.062, -2.407e-08
64.064, -2.753e-08
66.066, -2.506e-08
68.068, -2.821e-08
70.07, -2.61e-08
72.072, -2.707e-08
74.074, -2.312e-08
76.076, -2.779e-08
78.078, -2.602e-08
80.08, -2.45e-08
82.082, -2.331e-08
84.084, -2.432e-08
86.086, -2.345e-08
88.088, -2.26e-08
90.09, -2.372e-08
92.092, -2.164e-08
94.094, -2.432e-08
96.096, -2.326e-08
98.098, -2.17e-08
100.1, -2.405e-08
102.1, -2.439e-08
104.1, -2.454e-08
106.11, -2.195e-08
108.11, -2.472e-08
110.11, -2.74e-08
112.11, -2.473e-08
114.11, -2.699e-08
116.12, -2.255e-08
118.12, -2.356e-08
120.12, -2.462e-08
122.12, -1.728e-08
124.12, -2.258e-08
126.13, -2.212e-08
128.13, -2.004e-08
130.13, -1.836e-08
132.13, -2.085e-08
134.13, -2.01e-08
136.14, -2.344e-08
138.14, -2.13e-08
140.14, -2.395e-08
142.14, -2.221e-08
144.14, -2.397e-08
146.15, -2.148e-08
148.15, -2.135e-08
150.15, -2.227e-08
152.15, -2.523e-08
154.15, -2.423e-08
156.16, -2.196e-08
158.16, -2.161e-08
160.16, -2.48e-08
162.16, -2.269e-08
164.16, -2.606e-08
166.17, -2.256e-08
168.17, -2.373e-08
170.17, -2.275e-08
172.17, -2.531e-08
174.17, -2.991e-08
176.18, -3.023e-08
178.18, -2.866e-08
180.18, -2.52e-08
182.18, -2.748e-08
184.18, -3.021e-08
186.19, -2.41e-08
188.19, -2.337e-08
190.19, -2.509e-08
192.19, -2.584e-08
194.19, -2.49e-08
196.2, -2.691e-08
198.2, -2.466e-08
200.2, -2.226e-08
202.2, -2.67e-08
204.2, -2.881e-08
206.21, -2.653e-08
208.21, -2.461e-08
210.21, -2.595e-08
212.21, -2.379e-08
214.21, -2.293e-08
216.22, -2.634e-08
218.22, -2.801e-08
220.22, -2.689e-08
222.22, -3.247e-08
224.22, -2.857e-08
226.23, -2.768e-08
228.23, -3.032e-08
230.23, -2.985e-08
232.23, -2.643e-08
234.23, -2.616e-08
236.24, -3.019e-08
238.24, -2.621e-08
240.24, -2.929e-08
242.24, -2.916e-08
244.24, -2.78e-08
246.25, -2.899e-08
248.25, -2.401e-08
250.25, -2.566e-08
252.25, -2.445e-08
254.25, -2.383e-08
256.26, -2.516e-08
258.26, -2.673e-08
260.26, -2.422e-08
262.26, -2.886e-08
264.26, -2.499e-08
266.27, -2.057e-08
268.27, -2.373e-08
270.27, -2.403e-08
272.27, -2.362e-08
274.27, -2.76e-08
276.28, -2.614e-08
278.28, -2.309e-08
280.28, -2.035e-08
282.28, -2.251e-08
284.28, -2.131e-08
286.29, -2.208e-08
288.29, -2.279e-08
290.29, -2.393e-08
292.29, -2.702e-08
294.29, -2.547e-08
296.3, -2.569e-08
298.3, -2.279e-08
300.3, -2.165e-08
302.3, -2.466e-08
304.3, -2.595e-08
306.31, -2.724e-08
308.31, -2.547e-08
310.31, -2.492e-08
312.31, -2.796e-08
314.31, -3.126e-08
316.32, -2.813e-08
318.32, -2.408e-08
320.32, -2.661e-08
322.32, -2.316e-08
324.32, -2.569e-08
326.33, -2.817e-08
328.33, -2.645e-08
330.33, -2.492e-08
332.33, -2.571e-08
334.33, -2.956e-08
336.34, -2.85e-08
338.34, -2.431e-08
340.34, -2.427e-08
342.34, -2.794e-08
344.34, -2.525e-08
346.35, -2.453e-08
348.35, -2.63e-08
350.35, -2.299e-08
352.35, -2.743e-08
354.35, -2.752e-08
356.36, -2.642e-08
358.36, -2.494e-08
360.36, -2.646e-08
362.36, -2.561e-08
364.36, -2.669e-08
366.37, -2.378e-08
368.37, -1.9e-08
370.37, -2.269e-08
372.37, -2.366e-08
374.37, -2.589e-08
376.38, -2.569e-08
378.38, -2.491e-08
380.38, -2.378e-08
382.38, -2.204e-08
384.38, -1.999e-08
386.39, -2.665e-08
388.39, -2.282e-08
390.39, -1.865e-08
392.39, -1.54e-08
394.39, -2.068e-08
396.4, -1.767e-08
398.4, -1.47e-08
400.4, -1.958e-08
402.4, -1.983e-08
404.4, -1.873e-08
406.41, -2.228e-08
408.41, -2.143e-08
410.41, -1.754e-08
412.41, -1.95e-08
414.41, -1.928e-08
416.42, -2.211e-08
418.42, -2.117e-08
420.42, -1.838e-08
422.42, -2.058e-08
424.42, -2.209e-08
426.43, -1.709e-08
428.43, -1.95e-08
430.43, -1.994e-08
432.43, -2.087e-08
434.43, -2.093e-08
436.44, -2.088e-08
438.44, -1.889e-08
440.44, -1.584e-08
442.44, -1.886e-08
444.44, -2.184e-08
446.45, -1.626e-08
448.45, -1.88e-08
450.45, -1.668e-08
452.45, -1.83e-08
454.45, -2.23e-08
456.46, -1.854e-08
458.46, -1.847e-08
460.46, -2.292e-08
462.46, -2.07e-08
464.46, -2.194e-08
466.47, -2.294e-08
468.47, -2.361e-08
470.47, -2.12e-08
472.47, -2.408e-08
474.47, -2.209e-08
476.48, -2.429e-08
478.48, -2.192e-08
480.48, -2.544e-08
482.48, -2.363e-08
484.48, -2.228e-08
486.49, -2.162e-08
488.49, -2.388e-08
490.49, -1.749e-08
492.49, -2.273e-08
494.49, -2.303e-08
496.5, -2.358e-08
498.5, -2.392e-08
500.5, -2.28e-08
502.5, -2.362e-08
504.5, -2.143e-08
506.51, -1.942e-08
508.51, -2.214e-08
510.51, -2.464e-08
512.51, -2.375e-08
514.51, -2.668e-08
516.52, -2.681e-08
518.52, -2.201e-08
520.52, -2.461e-08
522.52, -2.464e-08
524.52, -2.479e-08
526.53, -2.742e-08
528.53, -2.082e-08
530.53, -2.206e-08
532.53, -2.011e-08
534.53, -2.128e-08
536.54, -2.05e-08
538.54, -2.194e-08
540.54, -2.193e-08
542.54, -1.864e-08
544.54, -1.982e-08
546.55, -1.943e-08
548.55, -2.011e-08
550.55, -2.015e-08
552.55, -2.18e-08
554.55, -1.951e-08
556.56, -2.223e-08
558.56, -1.793e-08
560.56, -1.916e-08
562.56, -2.082e-08
564.56, -2.122e-08
566.57, -2.223e-08
568.57, -2.207e-08
570.57, -2.002e-08
572.57, -1.773e-08
574.57, -2.264e-08
576.58, -2.184e-08
578.58, -2.056e-08
580.58, -2.333e-08
582.58, -2.521e-08
584.58, -1.945e-08
586.59, -1.98e-08
588.59, -2.266e-08
590.59, -2.156e-08
592.59, -2.408e-08
594.59, -2.122e-08
596.6, -2.08e-08
598.6, -1.756e-08
600.6, -2.449e-08
602.6, -2.347e-08
604.6, -1.906e-08
606.61, -2.05e-08
608.61, -2.003e-08
610.61, -1.728e-08
612.61, -1.721e-08
614.61, -1.957e-08
616.62, -2.149e-08
618.62, -2.37e-08
620.62, -2.337e-08
622.62, -2.155e-08
624.62, -1.891e-08
626.63, -1.816e-08
628.63, -1.668e-08
630.63, -1.88e-08
632.63, -2.523e-08
634.63, -2.169e-08
636.64, -1.688e-08
638.64, -1.833e-08
640.64, -2.031e-08
642.64, -1.954e-08
644.64, -1.732e-08
646.65, -1.858e-08
648.65, -2.14e-08
650.65, -1.654e-08
652.65, -1.706e-08
654.65, -1.969e-08
656.66, -2.093e-08
658.66, -1.644e-08
660.66, -1.458e-08
662.66, -1.647e-08
664.66, -1.959e-08
666.67, -2.117e-08
668.67, -2.215e-08
670.67, -2.253e-08
672.67, -2.167e-08
674.67, -1.988e-08
676.68, -2.324e-08
678.68, -2.001e-08
680.68, -1.645e-08
682.68, -1.885e-08
684.68, -1.697e-08
686.69, -1.58e-08
688.69, -1.671e-08
690.69, -1.746e-08
692.69, -1.483e-08
694.69, -1.801e-08
696.7, -1.763e-08
698.7, -1.754e-08
700.7, -1.619e-08
702.7, -2.015e-08
704.7, -2.081e-08
706.71, -1.844e-08
708.71, -1.883e-08
710.71, -2.016e-08
712.71, -1.809e-08
714.71, -1.883e-08
716.72, -2.172e-08
718.72, -1.871e-08
720.72, -1.641e-08
722.72, -1.926e-08
724.72, -1.872e-08
726.73, -2.063e-08
728.73, -2.108e-08
730.73, -2.161e-08
732.73, -2.038e-08
734.73, -2.383e-08
736.74, -2.239e-08
738.74, -2.268e-08
740.74, -2.343e-08
742.74, -1.832e-08
744.74, -2.178e-08
746.75, -2.023e-08
748.75, -1.952e-08
750.75, -2.096e-08
752.75, -1.998e-08
754.75, -1.994e-08
756.76, -2.355e-08
758.76, -1.976e-08
760.76, -2.054e-08
762.76, -1.621e-08
764.76, -2.216e-08
766.77, -2.058e-08
768.77, -1.717e-08
770.77, -1.909e-08
772.77, -2.039e-08
774.77, -2.292e-08
776.78, -1.574e-08
778.78, -1.668e-08
780.78, -1.923e-08
782.78, -2.101e-08
784.78, -1.748e-08
786.79, -2.37e-08
788.79, -1.594e-08
790.79, -2.403e-08
792.79, -1.96e-08
794.79, -2.076e-08
796.8, -2.344e-08
798.8, -2.352e-08
800.8, -1.912e-08
802.8, -2.071e-08
804.8, -2.093e-08
806.81, -2.354e-08
808.81, -2.039e-08
810.81, -2.133e-08
812.81, -1.908e-08
814.81, -2.314e-08
816.82, -2.058e-08
818.82, -2.256e-08
820.82, -2.124e-08
822.82, -2.063e-08
824.82, -1.877e-08
826.83, -1.857e-08
828.83, -1.947e-08
830.83, -2.185e-08
832.83, -2.32e-08
834.83, -2.052e-08
836.84, -2.332e-08
838.84, -2.141e-08
840.84, -1.927e-08
842.84, -2.297e-08
844.84, -2.079e-08
846.85, -1.912e-08
848.85, -2.098e-08
850.85, -1.964e-08
852.85, -1.878e-08
854.85, -1.811e-08
856.86, -2.419e-08
858.86, -1.9e-08
860.86, -2.093e-08
862.86, -2.096e-08
864.86, -2.171e-08
866.87, -2.242e-08
868.87, -2.554e-08
870.87, -2.174e-08
872.87, -2.066e-08
874.87, -2.271e-08
876.88, -2.597e-08
878.88, -2.095e-08
880.88, -2.312e-08
882.88, -1.951e-08
884.88, -1.887e-08
886.89, -2.313e-08
888.89, -2.492e-08
890.89, -2.16e-08
892.89, -2.467e-08
894.89, -2.331e-08
896.9, -2.581e-08
898.9, -2.148e-08
900.9, -2.119e-08
902.9, -1.939e-08
904.9, -2.15e-08
906.91, -2.06e-08
908.91, -2.006e-08
910.91, -1.988e-08
912.91, -2.144e-08
914.91, -2.068e-08
916.92, -1.809e-08
918.92, -2.021e-08
920.92, -1.726e-08
922.92, -2.035e-08
924.92, -2.375e-08
926.93, -2.51e-08
928.93, -2.205e-08
930.93, -2.213e-08
932.93, -2.051e-08
934.93, -2.126e-08
936.94, -2.239e-08
938.94, -2.517e-08
940.94, -2.21e-08
942.94, -2.12e-08
944.94, -2.263e-08
946.95, -2.379e-08
948.95, -1.943e-08
950.95, -2.091e-08
952.95, -2.394e-08
954.95, -2.248e-08
956.96, -2.339e-08
958.96, -2.49e-08
960.96, -2.562e-08
962.96, -2.028e-08
964.96, -2.463e-08
966.97, -2.606e-08
968.97, -2.162e-08
970.97, -2.084e-08
972.97, -2.375e-08
974.97, -2.259e-08
976.98, -2.415e-08
978.98, -2.485e-08
980.98, -2.636e-08
982.98, -2.515e-08
984.98, -2.425e-08
986.99, -2.234e-08
988.99, -2.268e-08
990.99, -1.881e-08
992.99, -2.23e-08
994.99, -2.116e-08
997.0, -2.271e-08
999.0, -2.503e-08
1001.0, -2.232e-08
1003.0, -1.854e-08
1005.0, -2.197e-08
1007.0, -2.113e-08
1009.0, -1.96e-08
1011.0, -1.916e-08
1013.0, -2.441e-08
1015.0, -2.698e-08
1017.0, -2.652e-08
1019.0, -2.916e-08
1021.0, -2.475e-08
1023.0, -2.29e-08
1025.0, -2.174e-08
1027.0, -2.5e-08
1029.0, -2.386e-08
1031.0, -1.823e-08
1033.0, -1.708e-08
1035.0, -2.217e-08
1037.0, -2.243e-08
1039.0, -2.311e-08
1041.0, -2.357e-08
1043.0, -2.264e-08
1045.0, -2.145e-08
1047.0, -1.837e-08
1049.0, -1.761e-08
1051.0, -1.658e-08
1053.1, -1.43e-08
1055.1, -1.869e-08
1057.1, -2.256e-08
1059.1, -1.587e-08
1061.1, -1.711e-08
1063.1, -1.997e-08
1065.1, -2.289e-08
1067.1, -1.738e-08
1069.1, -1.82e-08
1071.1, -2.082e-08
1073.1, -2.213e-08
1075.1, -2.221e-08
1077.1, -2.342e-08
1079.1, -2.232e-08
1081.1, -1.582e-08
1083.1, -2.634e-08
1085.1, -2.226e-08
1087.1, -2.432e-08
1089.1, -2.424e-08
1091.1, -2.283e-08
1093.1, -2.539e-08
1095.1, -2.23e-08
1097.1, -2.39e-08
1099.1, -2.408e-08
1101.1, -2.7e-08
1103.1, -2.512e-08
1105.1, -2.192e-08
1107.1, -2.365e-08
1109.1, -2.095e-08
1111.1, -2.477e-08
1113.1, -2.041e-08
1115.1, -2.612e-08
1117.1, -2.516e-08
1119.1, -2.024e-08
1121.1, -2.318e-08
1123.1, -2.447e-08
1125.1, -2.334e-08
1127.1, -2.366e-08
1129.1, -2.251e-08
1131.1, -2.448e-08
1133.1, -2.298e-08
1135.1, -2.585e-08
1137.1, -3.01e-08
1139.1, -2.739e-08
1141.1, -2.575e-08
1143.1, -2.802e-08
1145.1, -3.021e-08
1147.1, -2.56e-08
1149.1, -2.416e-08
1151.1, -2.576e-08
1153.2, -2.602e-08
1155.2, -2.565e-08
1157.2, -2.782e-08
1159.2, -2.799e-08
1161.2, -2.61e-08
1163.2, -2.032e-08
1165.2, -2.962e-08
1167.2, -2.63e-08
1169.2, -2.412e-08
1171.2, -2.149e-08
1173.2, -2.708e-08
1175.2, -2.478e-08
1177.2, -2.887e-08
1179.2, -2.755e-08
1181.2, -2.665e-08
1183.2, -2.831e-08
1185.2, -3.023e-08
1187.2, -2.997e-08
1189.2, -2.372e-08
1191.2, -2.242e-08
1193.2, -2.553e-08
1195.2, -2.312e-08
1197.2, -2.377e-08
1199.2, -2.266e-08
1201.2, -2.204e-08
1203.2, -2.231e-08
1205.2, -2.525e-08
1207.2, -2.509e-08
1209.2, -2.224e-08
1211.2, -2.558e-08
1213.2, -2.352e-08
1215.2, -2.435e-08
1217.2, -2.6e-08
1219.2, -2.365e-08
1221.2, -2.021e-08
1223.2, -2.612e-08
1225.2, -2.32e-08
1227.2, -2.513e-08
1229.2, -2.172e-08
1231.2, -2.211e-08
1233.2, -2.491e-08
1235.2, -2.573e-08
1237.2, -2.137e-08
1239.2, -2.235e-08
1241.2, -2.247e-08
1243.2, -2.36e-08
1245.2, -2.32e-08
1247.2, -2.053e-08
1249.2, -2.107e-08
1251.2, -2.271e-08
1253.3, -2.14e-08
1255.3, -2.046e-08
1257.3, -2.212e-08
1259.3, -2.367e-08
1261.3, -2.061e-08
1263.3, -2.375e-08
1265.3, -2.556e-08
1267.3, -2.972e-08
1269.3, -2.709e-08
1271.3, -2.642e-08
1273.3, -2.402e-08
1275.3, -2.149e-08
1277.3, -2.188e-08
1279.3, -2.344e-08
1281.3, -2.265e-08
1283.3, -2.593e-08
1285.3, -2.631e-08
1287.3, -2.597e-08
1289.3, -2.515e-08
1291.3, -1.978e-08
1293.3, -2.281e-08
1295.3, -2.549e-08
1297.3, -2.184e-08
1299.3, -2.306e-08
1301.3, -1.998e-08
1303.3, -2.021e-08
1305.3, -2.031e-08
1307.3, -2.256e-08
1309.3, -1.661e-08
1311.3, -2.468e-08
1313.3, -2.071e-08
1315.3, -2.205e-08
1317.3, -2.216e-08
1319.3, -2.333e-08
1321.3, -2.586e-08
1323.3, -2.383e-08
1325.3, -2.53e-08
1327.3, -2.691e-08
1329.3, -2.438e-08
1331.3, -2.447e-08
1333.3, -2.192e-08
1335.3, -2.116e-08
1337.3, -2.513e-08
1339.3, -2.109e-08
1341.3, -2.106e-08
1343.3, -1.923e-08
1345.3, -2.365e-08
1347.3, -1.987e-08
1349.3, -1.928e-08
1351.3, -1.88e-08
1353.4, -2.254e-08
1355.4, -2.224e-08
1357.4, -2.204e-08
1359.4, -1.927e-08
1361.4, -1.869e-08
1363.4, -2.078e-08
1365.4, -2.003e-08
1367.4, -2.157e-08
1369.4, -2.315e-08
1371.4, -1.885e-08
1373.4, -2.303e-08
1375.4, -2.446e-08
1377.4, -2.256e-08
1379.4, -2.269e-08
1381.4, -2.4e-08
1383.4, -2.458e-08
1385.4, -2.149e-08
1387.4, -2.034e-08
1389.4, -2.343e-08
1391.4, -2.523e-08
1393.4, -2.446e-08
1395.4, -2.603e-08
1397.4, -2.532e-08
1399.4, -2.183e-08
1401.4, -2.686e-08
1403.4, -2.164e-08
1405.4, -2.652e-08
1407.4, -2.4e-08
1409.4, -2.402e-08
1411.4, -1.978e-08
1413.4, -2.151e-08
1415.4, -2.035e-08
1417.4, -2.174e-08
1419.4, -2.099e-08
1421.4, -2.194e-08
1423.4, -2.067e-08
1425.4, -2.169e-08
1427.4, -1.964e-08
1429.4, -1.942e-08
1431.4, 1.161e-07
1433.4, 2.0465e-07
1435.4, 1.8711e-07
1437.4, 1.7565e-07
1439.4, 2.3519e-07
1441.4, 2.0054e-07
1443.4, 2.0245e-07
1445.4, 1.9985e-07
1447.4, 1.9592e-07
1449.4, 2.3867e-07
1451.4, 2.1338e-07
1453.5, 1.5573e-07
1455.5, 1.896e-07
1457.5, 1.9441e-07
1459.5, 2.4746e-07
1461.5, 2.0156e-07
1463.5, 1.9293e-07
1465.5, 2.2008e-07
1467.5, 1.6972e-07
1469.5, 2.039e-07
1471.5, 1.8572e-07
1473.5, 2.1858e-07
1475.5, 2.0684e-07
1477.5, 2.6791e-07
1479.5, 1.8377e-07
1481.5, 2.0325e-07
1483.5, 2.4505e-07
1485.5, 2.1817e-07
1487.5, 1.7983e-07
1489.5, 1.7701e-07
1491.5, 2.4433e-07
1493.5, 2.3732e-07
1495.5, 1.5339e-07
1497.5, 1.9106e-07
1499.5, 2.2376e-07
1501.5, 2.4789e-07
1503.5, 1.7345e-07
1505.5, 1.7371e-07
1507.5, 2.2018e-07
1509.5, 2.2093e-07
1511.5, 2.123e-07
1513.5, 1.8997e-07
1515.5, 2.4543e-07
1517.5, 2.0635e-07
1519.5, 3.3307e-07
1521.5, 2.1676e-07
1523.5, 2.2062e-07
1525.5, 2.1117e-07
1527.5, 2.1429e-07
1529.5, 2.2115e-07
1531.5, 1.9903e-07
1533.5, 1.9717e-07
1535.5, 2.1644e-07
1537.5, 2.383e-07
1539.5, 1.3459e-07
1541.5, 2.0997e-07
1543.5, 2.0951e-07
1545.5, 2.2298e-07
1547.5, 2.1146e-07
1549.5, 2.745e-07
1551.5, 2.0484e-07
1553.6, 2.0428e-07
1555.6, 1.9551e-07
1557.6, 2.4152e-07
1559.6, 1.9832e-07
1561.6, 2.389e-07
1563.6, 2.1173e-07
1565.6, 2.3903e-07
1567.6, 2.1011e-07
1569.6, 2.3226e-07
1571.6, 2.2228e-07
1573.6, 1.9007e-07
1575.6, 2.3202e-07
1577.6, 2.1716e-07
1579.6, 2.242e-07
1581.6, 2.2727e-07
1583.6, 2.016e-07
1585.6, 2.145e-07
1587.6, 1.7333e-07
1589.6, 2.1446e-07
1591.6, 2.6434e-07
1593.6, 1.8716e-07
1595.6, 2.1334e-07
1597.6, 2.7081e-07
1599.6, 2.1946e-07
1601.6, 2.2432e-07
1603.6, 1.6906e-07
1605.6, 1.9001e-07
1607.6, 2.1708e-07
1609.6, 2.1194e-07
1611.6, 2.3058e-07
1613.6, 2.2079e-07
1615.6, 2.1549e-07
1617.6, 2.205e-07
1619.6, 2.5037e-07
1621.6, 1.6246e-07
1623.6, 2.8602e-07
1625.6, 2.6413e-07
1627.6, 2.513e-07
1629.6, 2.7569e-07
1631.6, 2.2758e-07
1633.6, 2.0589e-07
1635.6, 1.9859e-07
1637.6, 2.2796e-07
1639.6, 2.4354e-07
1641.6, 2.3164e-07
1643.6, 2.2798e-07
1645.6, 2.4978e-07
1647.6, 2.1468e-07
1649.6, 2.6351e-07
1651.6, 2.785e-07
1653.7, 1.6225e-07
1655.7, 2.1698e-07
1657.7, 2.3565e-07
1659.7, 2.1696e-07
1661.7, 2.0748e-07
1663.7, 2.419e-07
1665.7, 2.8044e-07
1667.7, 2.5038e-07
1669.7, 2.3942e-07
1671.7, 1.8654e-07
1673.7, 2.3756e-07
1675.7, 2.0752e-07
1677.7, 2.6706e-07
1679.7, 2.8981e-07
1681.7, 2.1594e-07
1683.7, 2.1497e-07
1685.7, 2.1021e-07
1687.7, 2.4398e-07
1689.7, 1.9944e-07
1691.7, 2.5811e-07
1693.7, 2.1671e-07
1695.7, 2.1553e-07
1697.7, 2.1997e-07
1699.7, 2.2907e-07
1701.7, 2.1044e-07
1703.7, 1.9208e-07
1705.7, 2.2676e-07
1707.7, 2.1965e-07
1709.7, 2.1735e-07
1711.7, 1.9758e-07
1713.7, 2.2591e-07
1715.7, 2.3029e-07
1717.7, 2.9202e-07
1719.7, 2.3319e-07
1721.7, 2.0348e-07
1723.7, 2.4846e-07
1725.7, 2.2622e-07
1727.7, 2.2633e-07
1729.7, 2.4277e-07
1731.7, 2.1247e-07
1733.7, 2.4728e-07
1735.7, 2.4963e-07
1737.7, 2.2484e-07
1739.7, 2.9191e-07
1741.7, 2.9594e-07
1743.7, 2.2698e-07
1745.7, 2.4976e-07
1747.7, 2.0393e-07
1749.7, 2.5278e-07
1751.7, 2.3884e-07
1753.8, 2.5828e-07
1755.8, 2.0701e-07
1757.8, 2.3208e-07
1759.8, 2.6462e-07
1761.8, 2.1305e-07
1763.8, 2.2841e-07
1765.8, 2.6212e-07
1767.8, 2.2899e-07
1769.8, 2.9318e-07
1771.8, 2.2832e-07
1773.8, 1.8391e-07
1775.8, 3.2091e-07
1777.8, 2.5993e-07
1779.8, 2.2545e-07
1781.8, 2.5594e-07
1783.8, 2.5162e-07
1785.8, 2.5361e-07
1787.8, 2.4232e-07
1789.8, 2.213e-07
1791.8, 2.2736e-07
1793.8, 1.9881e-07
1795.8, 2.8918e-07
1797.8, 2.1468e-07
1799.8, 2.5014e-07
1801.8, 2.044e-07
1803.8, 2.5971e-07
1805.8, 3.1378e-07
1807.8, 2.0343e-07
1809.8, 2.411e-07
1811.8, 2.3411e-07
1813.8, 2.3468e-07
1815.8, 2.4527e-07
1817.8, 2.1569e-07
1819.8, 2.0233e-07
1821.8, 2.6839e-07
1823.8, 2.2909e-07
1825.8, 2.2189e-07
1827.8, 2.5637e-07
1829.8, 2.0979e-07
1831.8, 1.9162e-07
1833.8, 2.5898e-07
1835.8, 2.8042e-07
1837.8, 2.7125e-07
1839.8, 2.5216e-07
1841.8, 2.3326e-07
1843.8, 2.3804e-07
1845.8, 2.357e-07
1847.8, 2.4361e-07
1849.8, 2.5544e-07
1851.8, 2.2137e-07
1853.9, 2.1715e-07
1855.9, 2.7091e-07
1857.9, 2.3609e-07
1859.9, 2.5047e-07
1861.9, 2.2883e-07
1863.9, 2.1849e-07
1865.9, 2.0366e-07
1867.9, 2.0065e-07
1869.9, 2.4368e-07
1871.9, 2.5304e-07
1873.9, 2.5567e-07
1875.9, 3.1861e-07
1877.9, 2.2469e-07
1879.9, 2.554e-07
1881.9, 2.2827e-07
1883.9, 2.1631e-07
1885.9, 2.467e-07
1887.9, 2.2385e-07
1889.9, 2.4826e-07
1891.9, 2.2307e-07
1893.9, 2.4875e-07
1895.9, 2.4825e-07
1897.9, 2.6265e-07
1899.9, 2.6002e-07
1901.9, 2.5602e-07
1903.9, 2.5329e-07
1905.9, 2.3549e-07
1907.9, 1.7984e-07
1909.9, 2.709e-07
1911.9, 2.3599e-07
1913.9, 2.5036e-07
1915.9, 2.815e-07
1917.9, 2.8533e-07
1919.9, 2.2201e-07
1921.9, 2.1465e-07
1923.9, 2.4528e-07
1925.9, 2.3372e-07
1927.9, 2.6413e-07
1929.9, 2.9795e-07
1931.9, 2.3976e-07
1933.9, 2.3419e-07
1935.9, 2.2672e-07
1937.9, 2.616e-07
1939.9, 2.8936e-07
1941.9, 2.487e-07
1943.9, 2.3518e-07
1945.9, 2.1549e-07
1947.9, 2.5619e-07
1949.9, 2.4816e-07
1951.9, 2.5601e-07
1954.0, 2.3277e-07
1956.0, 2.2631e-07
1958.0, 2.6628e-07
1960.0, 2.1765e-07
1962.0, 3.0135e-07
1964.0, 2.8551e-07
1966.0, 2.2574e-07
1968.0, 3.2398e-07
1970.0, 2.7574e-07
1972.0, 2.27e-07
1974.0, 2.13e-07
1976.0, 2.7054e-07
1978.0, 2.3003e-07
1980.0, 2.8353e-07
1982.0, 2.226e-07
1984.0, 2.3941e-07
1986.0, 2.7944e-07
1988.0, 2.8069e-07
1990.0, 2.3675e-07
1992.0, 2.8255e-07
1994.0, 2.3793e-07
1996.0, 2.7962e-07
1998.0, 1.9814e-07
2000.0, 2.652e-07
2002.0, 2.3662e-07
2004.0, 2.6565e-07
2006.0, 2.464e-07
2008.0, 2.6389e-07
2010.0, 2.6739e-07
2012.0, 2.7615e-07
2014.0, 2.5094e-07
2016.0, 1.9452e-07
2018.0, 2.6992e-07
2020.0, 2.6138e-07
2022.0, 2.9916e-07
2024.0, 2.3862e-07
2026.0, 2.6342e-07
2028.0, 2.5684e-07
2030.0, 2.1894e-07
2032.0, 3.0097e-07
2034.0, 2.5199e-07
2036.0, 2.1588e-07
2038.0, 2.5143e-07
2040.0, 2.5359e-07
2042.0, 2.2311e-07
2044.0, 2.1376e-07
2046.0, 1.9481e-07
2048.0, 1.8851e-07
2050.0, 1.9629e-07
2052.0, 2.0915e-07
2054.1, 2.6085e-07
2056.1, 2.1876e-07
2058.1, 2.016e-07
2060.1, 2.3538e-07
2062.1, 2.5787e-07
2064.1, 2.0387e-07
2066.1, 2.3558e-07
2068.1, 2.5254e-07
2070.1, 2.2813e-07
2072.1, 2.692e-07
2074.1, 2.5555e-07
2076.1, 2.56e-07
2078.1, 2.6846e-07
2080.1, 2.3984e-07
2082.1, 2.0416e-07
2084.1, 2.508e-07
2086.1, 2.847e-07
2088.1, 2.1498e-07
2090.1, 2.6011e-07
2092.1, 2.6474e-07
2094.1, 1.8059e-07
2096.1, 2.3852e-07
2098.1, 2.7733e-07
2100.1, 2.5665e-07
2102.1, 2.5756e-07
2104.1, 2.7334e-07
2106.1, 2.5665e-07
2108.1, 2.7105e-07
2110.1, 2.4116e-07
2112.1, 2.3791e-07
2114.1, 2.8827e-07
2116.1, 2.9797e-07
2118.1, 2.2217e-07
2120.1, 2.0719e-07
2122.1, 2.7269e-07
2124.1, 2.2267e-07
2126.1, 2.3992e-07
2128.1, 2.45e-07
2130.1, 2.5196e-07
2132.1, 2.6181e-07
2134.1, 2.834e-07
2136.1, 2.4355e-07
2138.1, 2.2073e-07
2140.1, 2.6947e-07
2142.1, 2.5595e-07
2144.1, 2.6882e-07
2146.1, 2.1906e-07
2148.1, 2.0591e-07
2150.1, 2.6205e-07
2152.1, 2.6127e-07
2154.2, 2.743e-07
2156.2, 2.2137e-07
2158.2, 2.731e-07
2160.2, 2.494e-07
2162.2, 2.7786e-07
2164.2, 2.4715e-07
2166.2, 2.272e-07
2168.2, 2.815e-07
2170.2, 2.0983e-07
2172.2, 2.1133e-07
2174.2, 2.5543e-07
2176.2, 2.5196e-07
2178.2, 2.5909e-07
2180.2, 2.0535e-07
2182.2, 2.0844e-07
2184.2, 2.6419e-07
2186.2, 2.592e-07
2188.2, 2.3325e-07
2190.2, 2.7484e-07
2192.2, 2.607e-07
2194.2, 2.2726e-07
2196.2, 1.6889e-07
2198.2, 2.3964e-07
2200.2, 2.5652e-07
2202.2, 2.4999e-07
2204.2, 2.5757e-07
2206.2, 2.9358e-07
2208.2, 2.3471e-07
2210.2, 2.2142e-07
2212.2, 2.2656e-07
2214.2, 2.6814e-07
2216.2, 2.4387e-07
2218.2, 2.5361e-07
2220.2, 2.5479e-07
2222.2, 2.3664e-07
2224.2, 2.0415e-07
2226.2, 2.6955e-07
2228.2, 2.356e-07
2230.2, 2.9191e-07
2232.2, 2.7775e-07
2234.2, 2.6848e-07
2236.2, 2.521e-07
2238.2, 2.2973e-07
2240.2, 2.4858e-07
2242.2, 2.6505e-07
2244.2, 2.5882e-07
2246.2, 2.2896e-07
2248.2, 2.5305e-07
2250.2, 2.7066e-07
2252.2, 2.5025e-07
2254.3, 2.6339e-07
2256.3, 1.9745e-07
2258.3, 2.5839e-07
2260.3, 2.0754e-07
2262.3, 2.5871e-07
2264.3, 2.6664e-07
2266.3, 2.7933e-07
2268.3, 2.6925e-07
2270.3, 3.0662e-07
2272.3, 2.7192e-07
2274.3, 2.1337e-07
2276.3, 2.2323e-07
2278.3, 2.4484e-07
2280.3, 2.6004e-07
2282.3, 2.6e-07
2284.3, 2.5264e-07
2286.3, 2.7891e-07
2288.3, 2.651e-07
2290.3, 2.5063e-07
2292.3, 2.6169e-07
2294.3, 2.3649e-07
2296.3, 2.701e-07
2298.3, 2.1815e-07
2300.3, 1.9452e-07
2302.3, 3.1803e-07
2304.3, 2.1992e-07
2306.3, 2.1875e-07
2308.3, 2.5902e-07
2310.3, 2.2481e-07
2312.3, 2.4854e-07
2314.3, 2.0873e-07
2316.3, 2.5662e-07
2318.3, 2.4166e-07
2320.3, 2.5042e-07
2322.3, 2.4069e-07
2324.3, 2.5459e-07
2326.3, 2.1689e-07
2328.3, 2.3496e-07
2330.3, 2.5814e-07
2332.3, 2.5008e-07
2334.3, 2.7074e-07
2336.3, 2.148e-07
2338.3, 2.4585e-07
2340.3, 2.8097e-07
2342.3, 2.7787e-07
2344.3, 2.397e-07
2346.3, 2.545e-07
2348.3, 2.9249e-07
2350.3, 2.4159e-07
2352.3, 2.4004e-07
2354.4, 2.6699e-07
2356.4, 2.2835e-07
2358.4, 2.2449e-07
2360.4, 2.5712e-07
2362.4, 2.754e-07
2364.4, 2.4294e-07
2366.4, 2.5925e-07
2368.4, 2.3992e-07
2370.4, 2.567e-07
2372.4, 2.8804e-07
2374.4, 2.6254e-07
2376.4, 2.598e-07
2378.4, 2.489e-07
2380.4, 2.9738e-07
2382.4, 2.2153e-07
2384.4, 2.8106e-07
2386.4, 2.5795e-07
2388.4, 2.3466e-07
2390.4, 1.747e-07
2392.4, 2.249e-07
2394.4, 2.2391e-07
2396.4, 2.7172e-07
2398.4, 2.6816e-07
2400.4, 2.4683e-07
2402.4, 2.373e-07
2404.4, 2.7639e-07
2406.4, 2.4268e-07
2408.4, 2.6444e-07
2410.4, 2.7969e-07
2412.4, 2.5127e-07
2414.4, 2.4912e-07
2416.4, 1.9304e-07
2418.4, 2.8194e-07
2420.4, 2.181e-07
2422.4, 2.7846e-07
2424.4, 2.6303e-07
2426.4, 2.4882e-07
2428.4, 2.6268e-07
2430.4, 2.6818e-07
2432.4, 1.083e-07
2434.4, -2.349e-08
2436.4, -2.119e-08
2438.4, -2.256e-08
2440.4, -1.943e-08
2442.4, -1.996e-08
2444.4, -1.951e-08
2446.4, -2.254e-08
2448.4, -1.943e-08
2450.4, -1.865e-08
2452.4, -2.293e-08
2454.5, -2.348e-08
2456.5, -2.132e-08
2458.5, -1.782e-08
2460.5, -2.104e-08
2462.5, -2.198e-08
2464.5, -2.682e-08
2466.5, -2.412e-08
2468.5, -2.595e-08
2470.5, -2.4e-08
2472.5, -2.611e-08
2474.5, -2.247e-08
2476.5, -2.268e-08
2478.5, -2.362e-08
2480.5, -2.224e-08
2482.5, -2.295e-08
2484.5, -2.032e-08
2486.5, -2.002e-08
2488.5, -2.396e-08
2490.5, -2.596e-08
2492.5, -2.443e-08
2494.5, -2.196e-08
2496.5, -2.473e-08
2498.5, -2.659e-08
2500.5, -2.706e-08
2502.5, -2.631e-08
2504.5, -2.397e-08
2506.5, -2.353e-08
2508.5, -2.403e-08
2510.5, -2.217e-08
2512.5, -1.976e-08
2514.5, -2.37e-08
2516.5, -2.048e-08
2518.5, -2.416e-08
2520.5, -2.191e-08
2522.5, -2.531e-08
2524.5, -2.212e-08
2526.5, -2.631e-08
2528.5, -2.553e-08
2530.5, -2.272e-08
2532.5, -2.503e-08
2534.5, -2.256e-08
2536.5, -2.071e-08
2538.5, -2.402e-08
2540.5, -1.813e-08
2542.5, -2.239e-08
2544.5, -2.152e-08
2546.5, -2.522e-08
2548.5, -2.038e-08
2550.5, -2.211e-08
2552.5, -2.254e-08
2554.6, -2.69e-08
2556.6, -2.513e-08
2558.6, -2.732e-08
2560.6, -2.634e-08
2562.6, -2.215e-08
2564.6, -2.53e-08
2566.6, -2.515e-08
2568.6, -2.362e-08
2570.6, -2.206e-08
2572.6, -2.426e-08
2574.6, -2.159e-08
2576.6, -2.672e-08
2578.6, -2.421e-08
2580.6, -2.568e-08
2582.6, -2.448e-08
2584.6, -2.641e-08
2586.6, -2.561e-08
2588.6, -2.184e-08
2590.6, -2.459e-08
2592.6, -2.42e-08
2594.6, -2.297e-08
2596.6, -2.605e-08
2598.6, -2.001e-08
2600.6, -2.598e-08
2602.6, -2.457e-08
2604.6, -2.177e-08
2606.6, -2.572e-08
2608.6, -2.662e-08
2610.6, -2.386e-08
2612.6, -2.496e-08
2614.6, -2.319e-08
2616.6, -2.372e-08
2618.6, -2.685e-08
2620.6, -2.493e-08
2622.6, -2.436e-08
2624.6, -2.258e-08
2626.6, -2.387e-08
2628.6, -2.443e-08
2630.6, -2.346e-08
2632.6, -2.271e-08
2634.6, -2.648e-08
2636.6, -2.659e-08
2638.6, -2.42e-08
2640.6, -2.363e-08
2642.6, -2.293e-08
2644.6, -2.107e-08
2646.6, -2.05e-08
2648.6, -2.139e-08
2650.6, -2.076e-08
2652.6, -2.017e-08
2654.7, -2.4e-08
2656.7, -2.159e-08
2658.7, -2.202e-08
2660.7, -2.019e-08
2662.7, -2.467e-08
2664.7, -2.32e-08
2666.7, -2.185e-08
2668.7, -1.947e-08
2670.7, -2.53e-08
2672.7, -2.226e-08
2674.7, -2.405e-08
2676.7, -2.544e-08
2678.7, -2.358e-08
2680.7, -2.33e-08
2682.7, -2.394e-08
2684.7, -2.209e-08
2686.7, -2.533e-08
2688.7, -2.427e-08
2690.7, -2.449e-08
2692.7, -2.655e-08
2694.7, -2.544e-08
2696.7, -2.237e-08
2698.7, -2.571e-08
2700.7, -2.541e-08
2702.7, -2.389e-08
2704.7, -2.8e-08
2706.7, -3.074e-08
2708.7, -2.355e-08
2710.7, -2.636e-08
2712.7, -2.298e-08
2714.7, -1.74e-08
2716.7, -2.133e-08
2718.7, -2.318e-08
2720.7, -2.743e-08
2722.7, -2.255e-08
2724.7, -1.669e-08
2726.7, -2.307e-08
2728.7, -2.161e-08
2730.7, -2.023e-08
2732.7, -1.98e-08
2734.7, -1.982e-08
2736.7, -2.311e-08
2738.7, -2.373e-08
2740.7, -1.965e-08
2742.7, -1.809e-08
2744.7, -2.32e-08
2746.7, -2.163e-08
2748.7, -2.26e-08
2750.7, -2.052e-08
2752.7, -1.834e-08
2754.8, -1.94e-08
2756.8, -2.306e-08
2758.8, -2.139e-08
2760.8, -2.537e-08
2762.8, -2.496e-08
2764.8, -1.861e-08
2766.8, -2.091e-08
2768.8, -2.386e-08
2770.8, -2.467e-08
2772.8, -2.182e-08
2774.8, -2.533e-08
2776.8, -2.23e-08
2778.8, -2.758e-08
2780.8, -2.526e-08
2782.8, -2.047e-08
2784.8, -2.417e-08
2786.8, -2.285e-08
2788.8, -2.405e-08
2790.8, -2.525e-08
2792.8, -3.034e-08
2794.8, -2.72e-08
2796.8, -2.884e-08
2798.8, -2.363e-08
2800.8, -2.586e-08
2802.8, -2.302e-08
2804.8, -2.67e-08
2806.8, -2.793e-08
2808.8, -2.618e-08
2810.8, -2.657e-08
2812.8, -2.683e-08
2814.8, -2.752e-08
2816.8, -2.872e-08
2818.8, -2.253e-08
2820.8, -2.614e-08
2822.8, -2.601e-08
2824.8, -2.301e-08
2826.8, -2.292e-08
2828.8, -2.405e-08
2830.8, -2.592e-08
2832.8, -2.5e-08
2834.8, -2.521e-08
2836.8, -2.525e-08
2838.8, -2.263e-08
2840.8, -2.274e-08
2842.8, -1.96e-08
2844.8, -2.252e-08
2846.8, -2.532e-08
2848.8, -2.649e-08
2850.8, -2.345e-08
2852.8, -2.344e-08
2854.9, -2.032e-08
2856.9, -2.704e-08
2858.9, -2.709e-08
2860.9, -2.353e-08
2862.9, -2.418e-08
2864.9, -2.126e-08
2866.9, -2.21e-08
2868.9, -2.73e-08
2870.9, -2.368e-08
2872.9, -2.52e-08
2874.9, -2.514e-08
2876.9, -2.719e-08
2878.9, -2.503e-08
2880.9, -2.241e-08
2882.9, -2.699e-08
2884.9, -2.646e-08
2886.9, -2.686e-08
2888.9, -2.701e-08
2890.9, -2.593e-08
2892.9, -2.911e-08
2894.9, -2.449e-08
2896.9, -2.906e-08
2898.9, -2.893e-08
2900.9, -2.549e-08
2902.9, -2.437e-08
2904.9, -2.619e-08
2906.9, -2.967e-08
2908.9, -2.662e-08
2910.9, -2.648e-08
2912.9, -2.507e-08
2914.9, -2.528e-08
2916.9, -2.184e-08
2918.9, -2.594e-08
2920.9, -2.394e-08
2922.9, -2.567e-08
2924.9, -2.494e-08
2926.9, -3.095e-08
2928.9, -2.678e-08
2930.9, -2.255e-08
2932.9, -2.603e-08
2934.9, -2.944e-08
2936.9, -2.93e-08
2938.9, -3.118e-08
2940.9, -3.006e-08
2942.9, -3.085e-08
2944.9, -3.223e-08
2946.9, -3.286e-08
2948.9, -2.922e-08
2950.9, -2.926e-08
2952.9, -2.828e-08
2955.0, -2.739e-08
2957.0, -2.886e-08
2959.0, -2.67e-08
2961.0, -2.847e-08
2963.0, -2.486e-08
2965.0, -3.1e-08
2967.0, -3.061e-08
2969.0, -2.872e-08
2971.0, -2.713e-08
2973.0, -2.279e-08
2975.0, -2.719e-08
2977.0, -2.521e-08
2979.0, -2.428e-08
2981.0, -2.889e-08
2983.0, -2.95e-08
2985.0, -2.684e-08
2987.0, -2.675e-08
2989.0, -2.514e-08
2991.0, -2.729e-08
2993.0, -2.557e-08
2995.0, -2.37e-08
2997.0, -2.552e-08
2999.0, -2.391e-08
3001.0, -2.484e-08
3003.0, -2.201e-08
3005.0, -2.004e-08
3007.0, -2.341e-08
3009.0, -2.138e-08
3011.0, -2.057e-08
3013.0, -2.111e-08
3015.0, -2.054e-08
3017.0, -2.437e-08
3019.0, -2.407e-08
3021.0, -2.563e-08
3023.0, -2.332e-08
3025.0, -2.182e-08
3027.0, -2.339e-08
3029.0, -2.288e-08
3031.0, -2.071e-08
3033.0, -1.813e-08
3035.0, -1.848e-08
3037.0, -1.862e-08
3039.0, -2.234e-08
3041.0, -2.207e-08
3043.0, -2.044e-08
3045.0, -2.066e-08
3047.0, -2.132e-08
3049.0, -2.096e-08
3051.0, -2.154e-08
3053.0, -1.984e-08
3055.1, -2.39e-08
3057.1, -2.393e-08
3059.1, -2.531e-08
3061.1, -2.98e-08
3063.1, -2.481e-08
3065.1, -2.478e-08
3067.1, -2.368e-08
3069.1, -2.099e-08
3071.1, -2.359e-08
3073.1, -2.253e-08
3075.1, -2.452e-08
3077.1, -2.526e-08
3079.1, -2.395e-08
3081.1, -2.116e-08
3083.1, -1.965e-08
3085.1, -1.96e-08
3087.1, -2.411e-08
3089.1, -2.111e-08
3091.1, -2.096e-08
3093.1, -2.271e-08
3095.1, -2.275e-08
3097.1, -2.241e-08
3099.1, -2.242e-08
3101.1, -2.463e-08
3103.1, -1.973e-08
3105.1, -2.198e-08
3107.1, -2.769e-08
3109.1, -2.334e-08
3111.1, -1.756e-08
3113.1, -2.074e-08
3115.1, -2.297e-08
3117.1, -1.868e-08
3119.1, -2.568e-08
3121.1, -2.15e-08
3123.1, -2.055e-08
3125.1, -2.285e-08
3127.1, -2.468e-08
3129.1, -2.471e-08
3131.1, -2.659e-08
3133.1, -2.394e-08
3135.1, -2.526e-08
3137.1, -3.03e-08
3139.1, -2.711e-08
3141.1, -2.471e-08
3143.1, -2.222e-08
3145.1, -2.429e-08
3147.1, -2.606e-08
3149.1, -2.423e-08
3151.1, -2.424e-08
3153.1, -2.384e-08
3155.2, -2.398e-08
3157.2, -2.062e-08
3159.2, -2.816e-08
3161.2, -2.287e-08
3163.2, -2.059e-08
3165.2, -2.269e-08
3167.2, -2.695e-08
3169.2, -2.497e-08
3171.2, -1.942e-08
3173.2, -2.179e-08
3175.2, -1.863e-08
3177.2, -2.366e-08
3179.2, -2.474e-08
3181.2, -2.198e-08
3183.2, -2.357e-08
3185.2, -2.326e-08
3187.2, -2.299e-08
3189.2, -2.446e-08
3191.2, -2.538e-08
3193.2, -2.589e-08
3195.2, -2.39e-08
3197.2, -2.123e-08
3199.2, -2.107e-08
3201.2, -2.443e-08
3203.2, -2.17e-08
3205.2, -2.345e-08
3207.2, -2.612e-08
3209.2, -2.573e-08
3211.2, -2.23e-08
3213.2, -2.783e-08
3215.2, -2.533e-08
3217.2, -2.575e-08
3219.2, -2.644e-08
3221.2, -2.389e-08
3223.2, -2.427e-08
3225.2, -2.222e-08
3227.2, -2.268e-08
3229.2, -2.294e-08
3231.2, -1.984e-08
3233.2, -2.11e-08
3235.2, -2.085e-08
3237.2, -2.268e-08
3239.2, -2.685e-08
3241.2, -2.183e-08
3243.2, -2.377e-08
3245.2, -2.101e-08
3247.2, -2.143e-08
3249.2, -2.957e-08
3251.2, -2.483e-08
3253.2, -2.607e-08
3255.3, -2.339e-08
3257.3, -2.771e-08
3259.3, -2.397e-08
3261.3, -2.464e-08
3263.3, -2.248e-08
3265.3, -2.265e-08
3267.3, -2.624e-08
3269.3, -2.323e-08
3271.3, -2.088e-08
3273.3, -2.315e-08
3275.3, -2.451e-08
3277.3, -2.45e-08
3279.3, -2.568e-08
3281.3, -2.688e-08
3283.3, -2.639e-08
3285.3, -2.281e-08
3287.3, -2.598e-08
3289.3, -2.263e-08
3291.3, -2.766e-08
3293.3, -2.301e-08
3295.3, -2.334e-08
3297.3, -2.333e-08
3299.3, -2.59e-08
3301.3, -2.34e-08
3303.3, -2.644e-08
3305.3, -2.509e-08
3307.3, -2.204e-08
3309.3, -2.16e-08
3311.3, -2.093e-08
3313.3, -2.304e-08
3315.3, -2.498e-08
3317.3, -2.369e-08
3319.3, -2.392e-08
3321.3, -2.21e-08
3323.3, -2.566e-08
3325.3, -2.639e-08
3327.3, -2.228e-08
3329.3, -2.154e-08
3331.3, -2.092e-08
3333.3, -2.058e-08
3335.3, -2.054e-08
3337.3, -1.872e-08
3339.3, -2.518e-08
3341.3, -2.646e-08
3343.3, -2.775e-08
3345.3, -2.461e-08
3347.3, -2.46e-08
3349.3, -2.363e-08
3351.3, -2.438e-08
3353.3, -1.946e-08
3355.4, -1.927e-08
3357.4, -1.91e-08
3359.4, -2.102e-08
3361.4, -2.026e-08
3363.4, -2.385e-08
3365.4, -2.005e-08
3367.4, -1.968e-08
3369.4, -2.191e-08
3371.4, -2.156e-08
3373.4, -2.158e-08
3375.4, -2.3e-08
3377.4, -1.859e-08
3379.4, -2.083e-08
3381.4, -2.191e-08
3383.4, -2.243e-08
3385.4, -1.944e-08
3387.4, -2.137e-08
3389.4, -2.103e-08
3391.4, -2.137e-08
3393.4, -2.258e-08
3395.4, -2.383e-08
3397.4, -2.121e-08
3399.4, -2.185e-08
3401.4, -1.947e-08
3403.4, -2.086e-08
3405.4, -1.813e-08
3407.4, -1.867e-08
3409.4, -2.131e-08
3411.4, -2.057e-08
3413.4, -2.18e-08
3415.4, -2.281e-08
3417.4, -2.193e-08
3419.4, -2.674e-08
3421.4, -2.157e-08
3423.4, -2.152e-08
3425.4, -2.357e-08
3427.4, -2.286e-08
3429.4, -2.468e-08
3431.4, -2.373e-08
3433.4, -2.306e-08
3435.4, -2.658e-08
3437.4, -2.396e-08
3439.4, -2.03e-08
3441.4, -2.375e-08
3443.4, -2.185e-08
3445.4, -1.991e-08
3447.4, -2.078e-08
3449.4, -2.106e-08
3451.4, -2.159e-08
3453.4, -2.117e-08
3455.5, -1.992e-08
3457.5, -1.626e-08
3459.5, -1.833e-08
3461.5, -1.784e-08
3463.5, -1.846e-08
3465.5, 2.2705e-07
3467.5, 1.8907e-07
3469.5, 1.6006e-07
3471.5, 1.9466e-07
3473.5, 1.9612e-07
3475.5, 2.0078e-07
3477.5, 1.8734e-07
3479.5, 2.3538e-07
3481.5, 2.3884e-07
3483.5, 1.8533e-07
3485.5, 1.7941e-07
3487.5, 1.7823e-07
3489.5, 2.6865e-07
3491.5, 2.2438e-07
3493.5, 1.9884e-07
3495.5, 1.8605e-07
3497.5, 1.6977e-07
3499.5, 2.107e-07
3501.5, 1.8935e-07
3503.5, 3.0117e-07
3505.5, 2.0986e-07
3507.5, 2.1011e-07
3509.5, 1.5976e-07
3511.5, 2.124e-07
3513.5, 1.9561e-07
3515.5, 1.9415e-07
3517.5, 2.0281e-07
3519.5, 2.0091e-07
3521.5, 1.6677e-07
3523.5, 1.9339e-07
3525.5, 2.1902e-07
3527.5, 2.1739e-07
3529.5, 2.5626e-07
3531.5, 2.061e-07
3533.5, 1.9835e-07
3535.5, 1.9663e-07
3537.5, 2.3127e-07
3539.5, 1.8477e-07
3541.5, 2.0456e-07
3543.5, 2.6081e-07
3545.5, 2.6707e-07
3547.5, 2.0199e-07
3549.5, 2.0642e-07
3551.5, 2.3621e-07
3553.5, 1.7865e-07
3555.6, 1.8388e-07
3557.6, 2.4851e-07
3559.6, 1.8743e-07
3561.6, 1.7735e-07
3563.6, 2.151e-07
3565.6, 2.3692e-07
3567.6, 2.2038e-07
3569.6, 2.4881e-07
3571.6, 2.3265e-07
3573.6, 2.4097e-07
3575.6, 2.3738e-07
3577.6, 1.3194e-07
3579.6, 2.1175e-07
3581.6, 2.3908e-07
3583.6, 1.9986e-07
3585.6, 2.0551e-07
3587.6, 1.8809e-07
3589.6, 2.2691e-07
3591.6, 2.7028e-07
3593.6, 2.3696e-07
3595.6, 2.1069e-07
3597.6, 2.2192e-07
3599.6, 2.082e-07
3601.6, 1.9198e-07
3603.6, 2.4897e-07
3605.6, 2.4362e-07
3607.6, 2.2703e-07
3609.6, 1.7636e-07
3611.6, 1.8514e-07
3613.6, 2.1108e-07
3615.6, 2.5843e-07
3617.6, 2.5537e-07
3619.6, 2.5867e-07
3621.6, 2.1437e-07
3623.6, 2.1938e-07
3625.6, 2.409e-07
3627.6, 2.4445e-07
3629.6, 2.1385e-07
3631.6, 2.4302e-07
3633.6, 2.1105e-07
3635.6, 2.3308e-07
3637.6, 2.2435e-07
3639.6, 1.7853e-07
3641.6, 2.1243e-07
3643.6, 2.2634e-07
3645.6, 2.6571e-07
3647.6, 2.4764e-07
3649.6, 2.6963e-07
3651.6, 2.6096e-07
3653.6, 2.0262e-07
3655.7, 2.1576e-07
3657.7, 2.648e-07
3659.7, 2.0434e-07
3661.7, 2.625e-07
3663.7, 2.1715e-07
3665.7, 1.8352e-07
3667.7, 2.2727e-07
3669.7, 2.1037e-07
3671.7, 1.991e-07
3673.7, 2.311e-07
3675.7, 2.657e-07
3677.7, 2.575e-07
3679.7, 2.0978e-07
3681.7, 2.494e-07
3683.7, 2.2313e-07
3685.7, 2.2725e-07
3687.7, 2.4645e-07
3689.7, 2.4022e-07
3691.7, 2.83e-07
3693.7, 2.2093e-07
3695.7, 2.6062e-07
3697.7, 2.0971e-07
3699.7, 2.1855e-07
3701.7, 1.9168e-07
3703.7, 2.4295e-07
3705.7, 1.9525e-07
3707.7, 1.9285e-07
3709.7, 2.2044e-07
3711.7, 2.5519e-07
3713.7, 2.5548e-07
3715.7, 1.9269e-07
3717.7, 2.2353e-07
3719.7, 2.4125e-07
3721.7, 2.578e-07
3723.7, 1.9088e-07
3725.7, 2.6772e-07
3727.7, 2.3193e-07
3729.7, 2.23e-07
3731.7, 2.1554e-07
3733.7, 1.8649e-07
3735.7, 2.3822e-07
3737.7, 2.0579e-07
3739.7, 2.3862e-07
3741.7, 2.5093e-07
3743.7, 2.9455e-07
3745.7, 2.2814e-07
3747.7, 2.6087e-07
3749.7, 2.3576e-07
3751.7, 2.0751e-07
3753.7, 2.1413e-07
3755.8, 2.3228e-07
3757.8, 2.7427e-07
3759.8, 2.1723e-07
3761.8, 2.0954e-07
3763.8, 2.3929e-07
3765.8, 2.4779e-07
3767.8, 2.0807e-07
3769.8, 1.7353e-07
3771.8, 2.1076e-07
3773.8, 2.366e-07
3775.8, 2.0665e-07
3777.8, 2.4927e-07
3779.8, 2.2632e-07
3781.8, 2.1722e-07
3783.8, 2.0477e-07
3785.8, 1.8967e-07
3787.8, 2.501e-07
3789.8, 1.906e-07
3791.8, 2.2651e-07
3793.8, 2.2811e-07
3795.8, 2.3194e-07
3797.8, 2.4286e-07
3799.8, 2.1498e-07
3801.8, 2.5202e-07
3803.8, 3.0925e-07
3805.8, 1.8807e-07
3807.8, 2.5847e-07
3809.8, 1.9783e-07
3811.8, 2.0541e-07
3813.8, 2.4036e-07
3815.8, 2.9391e-07
3817.8, 2.2781e-07
3819.8, 1.671e-07
3821.8, 2.1378e-07
3823.8, 2.2532e-07
3825.8, 2.1718e-07
3827.8, 2.3872e-07
3829.8, 2.6664e-07
3831.8, 2.8964e-07
3833.8, 2.3348e-07
3835.8, 2.4389e-07
3837.8, 2.7281e-07
3839.8, 2.3521e-07
3841.8, 2.0463e-07
3843.8, 2.6038e-07
3845.8, 1.8627e-07
3847.8, 2.3506e-07
3849.8, 1.9435e-07
3851.8, 2.6186e-07
3853.8, 2.0455e-07
3855.9, 2.0608e-07
3857.9, 2.4722e-07
3859.9, 2.1685e-07
3861.9, 2.144e-07
3863.9, 2.1435e-07
3865.9, 2.7796e-07
3867.9, 2.2765e-07
3869.9, 2.8594e-07
3871.9, 1.7218e-07
3873.9, 2.6881e-07
3875.9, 2.0782e-07
3877.9, 2.0606e-07
3879.9, 2.2765e-07
3881.9, 2.7584e-07
3883.9, 2.5897e-07
3885.9, 2.2972e-07
3887.9, 2.5958e-07
3889.9, 1.9079e-07
3891.9, 2.3448e-07
3893.9, 1.9858e-07
3895.9, 1.7613e-07
3897.9, 2.4102e-07
3899.9, 2.7968e-07
3901.9, 1.8063e-07
3903.9, 2.3981e-07
3905.9, 2.1687e-07
3907.9, 2.5694e-07
3909.9, 2.2693e-07
3911.9, 1.8959e-07
3913.9, 2.2776e-07
3915.9, 2.6673e-07
3917.9, 2.128e-07
3919.9, 2.6549e-07
3921.9, 2.529e-07
3923.9, 2.6533e-07
3925.9, 2.6154e-07
3927.9, 1.8204e-07
3929.9, 2.2237e-07
3931.9, 2.3173e-07
3933.9, 2.2752e-07
3935.9, 2.8067e-07
3937.9, 2.2614e-07
3939.9, 2.2858e-07
3941.9, 2.1508e-07
3943.9, 2.2177e-07
3945.9, 2.5123e-07
3947.9, 2.0941e-07
3949.9, 2.2316e-07
3951.9, 2.4525e-07
3953.9, 2.3784e-07
3956.0, 2.2341e-07
3958.0, 2.1572e-07
3960.0, 2.1276e-07
3962.0, 2.3631e-07
3964.0, 2.6006e-07
3966.0, 2.4335e-07
3968.0, 2.6809e-07
3970.0, 2.2186e-07
3972.0, 2.6622e-07
3974.0, 2.1112e-07
3976.0, 2.3754e-07
3978.0, 2.4732e-07
3980.0, 2.4873e-07
3982.0, 2.4465e-07
3984.0, 2.8127e-07
3986.0, 2.2277e-07
3988.0, 2.8395e-07
3990.0, 2.4335e-07
3992.0, 2.647e-07
3994.0, 2.1941e-07
3996.0, 2.5823e-07
3998.0, 2.1676e-07
4000.0, 2.3438e-07
4002.0, 2.2857e-07
4004.0, 2.0995e-07
4006.0, 2.081e-07
4008.0, 2.35e-07
4010.0, 1.6381e-07
4012.0, 2.1486e-07
4014.0, 2.0195e-07
4016.0, 2.7397e-07
4018.0, 2.2707e-07
4020.0, 1.9972e-07
4022.0, 2.3613e-07
4024.0, 2.0134e-07
4026.0, 2.4751e-07
4028.0, 2.4179e-07
4030.0, 2.5877e-07
4032.0, 2.107e-07
4034.0, 2.3626e-07
4036.0, 2.5525e-07
4038.0, 2.8586e-07
4040.0, 2.8069e-07
4042.0, 2.1501e-07
4044.0, 2.3625e-07
4046.0, 2.3679e-07
4048.0, 2.0876e-07
4050.0, 2.1225e-07
4052.0, 2.5073e-07
4054.0, 2.4337e-07
4056.1, 2.1237e-07
4058.1, 2.0709e-07
4060.1, 2.8135e-07
4062.1, 2.2411e-07
4064.1, 2.0131e-07
4066.1, 2.2992e-07
4068.1, 2.2e-07
4070.1, 2.5665e-07
4072.1, 2.4485e-07
4074.1, 2.291e-07
4076.1, 1.9785e-07
4078.1, 2.1137e-07
4080.1, 2.7017e-07
4082.1, 2.4475e-07
4084.1, 1.8757e-07
4086.1, 2.363e-07
4088.1, 2.3831e-07
4090.1, 1.9612e-07
4092.1, 2.2181e-07
4094.1, 2.8885e-07
4096.1, 2.5487e-07
4098.1, 2.628e-07
4100.1, 1.9947e-07
4102.1, 2.3574e-07
4104.1, 2.3667e-07
4106.1, 2.714e-07
4108.1, 2.1461e-07
4110.1, 2.6693e-07
4112.1, 2.3915e-07
4114.1, 2.1097e-07
4116.1, 2.6855e-07
4118.1, 1.9576e-07
4120.1, 2.2559e-07
4122.1, 2.6317e-07
4124.1, 2.3329e-07
4126.1, 2.6362e-07
4128.1, 2.3597e-07
4130.1, 2.1363e-07
4132.1, 2.372e-07
4134.1, 2.8098e-07
4136.1, 2.6735e-07
4138.1, 2.3329e-07
4140.1, 1.9573e-07
4142.1, 2.3089e-07
4144.1, 2.8498e-07
4146.1, 2.3489e-07
4148.1, 2.8435e-07
4150.1, 2.1484e-07
4152.1, 2.1526e-07
4154.1, 2.2906e-07
4156.2, 1.7348e-07
4158.2, 2.5424e-07
4160.2, 2.0876e-07
4162.2, 1.8305e-07
4164.2, 2.5181e-07
4166.2, 2.017e-07
4168.2, 2.4102e-07
4170.2, 3.1354e-07
4172.2, 2.0303e-07
4174.2, 2.3503e-07
4176.2, 2.267e-07
4178.2, 2.092e-07
4180.2, 2.4836e-07
4182.2, 2.4727e-07
4184.2, 2.3882e-07
4186.2, 2.3e-07
4188.2, 2.2755e-07
4190.2, 2.0634e-07
4192.2, 2.3152e-07
4194.2, 2.4486e-07
4196.2, 2.1878e-07
4198.2, 2.1689e-07
4200.2, 2.2838e-07
4202.2, 2.4598e-07
4204.2, 2.4022e-07
4206.2, 1.8394e-07
4208.2, 2.4317e-07
4210.2, 2.334e-07
4212.2, 2.8002e-07
4214.2, 2.6078e-07
4216.2, 2.5958e-07
4218.2, 2.5737e-07
4220.2, 2.4235e-07
4222.2, 2.0451e-07
4224.2, 2.4002e-07
4226.2, 2.1468e-07
4228.2, 2.3959e-07
4230.2, 2.3601e-07
4232.2, 2.4808e-07
4234.2, 2.2644e-07
4236.2, 2.1566e-07
4238.2, 2.2698e-07
4240.2, 2.374e-07
4242.2, 2.5925e-07
4244.2, 2.1162e-07
4246.2, 2.4025e-07
4248.2, 2.6773e-07
4250.2, 2.6273e-07
4252.2, 2.3629e-07
4254.2, 2.4512e-07
4256.3, 2.7798e-07
4258.3, 2.4166e-07
4260.3, 2.2983e-07
4262.3, 2.3748e-07
4264.3, 2.4525e-07
4266.3, 2.4685e-07
4268.3, 2.5091e-07
4270.3, 2.2915e-07
4272.3, 2.6412e-07
4274.3, 2.5349e-07
4276.3, 2.2792e-07
4278.3, 2.8012e-07
4280.3, 2.7692e-07
4282.3, 2.7365e-07
4284.3, 2.0635e-07
4286.3, 1.9383e-07
4288.3, 2.1431e-07
4290.3, 2.2233e-07
4292.3, 2.4015e-07
4294.3, 2.2149e-07
4296.3, 2.2894e-07
4298.3, 2.677e-07
4300.3, 1.9563e-07
4302.3, 2.4217e-07
4304.3, 2.281e-07
4306.3, 2.1697e-07
4308.3, 2.2997e-07
4310.3, 2.6689e-07
4312.3, 2.32e-07
4314.3, 2.56e-07
4316.3, 1.9988e-07
4318.3, 2.0976e-07
4320.3, 2.6063e-07
4322.3, 2.2715e-07
4324.3, 2.8569e-07
4326.3, 2.5507e-07
4328.3, 2.8015e-07
4330.3, 2.6938e-07
4332.3, 2.0483e-07
4334.3, 2.6557e-07
4336.3, 2.6529e-07
4338.3, 2.369e-07
4340.3, 2.7424e-07
4342.3, 2.3916e-07
4344.3, 2.4724e-07
4346.3, 2.3459e-07
4348.3, 2.4941e-07
4350.3, 2.3924e-07
4352.3, 2.2957e-07
4354.3, 1.9476e-07
4356.4, 1.9881e-07
4358.4, 2.2958e-07
4360.4, 2.533e-07
4362.4, 1.7587e-07
4364.4, 2.9357e-07
4366.4, 2.6556e-07
4368.4, 2.2596e-07
4370.4, 2.2206e-07
4372.4, 2.5505e-07
4374.4, 2.1062e-07
4376.4, 2.2946e-07
4378.4, 2.4751e-07
4380.4, 1.9514e-07
4382.4, 2.4699e-07
4384.4, 2.6973e-07
4386.4, 2.6121e-07
4388.4, 2.4075e-07
4390.4, 2.4408e-07
4392.4, 2.5958e-07
4394.4, 2.6134e-07
4396.4, 2.617e-07
4398.4, 2.6539e-07
4400.4, 2.3719e-07
4402.4, 2.6583e-07
4404.4, 2.4196e-07
4406.4, 2.7714e-07
4408.4, 2.1063e-07
4410.4, 2.3603e-07
4412.4, 2.5054e-07
4414.4, 2.2909e-07
4416.4, 2.5487e-07
4418.4, 2.2767e-07
4420.4, 2.0811e-07
4422.4, 2.0521e-07
4424.4, 2.375e-07
4426.4, 2.3162e-07
4428.4, 1.999e-07
4430.4, 2.6793e-07
4432.4, 2.3889e-07
4434.4, 2.6678e-07
4436.4, 2.4773e-07
4438.4, 2.2064e-07
4440.4, 2.8266e-07
4442.4, 2.0268e-07
4444.4, 2.1101e-07
4446.4, 2.0182e-07
4448.4, 2.3911e-07
4450.4, 2.8973e-07
4452.4, 2.1601e-07
4454.4, 2.5011e-07
4456.5, 2.4117e-07
4458.5, 2.2237e-07
4460.5, 2.1356e-07
4462.5, 2.5066e-07
4464.5, 2.4288e-07
4466.5, -1.887e-08
4468.5, -2.434e-08
4470.5, -2.247e-08
4472.5, -2.926e-08
4474.5, -2.286e-08
4476.5, -2.39e-08
4478.5, -2.501e-08
4480.5, -2.456e-08
4482.5, -2.5e-08
4484.5, -2.403e-08
4486.5, -2.357e-08
4488.5, -2.167e-08
4490.5, -2.037e-08
4492.5, -2.399e-08
4494.5, -2.513e-08
4496.5, -2.134e-08
4498.5, -2.274e-08
4500.5, -2.645e-08
4502.5, -2.185e-08
4504.5, -2.518e-08
4506.5, -2.514e-08
4508.5, -2.422e-08
4510.5, -2.522e-08
4512.5, -2.691e-08
4514.5, -2.801e-08
4516.5, -2.672e-08
4518.5, -2.698e-08
4520.5, -2.769e-08
4522.5, -2.396e-08
4524.5, -2.92e-08
4526.5, -3.005e-08
4528.5, -2.319e-08
4530.5, -2.516e-08
4532.5, -2.554e-08
4534.5, -2.211e-08
4536.5, -2.219e-08
4538.5, -1.96e-08
4540.5, -1.99e-08
4542.5, -2.153e-08
4544.5, -2.124e-08
4546.5, -2.304e-08
4548.5, -2.208e-08
4550.5, -2.228e-08
4552.5, -2.445e-08
4554.5, -2.168e-08
4556.6, -2.685e-08
4558.6, -2.385e-08
4560.6, -2.368e-08
4562.6, -2.84e-08
4564.6, -2.462e-08
4566.6, -2.453e-08
4568.6, -2.534e-08
4570.6, -2.623e-08
4572.6, -2.455e-08
4574.6, -2.509e-08
4576.6, -2.787e-08
4578.6, -2.447e-08
4580.6, -2.378e-08
4582.6, -2.724e-08
4584.6, -2.534e-08
4586.6, -2.801e-08
4588.6, -2.797e-08
4590.6, -2.457e-08
4592.6, -2.7e-08
4594.6, -2.774e-08
4596.6, -2.851e-08
4598.6, -2.671e-08
4600.6, -2.497e-08
4602.6, -2.529e-08
4604.6, -2.329e-08
4606.6, -2.148e-08
4608.6, -2.916e-08
4610.6, -2.739e-08
4612.6, -2.659e-08
4614.6, -2.391e-08
4616.6, -2.385e-08
4618.6, -2.099e-08
4620.6, -2.658e-08
4622.6, -2.553e-08
4624.6, -2.737e-08
4626.6, -2.688e-08
4628.6, -2.568e-08
4630.6, -2.473e-08
4632.6, -2.584e-08
4634.6, -2.78e-08
4636.6, -2.675e-08
4638.6, -2.108e-08
4640.6, -2.381e-08
4642.6, -2.319e-08
4644.6, -2.428e-08
4646.6, -2.275e-08
4648.6, -2.332e-08
4650.6, -2.596e-08
4652.6, -2.457e-08
4654.6, -2.28e-08
4656.7, -2.489e-08
4658.7, -2.746e-08
4660.7, -2.37e-08
4662.7, -2.43e-08
4664.7, -2.374e-08
4666.7, -2.191e-08
4668.7, -2.28e-08
4670.7, -2.432e-08
4672.7, -2.284e-08
4674.7, -2.299e-08
4676.7, -2.047e-08
4678.7, -2.102e-08
4680.7, -2.444e-08
4682.7, -2.173e-08
4684.7, -2.543e-08
4686.7, -2.101e-08
4688.7, -2.293e-08
4690.7, -2.52e-08
4692.7, -2.054e-08
4694.7, -2.497e-08
4696.7, -2.298e-08
4698.7, -2.227e-08
4700.7, -2.076e-08
4702.7, -2.041e-08
4704.7, -2e-08
4706.7, -1.757e-08
4708.7, -2.379e-08
4710.7, -2.138e-08
4712.7, -2.01e-08
4714.7, -1.765e-08
4716.7, -2.009e-08
4718.7, -1.851e-08
4720.7, -2.232e-08
4722.7, -2.286e-08
4724.7, -2.022e-08
4726.7, -2.048e-08
4728.7, -1.952e-08
4730.7, -1.864e-08
4732.7, -2.301e-08
4734.7, -1.893e-08
4736.7, -2.365e-08
4738.7, -2.094e-08
4740.7, -1.743e-08
4742.7, -1.833e-08
4744.7, -2.046e-08
4746.7, -2.214e-08
4748.7, -1.987e-08
4750.7, -2.137e-08
4752.7, -1.963e-08
4754.7, -2.075e-08
4756.8, -2.249e-08
4758.8, -2.005e-08
4760.8, -1.811e-08
4762.8, -2.256e-08
4764.8, -2.43e-08
4766.8, -2.447e-08
4768.8, -2.653e-08
4770.8, -2.224e-08
4772.8, -2.634e-08
4774.8, -2.419e-08
4776.8, -2.679e-08
4778.8, -2.248e-08
4780.8, -2.35e-08
4782.8, -2.396e-08
4784.8, -2.259e-08
4786.8, -2.355e-08
4788.8, -2.394e-08
4790.8, -2.117e-08
4792.8, -2.361e-08
4794.8, -2.096e-08
4796.8, -2.034e-08
4798.8, -2.098e-08
4800.8, -2.487e-08
4802.8, -2.507e-08
4804.8, -2.629e-08
4806.8, -2.079e-08
4808.8, -2.101e-08
4810.8, -2.025e-08
4812.8, -2.307e-08
4814.8, -2.226e-08
4816.8, -2.237e-08
4818.8, -1.986e-08
4820.8, -2.088e-08
4822.8, -2.242e-08
4824.8, -2.331e-08
4826.8, -2.44e-08
4828.8, -2.159e-08
4830.8, -2.3e-08
4832.8, -2.744e-08
4834.8, -2.731e-08
4836.8, -2.6e-08
4838.8, -2.313e-08
4840.8, -2.876e-08
4842.8, -2.427e-08
4844.8, -2.513e-08
4846.8, -2.42e-08
4848.8, -2.348e-08
4850.8, -2.485e-08
4852.8, -2.548e-08
4854.8, -2.341e-08
4856.9, -2.571e-08
4858.9, -2.615e-08
4860.9, -2.764e-08
4862.9, -2.273e-08
4864.9, -2.414e-08
4866.9, -2.314e-08
4868.9, -2.253e-08
4870.9, -2.343e-08
4872.9, -2.354e-08
4874.9, -2.43e-08
4876.9, -2.381e-08
4878.9, -1.96e-08
4880.9, -2.028e-08
4882.9, -2.374e-08
4884.9, -2.285e-08
4886.9, -1.812e-08
4888.9, -2.13e-08
4890.9, -2.21e-08
4892.9, -2e-08
4894.9, -2.025e-08
4896.9, -2.191e-08
4898.9, -2.103e-08
4900.9, -2.397e-08
4902.9, -2.247e-08
4904.9, -2.052e-08
4906.9, -2.464e-08
4908.9, -2.517e-08
4910.9, -2.662e-08
4912.9, -3.091e-08
4914.9, -2.471e-08
4916.9, -2.184e-08
4918.9, -2.554e-08
4920.9, -2.662e-08
4922.9, -2.586e-08
4924.9, -2.374e-08
4926.9, -2.495e-08
4928.9, -2.428e-08
4930.9, -2.401e-08
4932.9, -2.552e-08
4934.9, -2.106e-08
4936.9, -2.355e-08
4938.9, -2.673e-08
4940.9, -2.513e-08
4942.9, -2.84e-08
4944.9, -3.023e-08
4946.9, -2.527e-08
4948.9, -2.366e-08
4950.9, -2.753e-08
4952.9, -2.923e-08
4954.9, -2.603e-08
4957.0, -2.256e-08
4959.0, -2.493e-08
4961.0, -2.46e-08
4963.0, -2.406e-08
4965.0, -2.067e-08
4967.0, -1.94e-08
4969.0, -2.204e-08
4971.0, -2.317e-08
4973.0, -2.191e-08
4975.0, -2.488e-08
4977.0, -2.647e-08
4979.0, -2.858e-08
4981.0, -2.738e-08
4983.0, -3.01e-08
4985.0, -2.724e-08
4987.0, -2.372e-08
4989.0, -2.54e-08
4991.0, -2.975e-08
4993.0, -2.699e-08
4995.0, -2.616e-08
4997.0, -2.483e-08
4999.0, -2.775e-08
5001.0, -2.532e-08
5003.0, -2.345e-08
5005.0, -2.505e-08
5007.0, -2.26e-08
5009.0, -2.541e-08
5011.0, -2.516e-08
5013.0, -2.835e-08
5015.0, -2.664e-08
5017.0, -2.612e-08
5019.0, -2.579e-08
5021.0, -2.415e-08
5023.0, -2.745e-08
5025.0, -2.87e-08
5027.0, -2.436e-08
5029.0, -2.878e-08
5031.0, -2.403e-08
5033.0, -2.628e-08
5035.0, -2.783e-08
5037.0, -2.583e-08
5039.0, -2.803e-08
5041.0, -2.873e-08
5043.0, -2.759e-08
5045.0, -2.78e-08
5047.0, -2.766e-08
5049.0, -2.653e-08
5051.0, -2.996e-08
5053.0, -2.9e-08
5055.0, -3.071e-08
5057.1, -2.352e-08
5059.1, -2.401e-08
5061.1, -2.422e-08
5063.1, -2.683e-08
5065.1, -2.476e-08
5067.1, -2.665e-08
5069.1, -2.658e-08
5071.1, -2.557e-08
5073.1, -2.567e-08
5075.1, -2.569e-08
5077.1, -2.543e-08
5079.1, -2.497e-08
5081.1, -2.354e-08
5083.1, -2.793e-08
5085.1, -2.674e-08
5087.1, -2.635e-08
5089.1, -2.678e-08
5091.1, -2.859e-08
5093.1, -2.588e-08
5095.1, -2.522e-08
5097.1, -2.688e-08
5099.1, -2.553e-08
5101.1, -2.656e-08
5103.1, -2.626e-08
5105.1, -2.51e-08
5107.1, -2.503e-08
5109.1, -2.679e-08
5111.1, -2.507e-08
5113.1, -2.418e-08
5115.1, -2.576e-08
5117.1, -2.719e-08
5119.1, -2.735e-08
5121.1, -2.616e-08
5123.1, -2.676e-08
5125.1, -2.722e-08
5127.1, -2.583e-08
5129.1, -3.072e-08
5131.1, -2.822e-08
5133.1, -2.723e-08
5135.1, -2.657e-08
5137.1, -2.965e-08
5139.1, -2.832e-08
5141.1, -3.191e-08
5143.1, -2.851e-08
5145.1, -3.34e-08
5147.1, -2.977e-08
5149.1, -2.907e-08
5151.1, -2.785e-08
5153.1, -2.735e-08
5155.1, -2.628e-08
5157.2, -2.347e-08
5159.2, -2.421e-08
5161.2, -2.603e-08
5163.2, -2.404e-08
5165.2, -2.842e-08
5167.2, -2.729e-08
5169.2, -2.752e-08
5171.2, -2.714e-08
5173.2, -2.562e-08
5175.2, -2.956e-08
5177.2, -2.66e-08
5179.2, -2.959e-08
5181.2, -2.932e-08
5183.2, -2.79e-08
5185.2, -2.524e-08
5187.2, -2.591e-08
5189.2, -2.635e-08
5191.2, -2.522e-08
5193.2, -2.486e-08
5195.2, -2.457e-08
5197.2, -2.359e-08
5199.2, -2.576e-08
5201.2, -2.784e-08
5203.2, -2.592e-08
5205.2, -2.848e-08
5207.2, -3.05e-08
5209.2, -2.363e-08
5211.2, -2.344e-08
5213.2, -2.701e-08
5215.2, -2.645e-08
5217.2, -2.458e-08
5219.2, -2.327e-08
5221.2, -1.928e-08
5223.2, -2.442e-08
5225.2, -2.466e-08
5227.2, -2.78e-08
5229.2, -2.647e-08
5231.2, -2.728e-08
5233.2, -2.382e-08
5235.2, -2.337e-08
5237.2, -2.28e-08
5239.2, -2.424e-08
5241.2, -2.635e-08
5243.2, -2.655e-08
5245.2, -2.688e-08
5247.2, -2.909e-08
5249.2, -2.691e-08
5251.2, -2.428e-08
5253.2, -2.739e-08
5255.2, -2.637e-08
5257.3, -2.658e-08
5259.3, -2.618e-08
5261.3, -2.72e-08
5263.3, -2.671e-08
5265.3, -2.368e-08
5267.3, -2.497e-08
5269.3, -2.65e-08
5271.3, -2.652e-08
5273.3, -2.345e-08
5275.3, -2.777e-08
5277.3, -2.77e-08
5279.3, -2.878e-08
5281.3, -2.656e-08
5283.3, -2.86e-08
5285.3, -2.93e-08
5287.3, -2.673e-08
5289.3, -2.973e-08
5291.3, -2.992e-08
5293.3, -3.069e-08
5295.3, -3.068e-08
5297.3, -2.838e-08
5299.3, -2.939e-08
5301.3, -2.495e-08
5303.3, -2.689e-08
5305.3, -2.95e-08
5307.3, -2.797e-08
5309.3, -2.659e-08
5311.3, -2.354e-08
5313.3, -2.48e-08
5315.3, -2.356e-08
5317.3, -3.013e-08
5319.3, -2.898e-08
5321.3, -2.779e-08
5323.3, -2.93e-08
5325.3, -2.853e-08
5327.3, -2.879e-08
5329.3, -2.645e-08
5331.3, -2.794e-08
5333.3, -2.974e-08
5335.3, -2.748e-08
5337.3, -2.836e-08
5339.3, -2.863e-08
5341.3, -2.608e-08
5343.3, -3.151e-08
5345.3, -2.664e-08
5347.3, -2.523e-08
5349.3, -2.847e-08
5351.3, -2.804e-08
5353.3, -2.878e-08
5355.3, -3.142e-08
5357.4, -2.694e-08
5359.4, -2.752e-08
5361.4, -2.897e-08
5363.4, -2.872e-08
5365.4, -3.029e-08
5367.4, -2.993e-08
5369.4, -2.923e-08
5371.4, -3.079e-08
5373.4, -3.425e-08
5375.4, -3.063e-08
5377.4, -3.1e-08
5379.4, -2.904e-08
5381.4, -3.02e-08
5383.4, -2.874e-08
5385.4, -2.803e-08
5387.4, -2.984e-08
5389.4, -3.144e-08
5391.4, -2.852e-08
5393.4, -3.118e-08
5395.4, -2.862e-08
5397.4, -3.001e-08
5399.4, -2.971e-08
5401.4, -2.935e-08
5403.4, -2.968e-08
5405.4, -2.783e-08
5407.4, -2.998e-08
5409.4, -2.926e-08
5411.4, -3.187e-08
5413.4, -3.186e-08
5415.4, -3.05e-08
5417.4, -3.106e-08
5419.4, -2.846e-08
5421.4, -3.252e-08
5423.4, -3.151e-08
5425.4, -2.911e-08
5427.4, -3.134e-08
5429.4, -3.112e-08
5431.4, -3.206e-08
5433.4, -3.324e-08
5435.4, -3.299e-08
5437.4, -3.139e-08
5439.4, -2.992e-08
5441.4, -3.382e-08
5443.4, -3.382e-08
5445.4, -3.436e-08
5447.4, -3.096e-08
5449.4, -3.42e-08
5451.4, -2.901e-08
5453.4, -3.061e-08
5455.4, -3.238e-08
5457.5, -3.566e-08
5459.5, -2.962e-08
5461.5, -2.973e-08
5463.5, -3.037e-08
5465.5, -2.865e-08
5467.5, -2.65e-08
5469.5, -2.823e-08
5471.5, -3.293e-08
5473.5, -2.986e-08
5475.5, -3.085e-08
5477.5, -2.846e-08
5479.5, -2.885e-08
5481.5, -3.004e-08
5483.5, -3.009e-08
5485.5, -3.074e-08
5487.5, -2.886e-08
5489.5, -2.519e-08
5491.5, -2.97e-08
5493.5, -2.99e-08
5495.5, -2.926e-08
5497.5, 2.0554e-07
5499.5, 1.9472e-07
5501.5, 1.9223e-07
5503.5, 1.7455e-07
5505.5, 1.8246e-07
5507.5, 1.6495e-07
5509.5, 1.5325e-07
5511.5, 2.0596e-07
5513.5, 2.0731e-07
5515.5, 1.8493e-07
5517.5, 2.0555e-07
5519.5, 1.754e-07
5521.5, 2.4375e-07
5523.5, 2.1935e-07
5525.5, 2.1638e-07
5527.5, 1.4919e-07
5529.5, 2.4048e-07
5531.5, 1.7327e-07
5533.5, 1.8571e-07
5535.5, 2.3732e-07
5537.5, 1.7897e-07
5539.5, 2.0628e-07
5541.5, 1.7045e-07
5543.5, 1.7219e-07
5545.5, 2.1224e-07
5547.5, 2.3729e-07
5549.5, 2.0898e-07
5551.5, 2.0941e-07
5553.5, 1.6806e-07
5555.5, 2.0408e-07
5557.6, 1.9808e-07
5559.6, 2.0095e-07
5561.6, 1.82e-07
5563.6, 1.9902e-07
5565.6, 2.2214e-07
5567.6, 1.6871e-07
5569.6, 1.8443e-07
5571.6, 2.1361e-07
5573.6, 2.0406e-07
5575.6, 2.2461e-07
5577.6, 2.1727e-07
5579.6, 2.3889e-07
5581.6, 2.0971e-07
5583.6, 1.9372e-07
5585.6, 2.1748e-07
5587.6, 2.3195e-07
5589.6, 2.2065e-07
5591.6, 2.1911e-07
5593.6, 1.674e-07
5595.6, 2.2307e-07
5597.6, 1.9377e-07
5599.6, 1.9229e-07
5601.6, 2.1377e-07
5603.6, 1.8831e-07
5605.6, 1.6166e-07
5607.6, 2.0317e-07
5609.6, 1.606e-07
5611.6, 2.2636e-07
5613.6, 2.1264e-07
5615.6, 1.9416e-07
5617.6, 1.6331e-07
5619.6, 2.5049e-07
5621.6, 2.0879e-07
5623.6, 1.7093e-07
5625.6, 1.6399e-07
5627.6, 2.304e-07
5629.6, 2.0652e-07
5631.6, 1.9323e-07
5633.6, 1.7293e-07
5635.6, 1.9959e-07
5637.6, 2.0551e-07
5639.6, 1.8157e-07
5641.6, 1.7625e-07
5643.6, 1.4651e-07
5645.6, 2.3959e-07
5647.6, 2.1943e-07
5649.6, 1.894e-07
5651.6, 2.1977e-07
5653.6, 2.2594e-07
5655.6, 1.9725e-07
5657.7, 2.0661e-07
5659.7, 2.3113e-07
5661.7, 2.3037e-07
5663.7, 1.6403e-07
5665.7, 2.3832e-07
5667.7, 2.385e-07
5669.7, 2.0857e-07
5671.7, 1.9344e-07
5673.7, 1.6742e-07
5675.7, 1.9133e-07
5677.7, 1.9798e-07
5679.7, 2.2484e-07
5681.7, 2.0473e-07
5683.7, 2.2325e-07
5685.7, 1.9243e-07
5687.7, 2.4422e-07
5689.7, 2.3067e-07
5691.7, 1.9947e-07
5693.7, 1.2373e-07
5695.7, 2.0755e-07
5697.7, 1.7688e-07
5699.7, 1.9198e-07
5701.7, 2.0811e-07
5703.7, 2.0915e-07
5705.7, 1.8516e-07
5707.7, 2.376e-07
5709.7, 2.3075e-07
5711.7, 2.3026e-07
5713.7, 2.2652e-07
5715.7, 2.4827e-07
5717.7, 1.7188e-07
5719.7, 1.7808e-07
5721.7, 1.8186e-07
5723.7, 1.8431e-07
5725.7, 2.2967e-07
5727.7, 2.0279e-07
5729.7, 2.3367e-07
5731.7, 2.0751e-07
5733.7, 2.152e-07
5735.7, 1.6633e-07
5737.7, 2.049e-07
5739.7, 2.6513e-07
5741.7, 2.2934e-07
5743.7, 1.7108e-07
5745.7, 2.3748e-07
5747.7, 2.1698e-07
5749.7, 2.0545e-07
5751.7, 2.1013e-07
5753.7, 2.1006e-07
5755.7, 1.9514e-07
5757.8, 1.8604e-07
5759.8, 1.6696e-07
5761.8, 2.4751e-07
5763.8, 2.1873e-07
5765.8, 2.6277e-07
5767.8, 2.2917e-07
5769.8, 1.913e-07
5771.8, 2.3645e-07
5773.8, 2.2608e-07
5775.8, 2.0591e-07
5777.8, 2.2786e-07
5779.8, 2.0394e-07
5781.8, 2.0602e-07
5783.8, 2.0383e-07
5785.8, 1.8092e-07
5787.8, 2.3526e-07
5789.8, 2.345e-07
5791.8, 1.9499e-07
5793.8, 1.9983e-07
5795.8, 1.9956e-07
5797.8, 1.9712e-07
5799.8, 2.2581e-07
5801.8, 2.3677e-07
5803.8, 2.3421e-07
5805.8, 2.1141e-07
5807.8, 2.0563e-07
5809.8, 2.1325e-07
5811.8, 1.8304e-07
5813.8, 1.8743e-07
5815.8, 2.7993e-07
5817.8, 2.488e-07
5819.8, 2.4619e-07
5821.8, 2.2032e-07
5823.8, 2.3255e-07
5825.8, 1.6037e-07
5827.8, 1.8931e-07
5829.8, 2.1451e-07
5831.8, 1.7402e-07
5833.8, 1.8297e-07
5835.8, 2.6897e-07
5837.8, 2.5453e-07
5839.8, 2.2678e-07
5841.8, 2.0998e-07
5843.8, 2.1897e-07
5845.8, 1.9427e-07
5847.8, 2.2449e-07
5849.8, 2.0761e-07
5851.8, 1.9921e-07
5853.8, 1.8638e-07
5855.8, 2.0786e-07
5857.9, 2.3764e-07
5859.9, 2.0034e-07
5861.9, 2.065e-07
5863.9, 2.0556e-07
5865.9, 1.8065e-07
5867.9, 2.2497e-07
5869.9, 2.209e-07
5871.9, 2.1134e-07
5873.9, 2.4797e-07
5875.9, 2.006e-07
5877.9, 2.0712e-07
5879.9, 2.0383e-07
5881.9, 2.1293e-07
5883.9, 2.1473e-07
5885.9, 2.705e-07
5887.9, 2.3407e-07
5889.9, 2.3671e-07
5891.9, 2.3829e-07
5893.9, 2.4542e-07
5895.9, 2.3954e-07
5897.9, 2.1312e-07
5899.9, 2.2832e-07
5901.9, 1.9387e-07
5903.9, 2.1036e-07
5905.9, 2.0093e-07
5907.9, 2.1863e-07
5909.9, 2.6544e-07
5911.9, 1.9273e-07
5913.9, 2.4894e-07
5915.9, 2.0223e-07
5917.9, 1.9652e-07
5919.9, 2.0082e-07
5921.9, 2.6285e-07
5923.9, 2.1365e-07
5925.9, 2.3147e-07
5927.9, 2.8195e-07
5929.9, 2.6029e-07
5931.9, 2.332e-07
5933.9, 2.211e-07
5935.9, 2.1683e-07
5937.9, 2.1516e-07
5939.9, 2.0324e-07
5941.9, 2.758e-07
5943.9, 2.3698e-07
5945.9, 2.3454e-07
5947.9, 2.0486e-07
5949.9, 2.3283e-07
5951.9, 2.2891e-07
5953.9, 2.2774e-07
5955.9, 2.7713e-07
5958.0, 2.6374e-07
5960.0, 2.0397e-07
5962.0, 2.454e-07
5964.0, 2.0322e-07
5966.0, 2.6587e-07
5968.0, 1.8334e-07
5970.0, 2.2007e-07
5972.0, 2.1582e-07
5974.0, 2.0123e-07
5976.0, 2.3567e-07
5978.0, 1.9787e-07
5980.0, 2.3622e-07
5982.0, 2.0168e-07
5984.0, 2.1269e-07
5986.0, 2.5209e-07
5988.0, 2.035e-07
5990.0, 1.9345e-07
5992.0, 1.7157e-07
5994.0, 2.4107e-07
5996.0, 2.5895e-07
5998.0, 2.2602e-07
6000.0, 1.9895e-07
6002.0, 2.5423e-07
6004.0, 1.9786e-07
6006.0, 2.7281e-07
6008.0, 2.6848e-07
6010.0, 2.2162e-07
6012.0, 1.9524e-07
6014.0, 1.9196e-07
6016.0, 2.3943e-07
6018.0, 2.5166e-07
6020.0, 2.5372e-07
6022.0, 2.0431e-07
6024.0, 1.921e-07
6026.0, 2.3664e-07
6028.0, 1.7371e-07
6030.0, 2.8244e-07
6032.0, 2.5411e-07
6034.0, 2.751e-07
6036.0, 2.2988e-07
6038.0, 2.2159e-07
6040.0, 2.3962e-07
6042.0, 2.7523e-07
6044.0, 2.4605e-07
6046.0, 2.2778e-07
6048.0, 2.284e-07
6050.0, 2.2937e-07
6052.0, 2.3517e-07
6054.0, 2.2058e-07
6056.0, 2.2918e-07
6058.1, 2.6252e-07
6060.1, 2.0467e-07
6062.1, 2.2728e-07
6064.1, 1.9117e-07
6066.1, 2.5011e-07
6068.1, 1.9921e-07
6070.1, 2.4368e-07
6072.1, 1.9402e-07
6074.1, 2.6019e-07
6076.1, 2.2399e-07
6078.1, 2.6155e-07
6080.1, 2.4799e-07
6082.1, 2.2425e-07
6084.1, 2.0572e-07
6086.1, 2.033e-07
6088.1, 2.0699e-07
6090.1, 2.5368e-07
6092.1, 1.9116e-07
6094.1, 2.1512e-07
6096.1, 1.5019e-07
6098.1, 2.0793e-07
6100.1, 2.0242e-07
6102.1, 1.8743e-07
6104.1, 2.3392e-07
6106.1, 2.6262e-07
6108.1, 2.2128e-07
6110.1, 1.9082e-07
6112.1, 2.1052e-07
6114.1, 2.451e-07
6116.1, 2.2484e-07
6118.1, 1.8008e-07
6120.1, 2.4492e-07
6122.1, 1.9338e-07
6124.1, 2.1739e-07
6126.1, 2.2633e-07
6128.1, 1.9352e-07
6130.1, 2.2614e-07
6132.1, 1.6997e-07
6134.1, 2.2909e-07
6136.1, 2.4276e-07
6138.1, 2.8187e-07
6140.1, 2.0497e-07
6142.1, 2.0818e-07
6144.1, 2.6576e-07
6146.1, 2.9334e-07
6148.1, 2.2983e-07
6150.1, 2.9196e-07
6152.1, 2.2266e-07
6154.1, 2.192e-07
6156.1, 1.8524e-07
6158.2, 2.1766e-07
6160.2, 2.0442e-07
6162.2, 2.2755e-07
6164.2, 2.3192e-07
6166.2, 2.0131e-07
6168.2, 2.1982e-07
6170.2, 2.3533e-07
6172.2, 2.4368e-07
6174.2, 2.2649e-07
6176.2, 2.4734e-07
6178.2, 2.2647e-07
6180.2, 1.9827e-07
6182.2, 2.3301e-07
6184.2, 2.456e-07
6186.2, 2.3091e-07
6188.2, 1.9773e-07
6190.2, 2.2383e-07
6192.2, 2.4131e-07
6194.2, 1.8609e-07
6196.2, 1.9162e-07
6198.2, 2.1765e-07
6200.2, 2.1828e-07
6202.2, 2.2591e-07
6204.2, 2.2749e-07
6206.2, 2.6347e-07
6208.2, 2.6758e-07
6210.2, 1.968e-07
6212.2, 2.0607e-07
6214.2, 2.3797e-07
6216.2, 2.2967e-07
6218.2, 2.5148e-07
6220.2, 2.7338e-07
6222.2, 2.2152e-07
6224.2, 2.3869e-07
6226.2, 2.4089e-07
6228.2, 2.0233e-07
6230.2, 1.8946e-07
6232.2, 2.8044e-07
6234.2, 2.576e-07
6236.2, 2.8888e-07
6238.2, 2.3201e-07
6240.2, 2.3339e-07
6242.2, 2.1348e-07
6244.2, 2.3572e-07
6246.2, 2.0396e-07
6248.2, 2.1509e-07
6250.2, 2.3627e-07
6252.2, 2.124e-07
6254.2, 1.9721e-07
6256.2, 1.9251e-07
6258.3, 2.2136e-07
6260.3, 2.1487e-07
6262.3, 2.5946e-07
6264.3, 2.2552e-07
6266.3, 2.5897e-07
6268.3, 2.1404e-07
6270.3, 2.2658e-07
6272.3, 2.1653e-07
6274.3, 2.3558e-07
6276.3, 2.4395e-07
6278.3, 1.9411e-07
6280.3, 2.0898e-07
6282.3, 2.4386e-07
6284.3, 1.9591e-07
6286.3, 2.6517e-07
6288.3, 2.4173e-07
6290.3, 2.3694e-07
6292.3, 1.8239e-07
6294.3, 2.9651e-07
6296.3, 2.0995e-07
6298.3, 2.6864e-07
6300.3, 2.4774e-07
6302.3, 2.1522e-07
6304.3, 2.1241e-07
6306.3, 2.5178e-07
6308.3, 2.5538e-07
6310.3, 2.5405e-07
6312.3, 3.0651e-07
6314.3, 1.9802e-07
6316.3, 2.0699e-07
6318.3, 2.5423e-07
6320.3, 2.5913e-07
6322.3, 2.7981e-07
6324.3, 2.4825e-07
6326.3, 2.1342e-07
6328.3, 2.3454e-07
6330.3, 2.5613e-07
6332.3, 2.1434e-07
6334.3, 2.6771e-07
6336.3, 2.6939e-07
6338.3, 2.0247e-07
6340.3, 2.1968e-07
6342.3, 2.5e-07
6344.3, 2.6157e-07
6346.3, 2.2458e-07
6348.3, 2.5641e-07
6350.3, 2.4722e-07
6352.3, 2.468e-07
6354.3, 1.9671e-07
6356.3, 2.3684e-07
6358.4, 2.1656e-07
6360.4, 2.3802e-07
6362.4, 2.3398e-07
6364.4, 2.1242e-07
6366.4, 2.5186e-07
6368.4, 2.4601e-07
6370.4, 2.3993e-07
6372.4, 2.2244e-07
6374.4, 2.6441e-07
6376.4, 2.7961e-07
6378.4, 2.195e-07
6380.4, 2.5484e-07
6382.4, 2.0085e-07
6384.4, 2.1931e-07
6386.4, 1.9652e-07
6388.4, 2.5512e-07
6390.4, 2.2801e-07
6392.4, 2.6078e-07
6394.4, 2.3812e-07
6396.4, 2.6845e-07
6398.4, 2.3683e-07
6400.4, 2.4335e-07
6402.4, 2.1468e-07
6404.4, 2.2155e-07
6406.4, 2.3077e-07
6408.4, 2.9885e-07
6410.4, 2.2654e-07
6412.4, 2.1741e-07
6414.4, 2.2704e-07
6416.4, 2.4574e-07
6418.4, 2.3977e-07
6420.4, 2.3474e-07
6422.4, 2.5069e-07
6424.4, 2.5291e-07
6426.4, 2.0158e-07
6428.4, 1.967e-07
6430.4, 2.2341e-07
6432.4, 2.239e-07
6434.4, 1.9498e-07
6436.4, 2.0802e-07
6438.4, 2.8434e-07
6440.4, 2.395e-07
6442.4, 2.5466e-07
6444.4, 2.5911e-07
6446.4, 2.487e-07
6448.4, 2.3044e-07
6450.4, 2.6466e-07
6452.4, 2.5517e-07
6454.4, 2.2361e-07
6456.4, 2.1825e-07
6458.5, 2.0322e-07
6460.5, 2.6542e-07
6462.5, 1.8445e-07
6464.5, 2.0528e-07
6466.5, 2.0773e-07
6468.5, 2.6285e-07
6470.5, 2.8468e-07
6472.5, 1.8281e-07
6474.5, 2.0455e-07
6476.5, 2.7209e-07
6478.5, 2.8405e-07
6480.5, 2.7842e-07
6482.5, 1.7443e-07
6484.5, 2.4541e-07
6486.5, 1.9508e-07
6488.5, 2.7645e-07
6490.5, 2.0201e-07
6492.5, 2.2848e-07
6494.5, 2.683e-07
6496.5, 2.5587e-07
6498.5, -2.288e-08
6500.5, -2.537e-08
6502.5, -2.86e-08
6504.5, -2.492e-08
6506.5, -2.37e-08
6508.5, -2.599e-08
6510.5, -2.388e-08
6512.5, -2.756e-08
6514.5, -2.123e-08
6516.5, -2.413e-08
6518.5, -2.66e-08
6520.5, -2.611e-08
6522.5, -2.501e-08
6524.5, -2.96e-08
6526.5, -2.783e-08
6528.5, -3.168e-08
6530.5, -2.797e-08
6532.5, -2.764e-08
6534.5, -2.532e-08
6536.5, -2.657e-08
6538.5, -2.592e-08
6540.5, -2.902e-08
6542.5, -2.818e-08
6544.5, -3.126e-08
6546.5, -3.033e-08
6548.5, -2.662e-08
6550.5, -2.36e-08
6552.5, -2.575e-08
6554.5, -2.506e-08
6556.5, -2.317e-08
6558.6, -2.51e-08
6560.6, -2.463e-08
6562.6, -2.342e-08
6564.6, -2.56e-08
6566.6, -2.444e-08
6568.6, -2.717e-08
6570.6, -2.711e-08
6572.6, -3.082e-08
6574.6, -2.787e-08
6576.6, -2.807e-08
6578.6, -2.765e-08
6580.6, -2.954e-08
6582.6, -2.542e-08
6584.6, -2.949e-08
6586.6, -2.875e-08
6588.6, -2.896e-08
6590.6, -2.801e-08
6592.6, -3.136e-08
6594.6, -2.843e-08
6596.6, -3.086e-08
6598.6, -2.641e-08
6600.6, -2.896e-08
6602.6, -2.929e-08
6604.6, -2.657e-08
6606.6, -2.793e-08
6608.6, -2.57e-08
6610.6, -2.608e-08
6612.6, -2.136e-08
6614.6, -2.065e-08
6616.6, -2.171e-08
6618.6, -2.48e-08
6620.6, -2.452e-08
6622.6, -2.688e-08
6624.6, -2.449e-08
6626.6, -2.878e-08
6628.6, -2.751e-08
6630.6, -2.827e-08
6632.6, -2.543e-08
6634.6, -2.621e-08
6636.6, -2.631e-08
6638.6, -2.833e-08
6640.6, -2.912e-08
6642.6, -2.469e-08
6644.6, -2.308e-08
6646.6, -2.693e-08
6648.6, -2.693e-08
6650.6, -2.681e-08
6652.6, -2.491e-08
6654.6, -2.715e-08
6656.6, -2.681e-08
6658.7, -2.52e-08
6660.7, -2.207e-08
6662.7, -2.285e-08
6664.7, -2.345e-08
6666.7, -2.557e-08
6668.7, -2.534e-08
6670.7, -2.495e-08
6672.7, -2.478e-08
6674.7, -2.659e-08
6676.7, -2.576e-08
6678.7, -2.569e-08
6680.7, -2.888e-08
6682.7, -2.958e-08
6684.7, -2.717e-08
6686.7, -2.778e-08
6688.7, -2.778e-08
6690.7, -2.706e-08
6692.7, -2.589e-08
6694.7, -2.711e-08
6696.7, -2.636e-08
6698.7, -2.81e-08
6700.7, -2.583e-08
6702.7, -2.478e-08
6704.7, -2.458e-08
6706.7, -2.336e-08
6708.7, -2.6e-08
6710.7, -2.248e-08
6712.7, -2.64e-08
6714.7, -2.886e-08
6716.7, -3.032e-08
6718.7, -3.023e-08
6720.7, -2.822e-08
6722.7, -2.516e-08
6724.7, -2.704e-08
6726.7, -2.582e-08
6728.7, -2.599e-08
6730.7, -2.437e-08
6732.7, -2.885e-08
6734.7, -2.772e-08
6736.7, -2.766e-08
6738.7, -2.542e-08
6740.7, -2.438e-08
6742.7, -2.192e-08
6744.7, -2.489e-08
6746.7, -2.108e-08
6748.7, -2.371e-08
6750.7, -2.672e-08
6752.7, -2.94e-08
6754.7, -2.692e-08
6756.7, -2.379e-08
6758.8, -2.461e-08
6760.8, -2.49e-08
6762.8, -2.627e-08
6764.8, -2.685e-08
6766.8, -2.547e-08
6768.8, -2.691e-08
6770.8, -2.517e-08
6772.8, -2.811e-08
6774.8, -2.984e-08
6776.8, -2.852e-08
6778.8, -2.512e-08
6780.8, -2.573e-08
6782.8, -2.511e-08
6784.8, -2.774e-08
6786.8, -2.902e-08
6788.8, -2.607e-08
6790.8, -2.63e-08
6792.8, -3.043e-08
6794.8, -3.14e-08
6796.8, -2.887e-08
6798.8, -3.024e-08
6800.8, -3.122e-08
6802.8, -2.914e-08
6804.8, -3.25e-08
6806.8, -3.282e-08
6808.8, -3.207e-08
6810.8, -2.806e-08
6812.8, -2.638e-08
6814.8, -3.156e-08
6816.8, -3e-08
6818.8, -2.784e-08
6820.8, -2.829e-08
6822.8, -2.921e-08
6824.8, -3.043e-08
6826.8, -3.361e-08
6828.8, -2.999e-08
6830.8, -2.937e-08
6832.8, -3.08e-08
6834.8, -2.569e-08
6836.8, -2.885e-08
6838.8, -2.757e-08
6840.8, -2.542e-08
6842.8, -3.002e-08
6844.8, -2.596e-08
6846.8, -2.711e-08
6848.8, -3.003e-08
6850.8, -2.825e-08
6852.8, -2.66e-08
6854.8, -2.601e-08
6856.8, -2.576e-08
6858.9, -2.637e-08
6860.9, -2.669e-08
6862.9, -2.64e-08
6864.9, -2.181e-08
6866.9, -2.014e-08
6868.9, -2.114e-08
6870.9, -2.384e-08
6872.9, -2.811e-08
6874.9, -2.611e-08
6876.9, -3.024e-08
6878.9, -2.473e-08
6880.9, -2.545e-08
6882.9, -2.466e-08
6884.9, -2.662e-08
6886.9, -2.679e-08
6888.9, -2.478e-08
6890.9, -2.418e-08
6892.9, -2.666e-08
6894.9, -2.672e-08
6896.9, -2.784e-08
6898.9, -2.513e-08
6900.9, -2.738e-08
6902.9, -2.403e-08
6904.9, -2.657e-08
6906.9, -2.801e-08
6908.9, -2.952e-08
6910.9, -2.861e-08
6912.9, -2.627e-08
6914.9, -2.546e-08
6916.9, -2.975e-08
6918.9, -2.821e-08
6920.9, -2.936e-08
6922.9, -2.704e-08
6924.9, -2.718e-08
6926.9, -2.443e-08
6928.9, -2.243e-08
6930.9, -2.541e-08
6932.9, -2.87e-08
6934.9, -2.365e-08
6936.9, -2.04e-08
6938.9, -2.27e-08
6940.9, -2.513e-08
6942.9, -2.642e-08
6944.9, -2.68e-08
6946.9, -2.997e-08
6948.9, -2.967e-08
6950.9, -2.68e-08
6952.9, -2.434e-08
6954.9, -2.388e-08
6956.9, -2.538e-08
6959.0, -2.42e-08
6961.0, -2.697e-08
6963.0, -2.497e-08
6965.0, -2.885e-08
6967.0, -2.435e-08
6969.0, -2.283e-08
6971.0, -2.261e-08
6973.0, -2.794e-08
6975.0, -3.012e-08
6977.0, -2.802e-08
6979.0, -2.848e-08
6981.0, -2.863e-08
6983.0, -2.745e-08
6985.0, -3.095e-08
6987.0, -3.029e-08
6989.0, -2.749e-08
6991.0, -2.6e-08
6993.0, -3.089e-08
6995.0, -3.185e-08
6997.0, -2.666e-08
6999.0, -2.859e-08
7001.0, -2.753e-08
7003.0, -2.622e-08
7005.0, -3.197e-08
7007.0, -2.697e-08
7009.0, -2.772e-08
7011.0, -2.288e-08
7013.0, -2.547e-08
7015.0, -2.493e-08
7017.0, -2.47e-08
7019.0, -2.536e-08
7021.0, -2.343e-08
7023.0, -2.458e-08
7025.0, -2.522e-08
7027.0, -2.534e-08
7029.0, -2.599e-08
7031.0, -2.63e-08
7033.0, -2.785e-08
7035.0, -2.721e-08
7037.0, -2.489e-08
7039.0, -2.655e-08
7041.0, -2.775e-08
7043.0, -2.775e-08
7045.0, -2.479e-08
7047.0, -2.336e-08
7049.0, -2.445e-08
7051.0, -2.377e-08
7053.0, -2.515e-08
7055.0, -2.51e-08
7057.0, -2.59e-08
7059.1, -2.531e-08
7061.1, -2.685e-08
7063.1, -2.32e-08
7065.1, -2.677e-08
7067.1, -2.78e-08
7069.1, -3.141e-08
7071.1, -2.325e-08
7073.1, -2.741e-08
7075.1, -2.746e-08
7077.1, -2.78e-08
7079.1, -2.956e-08
7081.1, -2.361e-08
7083.1, -2.159e-08
7085.1, -2.203e-08
7087.1, -2.84e-08
7089.1, -2.609e-08
7091.1, -2.356e-08
7093.1, -2.467e-08
7095.1, -2.5e-08
7097.1, -2.615e-08
7099.1, -2.539e-08
7101.1, -2.39e-08
7103.1, -2.406e-08
7105.1, -2.56e-08
7107.1, -2.526e-08
7109.1, -2.862e-08
7111.1, -2.509e-08
7113.1, -2.489e-08
7115.1, -2.701e-08
7117.1, -2.711e-08
7119.1, -2.67e-08
7121.1, -2.396e-08
7123.1, -2.781e-08
7125.1, -2.71e-08
7127.1, -2.794e-08
7129.1, -2.136e-08
7131.1, -2.22e-08
7133.1, -2.464e-08
7135.1, -2.105e-08
7137.1, -2.288e-08
7139.1, -2.638e-08
7141.1, -2.678e-08
7143.1, -2.759e-08
7145.1, -2.741e-08
7147.1, -2.705e-08
7149.1, -2.53e-08
7151.1, -2.441e-08
7153.1, -2.539e-08
7155.1, -2.729e-08
7157.1, -2.698e-08
7159.2, -2.487e-08
7161.2, -2.277e-08
7163.2, -2.331e-08
7165.2, -2.668e-08
7167.2, -2.502e-08
7169.2, -2.343e-08
7171.2, -2.398e-08
7173.2, -2.604e-08
7175.2, -2.338e-08
7177.2, -2.366e-08
7179.2, -2.317e-08
7181.2, -2.269e-08
7183.2, -2.528e-08
7185.2, -2.566e-08
7187.2, -2.743e-08
7189.2, -2.294e-08
7191.2, -2.449e-08
7193.2, -2.035e-08
7195.2, -2.671e-08
7197.2, -2.393e-08
7199.2, -2.209e-08
7201.2, -2.479e-08
7203.2, -2.35e-08
7205.2, -2.423e-08
7207.2, -2.28e-08
7209.2, -2.721e-08
7211.2, -2.538e-08
7213.2, -2.365e-08
7215.2, -2.613e-08
7217.2, -2.6e-08
7219.2, -2.852e-08
7221.2, -2.627e-08
7223.2, -2.822e-08
7225.2, -2.602e-08
7227.2, -2.512e-08
7229.2, -2.628e-08
7231.2, -2.507e-08
7233.2, -2.531e-08
7235.2, -2.107e-08
7237.2, -2.586e-08
7239.2, -2.32e-08
7241.2, -2.388e-08
7243.2, -2.183e-08
7245.2, -2.56e-08
7247.2, -2.78e-08
7249.2, -2.515e-08
7251.2, -2.255e-08
7253.2, -2.47e-08
7255.2, -2.425e-08
7257.2, -2.322e-08
7259.3, -2.442e-08
7261.3, -2.713e-08
7263.3, -2.88e-08
7265.3, -2.634e-08
7267.3, -2.652e-08
7269.3, -2.277e-08
7271.3, -2.175e-08
7273.3, -2.106e-08
7275.3, -2.358e-08
7277.3, -1.986e-08
7279.3, -2.218e-08
7281.3, -2.109e-08
7283.3, -2.053e-08
7285.3, -2.342e-08
7287.3, -2.233e-08
7289.3, -2.447e-08
7291.3, -2.552e-08
7293.3, -2.333e-08
7295.3, -2.579e-08
7297.3, -2.36e-08
7299.3, -2.359e-08
7301.3, -2.511e-08
7303.3, -2.65e-08
7305.3, -2.396e-08
7307.3, -2.599e-08
7309.3, -2.688e-08
7311.3, -2.83e-08
7313.3, -2.769e-08
7315.3, -2.625e-08
7317.3, -2.92e-08
7319.3, -2.66e-08
7321.3, -2.866e-08
7323.3, -2.949e-08
7325.3, -2.588e-08
7327.3, -2.553e-08
7329.3, -2.613e-08
7331.3, -2.621e-08
7333.3, -2.753e-08
7335.3, -2.504e-08
7337.3, -2.578e-08
7339.3, -2.684e-08
7341.3, -2.591e-08
7343.3, -2.625e-08
7345.3, -2.689e-08
7347.3, -2.943e-08
7349.3, -2.759e-08
7351.3, -2.952e-08
7353.3, -2.36e-08
7355.3, -2.441e-08
7357.3, -2.316e-08
7359.4, -2.56e-08
7361.4, -2.623e-08
7363.4, -2.585e-08
7365.4, -2.497e-08
7367.4, -2.409e-08
7369.4, -2.139e-08
7371.4, -2.046e-08
7373.4, -2.059e-08
7375.4, -1.997e-08
7377.4, -2.337e-08
7379.4, -2.614e-08
7381.4, -2.577e-08
7383.4, -2.619e-08
7385.4, -2.502e-08
7387.4, -2.411e-08
7389.4, -2.082e-08
7391.4, -2.371e-08
7393.4, -2.76e-08
7395.4, -2.501e-08
7397.4, -2.541e-08
7399.4, -2.718e-08
7401.4, -2.649e-08
7403.4, -2.418e-08
7405.4, -2.532e-08
7407.4, -2.401e-08
7409.4, -2.554e-08
7411.4, -2.298e-08
7413.4, -2.433e-08
7415.4, -2.132e-08
7417.4, -2.443e-08
7419.4, -2.568e-08
7421.4, -2.203e-08
7423.4, -2.226e-08
7425.4, -2.511e-08
7427.4, -2.362e-08
7429.4, -2.291e-08
7431.4, -2.632e-08
7433.4, -2.675e-08
7435.4, -2.463e-08
7437.4, -2.637e-08
7439.4, -2.326e-08
7441.4, -3.12e-08
7443.4, -3.027e-08
7445.4, -3.111e-08
7447.4, -2.697e-08
7449.4, -2.992e-08
7451.4, -2.675e-08
7453.4, -2.763e-08
7455.4, -2.839e-08
7457.4, -3.085e-08
7459.5, -2.78e-08
7461.5, -2.658e-08
7463.5, -2.56e-08
7465.5, -2.901e-08
7467.5, -2.71e-08
7469.5, -2.614e-08
7471.5, -2.244e-08
7473.5, -2.461e-08
7475.5, -2.649e-08
7477.5, -2.162e-08
7479.5, -2.404e-08
7481.5, -2.253e-08
7483.5, -2.1e-08
7485.5, -2.133e-08
7487.5, -2.508e-08
7489.5, -2.708e-08
7491.5, -2.602e-08
7493.5, -2.456e-08
7495.5, -2.63e-08
7497.5, -2.159e-08
7499.5, -2.784e-08
7501.5, -2.69e-08
7503.5, -2.613e-08
7505.5, -2.894e-08
7507.5, -2.675e-08
7509.5, -2.86e-08
7511.5, -2.525e-08
7513.5, -2.268e-08
7515.5, -2.797e-08
7517.5, -2.702e-08
7519.5, -2.585e-08
7521.5, -2.409e-08
7523.5, -2.311e-08
7525.5, 9.639e-08
7527.5, 2.1518e-07
7529.5, 2.0493e-07
7531.5, 1.9531e-07
7533.5, 2.1083e-07
7535.5, 1.2331e-07
7537.5, 1.5537e-07
7539.5, 1.6535e-07
7541.5, 1.311e-07
7543.5, 1.5541e-07
7545.5, 1.8162e-07
7547.5, 1.6308e-07
7549.5, 2.2173e-07
7551.5, 1.3511e-07
7553.5, 1.6645e-07
7555.5, 1.8667e-07
7557.5, 2.0426e-07
7559.6, 1.7084e-07
7561.6, 1.9285e-07
7563.6, 2.2897e-07
7565.6, 1.6468e-07
7567.6, 2.2597e-07
7569.6, 1.8123e-07
7571.6, 2.1219e-07
7573.6, 1.5487e-07
7575.6, 1.5134e-07
7577.6, 2.0217e-07
7579.6, 1.6425e-07
7581.6, 1.9925e-07
7583.6, 2.243e-07
7585.6, 2.0198e-07
7587.6, 1.8015e-07
7589.6, 1.7774e-07
7591.6, 2.752e-07
7593.6, 2.176e-07
7595.6, 1.9321e-07
7597.6, 1.9767e-07
7599.6, 2.125e-07
7601.6, 2.0549e-07
7603.6, 2.3552e-07
7605.6, 1.8997e-07
7607.6, 2.2915e-07
7609.6, 2.2823e-07
7611.6, 2.4808e-07
7613.6, 2.1186e-07
7615.6, 1.7336e-07
7617.6, 2.4624e-07
7619.6, 2.1762e-07
7621.6, 2.2318e-07
7623.6, 1.6905e-07
7625.6, 1.8472e-07
7627.6, 2.2277e-07
7629.6, 2.518e-07
7631.6, 2.2115e-07
7633.6, 2.3071e-07
7635.6, 1.8578e-07
7637.6, 2.0783e-07
7639.6, 1.8597e-07
7641.6, 1.9068e-07
7643.6, 1.7033e-07
7645.6, 1.6485e-07
7647.6, 1.8826e-07
7649.6, 1.8404e-07
7651.6, 1.8021e-07
7653.6, 2.102e-07
7655.6, 2.0923e-07
7657.6, 1.7249e-07
7659.7, 1.9698e-07
7661.7, 1.6816e-07
7663.7, 1.8202e-07
7665.7, 2.6776e-07
7667.7, 1.9803e-07
7669.7, 1.9772e-07
7671.7, 1.9396e-07
7673.7, 2.4565e-07
7675.7, 1.9331e-07
7677.7, 2.2708e-07
7679.7, 1.7041e-07
7681.7, 1.4983e-07
7683.7, 2.0006e-07
7685.7, 1.8918e-07
7687.7, 1.7456e-07
7689.7, 1.6358e-07
7691.7, 1.9548e-07
7693.7, 2.3516e-07
7695.7, 2.1268e-07
7697.7, 2.0601e-07
7699.7, 2.0993e-07
7701.7, 1.7667e-07
7703.7, 1.7589e-07
7705.7, 1.946e-07
7707.7, 1.8908e-07
7709.7, 2.5945e-07
7711.7, 2.3869e-07
7713.7, 2.0484e-07
7715.7, 2.2125e-07
7717.7, 1.733e-07
7719.7, 2.0323e-07
7721.7, 2.3915e-07
7723.7, 2.7069e-07
7725.7, 2.2953e-07
7727.7, 2.0634e-07
7729.7, 1.8756e-07
7731.7, 1.6993e-07
7733.7, 2.0027e-07
7735.7, 2.2902e-07
7737.7, 2.1808e-07
7739.7, 2.2195e-07
7741.7, 2.1996e-07
7743.7, 1.9247e-07
7745.7, 1.5163e-07
7747.7, 2.0884e-07
7749.7, 2.143e-07
7751.7, 2.0796e-07
7753.7, 2.3266e-07
7755.7, 2.326e-07
7757.7, 2.1726e-07
7759.8, 2.1741e-07
7761.8, 1.9258e-07
7763.8, 2.3287e-07
7765.8, 2.1917e-07
7767.8, 2.1784e-07
7769.8, 2.3632e-07
7771.8, 1.9955e-07
7773.8, 2.1848e-07
7775.8, 2.4187e-07
7777.8, 2.0374e-07
7779.8, 1.9892e-07
7781.8, 2.5254e-07
7783.8, 1.9752e-07
7785.8, 1.6487e-07
7787.8, 2.1258e-07
7789.8, 2.2619e-07
7791.8, 2.983e-07
7793.8, 2.1114e-07
7795.8, 2.0996e-07
7797.8, 1.9751e-07
7799.8, 2.0076e-07
7801.8, 1.7226e-07
7803.8, 2.214e-07
7805.8, 1.8086e-07
7807.8, 1.8653e-07
7809.8, 2.7402e-07
7811.8, 1.9899e-07
7813.8, 2.5765e-07
7815.8, 2.2324e-07
7817.8, 2.1851e-07
7819.8, 2.5014e-07
7821.8, 2.4754e-07
7823.8, 2.451e-07
7825.8, 2.379e-07
7827.8, 1.8204e-07
7829.8, 2.0974e-07
7831.8, 1.9291e-07
7833.8, 1.6193e-07
7835.8, 1.8855e-07
7837.8, 2.2256e-07
7839.8, 2.2471e-07
7841.8, 2.4541e-07
7843.8, 1.8706e-07
7845.8, 2.2469e-07
7847.8, 2.1407e-07
7849.8, 2.372e-07
7851.8, 1.855e-07
7853.8, 1.825e-07
7855.8, 1.9843e-07
7857.8, 2.16e-07
7859.9, 2.0639e-07
7861.9, 2.3699e-07
7863.9, 2.2348e-07
7865.9, 1.9745e-07
7867.9, 2.0638e-07
7869.9, 2.5409e-07
7871.9, 2.6508e-07
7873.9, 1.774e-07
7875.9, 1.9756e-07
7877.9, 2.1953e-07
7879.9, 2.2749e-07
7881.9, 2.33e-07
7883.9, 2.5274e-07
7885.9, 2.0285e-07
7887.9, 2.444e-07
7889.9, 1.8572e-07
7891.9, 2.1344e-07
7893.9, 2.2341e-07
7895.9, 1.9399e-07
7897.9, 2.0043e-07
7899.9, 2.1183e-07
7901.9, 2.2385e-07
7903.9, 2.7307e-07
7905.9, 2.1605e-07
7907.9, 2.6184e-07
7909.9, 2.0366e-07
7911.9, 2.5089e-07
7913.9, 2.6764e-07
7915.9, 2.1073e-07
7917.9, 2.1127e-07
7919.9, 2.4463e-07
7921.9, 2.9858e-07
7923.9, 2.6682e-07
7925.9, 2.1995e-07
7927.9, 2.3102e-07
7929.9, 2.1049e-07
7931.9, 2.4479e-07
7933.9, 1.856e-07
7935.9, 2.136e-07
7937.9, 2.3206e-07
7939.9, 1.8345e-07
7941.9, 1.8983e-07
7943.9, 2.2367e-07
7945.9, 1.9015e-07
7947.9, 2.3096e-07
7949.9, 2.2358e-07
7951.9, 2.4531e-07
7953.9, 2.0212e-07
7955.9, 2.0273e-07
7957.9, 2.3323e-07
7960.0, 2.442e-07
7962.0, 2.2921e-07
7964.0, 2.2319e-07
7966.0, 2.5031e-07
7968.0, 2.0244e-07
7970.0, 1.8705e-07
7972.0, 2.2335e-07
7974.0, 2.2507e-07
7976.0, 2.7158e-07
7978.0, 2.4306e-07
7980.0, 2.6953e-07
7982.0, 2.8348e-07
7984.0, 2.404e-07
7986.0, 2.1241e-07
7988.0, 2.0744e-07
7990.0, 2.0934e-07
7992.0, 1.7792e-07
7994.0, 1.9907e-07
7996.0, 2.5036e-07
7998.0, 2.0965e-07
8000.0, 2.3312e-07
8002.0, 2.8521e-07
8004.0, 2.1472e-07
8006.0, 2.0762e-07
8008.0, 2.4443e-07
8010.0, 2.4443e-07
8012.0, 2.1117e-07
8014.0, 1.7228e-07
8016.0, 2.1368e-07
8018.0, 2.1014e-07
8020.0, 2.7015e-07
8022.0, 1.8185e-07
8024.0, 2.0829e-07
8026.0, 1.913e-07
8028.0, 1.9174e-07
8030.0, 2.4757e-07
8032.0, 2.062e-07
8034.0, 2.6527e-07
8036.0, 2.2791e-07
8038.0, 2.189e-07
8040.0, 2.0436e-07
8042.0, 2.4783e-07
8044.0, 2.5686e-07
8046.0, 2.5578e-07
8048.0, 2.3937e-07
8050.0, 2.5438e-07
8052.0, 2.4096e-07
8054.0, 2.5283e-07
8056.0, 2.6281e-07
8058.0, 2.0717e-07
8060.1, 2.0044e-07
8062.1, 2.2628e-07
8064.1, 2.1618e-07
8066.1, 2.2212e-07
8068.1, 3.0681e-07
8070.1, 2.1106e-07
8072.1, 2.3555e-07
8074.1, 1.9507e-07
8076.1, 1.8906e-07
8078.1, 2.0752e-07
8080.1, 1.6123e-07
8082.1, 1.9852e-07
8084.1, 2.1244e-07
8086.1, 2.0069e-07
8088.1, 2.0747e-07
8090.1, 2.2288e-07
8092.1, 2.3853e-07
8094.1, 2.2322e-07
8096.1, 2.3562e-07
8098.1, 2.5775e-07
8100.1, 1.9977e-07
8102.1, 2.1312e-07
8104.1, 2.4358e-07
8106.1, 1.7766e-07
8108.1, 2.2057e-07
8110.1, 2.0636e-07
8112.1, 2.581e-07
8114.1, 2.3583e-07
8116.1, 1.987e-07
8118.1, 2.1053e-07
8120.1, 2.1014e-07
8122.1, 1.8961e-07
8124.1, 2.098e-07
8126.1, 2.116e-07
8128.1, 2.1062e-07
8130.1, 2.3382e-07
8132.1, 2.3491e-07
8134.1, 2.1588e-07
8136.1, 1.8896e-07
8138.1, 2.0673e-07
8140.1, 2.3249e-07
8142.1, 1.951e-07
8144.1, 2.8062e-07
8146.1, 2.4347e-07
8148.1, 2.27e-07
8150.1, 2.0472e-07
8152.1, 2.5606e-07
8154.1, 2.1295e-07
8156.1, 1.9904e-07
8158.1, 2.0876e-07
8160.2, 2.4505e-07
8162.2, 2.6375e-07
8164.2, 2.5347e-07
8166.2, 2.8087e-07
8168.2, 2.7342e-07
8170.2, 2.245e-07
8172.2, 1.9829e-07
8174.2, 2.243e-07
8176.2, 2.3615e-07
8178.2, 2.4614e-07
8180.2, 2.8269e-07
8182.2, 2.3308e-07
8184.2, 2.1666e-07
8186.2, 2.521e-07
8188.2, 2.1271e-07
8190.2, 2.3162e-07
8192.2, 1.8535e-07
8194.2, 2.2096e-07
8196.2, 2.6366e-07
8198.2, 2.2357e-07
8200.2, 2.2122e-07
8202.2, 2.3568e-07
8204.2, 2.1376e-07
8206.2, 2.2554e-07
8208.2, 2.358e-07
8210.2, 1.9677e-07
8212.2, 2.477e-07
8214.2, 2.2028e-07
8216.2, 2.1975e-07
8218.2, 2.3073e-07
8220.2, 2.0338e-07
8222.2, 2.2289e-07
8224.2, 2.1575e-07
8226.2, 2.242e-07
8228.2, 2.8761e-07
8230.2, 2.3983e-07
8232.2, 2.332e-07
8234.2, 2.6618e-07
8236.2, 2.1196e-07
8238.2, 2.0252e-07
8240.2, 1.9558e-07
8242.2, 2.2518e-07
8244.2, 1.955e-07
8246.2, 2.2167e-07
8248.2, 2.034e-07
8250.2, 2.5117e-07
8252.2, 2.045e-07
8254.2, 2.7832e-07
8256.2, 2.6384e-07
8258.2, 2.3357e-07
8260.3, 2.7151e-07
8262.3, 2.2011e-07
8264.3, 2.7438e-07
8266.3, 2.5767e-07
8268.3, 2.0604e-07
8270.3, 2.1396e-07
8272.3, 2.2496e-07
8274.3, 1.9603e-07
8276.3, 2.2507e-07
8278.3, 2.2009e-07
8280.3, 2.5313e-07
8282.3, 2.3258e-07
8284.3, 2.0661e-07
8286.3, 1.8426e-07
8288.3, 2.2689e-07
8290.3, 2.004e-07
8292.3, 2.1568e-07
8294.3, 1.998e-07
8296.3, 2.2385e-07
8298.3, 2.3438e-07
8300.3, 2.4527e-07
8302.3, 2.5509e-07
8304.3, 2.197e-07
8306.3, 2.1001e-07
8308.3, 1.9527e-07
8310.3, 2.2325e-07
8312.3, 2.1394e-07
8314.3, 2.5282e-07
8316.3, 2.3115e-07
8318.3, 2.3955e-07
8320.3, 2.2015e-07
8322.3, 2.4917e-07
8324.3, 1.9833e-07
8326.3, 2.2767e-07
8328.3, 1.9914e-07
8330.3, 2.1737e-07
8332.3, 2.571e-07
8334.3, 2.2822e-07
8336.3, 2.3924e-07
8338.3, 2.2274e-07
8340.3, 2.1936e-07
8342.3, 2.6436e-07
8344.3, 2.2182e-07
8346.3, 2.4534e-07
8348.3, 2.4565e-07
8350.3, 2.3474e-07
8352.3, 2.5949e-07
8354.3, 2.1544e-07
8356.3, 2.1901e-07
8358.3, 2.0036e-07
8360.4, 2.3577e-07
8362.4, 2.2663e-07
8364.4, 1.9924e-07
8366.4, 2.1025e-07
8368.4, 2.736e-07
8370.4, 2.6467e-07
8372.4, 2.3692e-07
8374.4, 2.659e-07
8376.4, 2.6984e-07
8378.4, 2.3825e-07
8380.4, 2.1219e-07
8382.4, 2.3498e-07
8384.4, 2.3438e-07
8386.4, 2.6863e-07
8388.4, 2.3835e-07
8390.4, 2.2767e-07
8392.4, 2.4125e-07
8394.4, 2.4814e-07
8396.4, 2.3154e-07
8398.4, 2.7296e-07
8400.4, 2.3062e-07
8402.4, 2.2945e-07
8404.4, 2.0197e-07
8406.4, 2.6448e-07
8408.4, 2.616e-07
8410.4, 2.5868e-07
8412.4, 2.4873e-07
8414.4, 2.0618e-07
8416.4, 2.5413e-07
8418.4, 2.4003e-07
8420.4, 2.1481e-07
8422.4, 2.2656e-07
8424.4, 2.0099e-07
8426.4, 2.118e-07
8428.4, 2.4008e-07
8430.4, 2.2164e-07
8432.4, 2.3636e-07
8434.4, 2.0518e-07
8436.4, 1.9865e-07
8438.4, 2.8347e-07
8440.4, 2.0336e-07
8442.4, 2.3364e-07
8444.4, 2.0132e-07
8446.4, 2.1007e-07
8448.4, 2.2245e-07
8450.4, 2.8276e-07
8452.4, 2.2294e-07
8454.4, 2.2314e-07
8456.4, 2.5093e-07
8458.4, 2.3675e-07
8460.5, 2.5741e-07
8462.5, 2.1479e-07
8464.5, 2.6981e-07
8466.5, 2.4625e-07
8468.5, 2.4049e-07
8470.5, 2.203e-07
8472.5, 2.02e-07
8474.5, 2.4367e-07
8476.5, 2.3048e-07
8478.5, 2.2531e-07
8480.5, 2.7271e-07
8482.5, 2.8886e-07
8484.5, 2.3867e-07
8486.5, 2.5236e-07
8488.5, 2.8592e-07
8490.5, 2.2243e-07
8492.5, 2.3382e-07
8494.5, 2.4108e-07
8496.5, 2.2218e-07
8498.5, 2.4952e-07
8500.5, 2.5245e-07
8502.5, 2.6462e-07
8504.5, 2.5997e-07
8506.5, 2.6013e-07
8508.5, 2.7348e-07
8510.5, 2.5291e-07
8512.5, 2.8428e-07
8514.5, 2.2392e-07
8516.5, 2.3177e-07
8518.5, 2.7674e-07
8520.5, 2.4999e-07
8522.5, 2.1282e-07
8524.5, 2.4637e-07
8526.5, 5.812e-08
8528.5, -2.201e-08
8530.5, -2.477e-08
8532.5, -1.955e-08
8534.5, -2.019e-08
8536.5, -2.309e-08
8538.5, -2.054e-08
8540.5, -1.941e-08
8542.5, -2.441e-08
8544.5, -1.853e-08
8546.5, -1.794e-08
8548.5, -2.089e-08
8550.5, -1.747e-08
8552.5, -1.862e-08
8554.5, -1.649e-08
8556.5, -2.506e-08
8558.5, -1.975e-08
8560.6, -2.302e-08
8562.6, -2.412e-08
8564.6, -2.207e-08
8566.6, -2.267e-08
8568.6, -2.601e-08
8570.6, -2.676e-08
8572.6, -2.344e-08
8574.6, -2.225e-08
8576.6, -2.514e-08
8578.6, -2.217e-08
8580.6, -2.192e-08
8582.6, -2.165e-08
8584.6, -1.909e-08
8586.6, -2.406e-08
8588.6, -2.474e-08
8590.6, -2.495e-08
8592.6, -2.636e-08
8594.6, -2.391e-08
8596.6, -2.512e-08
8598.6, -2.922e-08
8600.6, -2.587e-08
8602.6, -2.674e-08
8604.6, -2.858e-08
8606.6, -2.8e-08
8608.6, -2.719e-08
8610.6, -2.309e-08
8612.6, -2.214e-08
8614.6, -2.458e-08
8616.6, -2.184e-08
8618.6, -2.348e-08
8620.6, -2.184e-08
8622.6, -2.307e-08
8624.6, -2.262e-08
8626.6, -2.102e-08
8628.6, -2.264e-08
8630.6, -2.048e-08
8632.6, -2.313e-08
8634.6, -2.646e-08
8636.6, -2.224e-08
8638.6, -1.964e-08
8640.6, -2.009e-08
8642.6, -1.821e-08
8644.6, -2.162e-08
8646.6, -2.408e-08
8648.6, -2.304e-08
8650.6, -2.191e-08
8652.6, -2.218e-08
8654.6, -2.474e-08
8656.6, -2.344e-08
8658.6, -2.014e-08
8660.7, -2.163e-08
8662.7, -1.87e-08
8664.7, -1.87e-08
8666.7, -1.826e-08
8668.7, -1.9e-08
8670.7, -2.162e-08
8672.7, -2.249e-08
8674.7, -2.324e-08
8676.7, -2.157e-08
8678.7, -2.266e-08
8680.7, -2.074e-08
8682.7, -1.798e-08
8684.7, -1.899e-08
8686.7, -2.122e-08
8688.7, -2.406e-08
8690.7, -1.724e-08
8692.7, -1.979e-08
8694.7, -1.992e-08
8696.7, -1.73e-08
8698.7, -1.854e-08
8700.7, -1.963e-08
8702.7, -1.948e-08
8704.7, -2.175e-08
8706.7, -2.376e-08
8708.7, -2.033e-08
8710.7, -1.967e-08
8712.7, -2.112e-08
8714.7, -2.137e-08
8716.7, -2.17e-08
8718.7, -2.24e-08
8720.7, -1.955e-08
8722.7, -1.882e-08
8724.7, -2.098e-08
8726.7, -1.542e-08
8728.7, -1.907e-08
8730.7, -1.75e-08
8732.7, -2.041e-08
8734.7, -2.093e-08
8736.7, -1.999e-08
8738.7, -1.83e-08
8740.7, -1.882e-08
8742.7, -2.091e-08
8744.7, -1.941e-08
8746.7, -2.044e-08
8748.7, -2.343e-08
8750.7, -1.952e-08
8752.7, -1.664e-08
8754.7, -1.804e-08
8756.7, -1.686e-08
8758.7, -1.745e-08
8760.8, -1.56e-08
8762.8, -1.906e-08
8764.8, -2.138e-08
8766.8, -2.154e-08
8768.8, -2.066e-08
8770.8, -2.026e-08
8772.8, -1.965e-08
8774.8, -1.833e-08
8776.8, -2.335e-08
8778.8, -2.361e-08
8780.8, -2.242e-08
8782.8, -2.33e-08
8784.8, -2.416e-08
8786.8, -2.42e-08
8788.8, -2.167e-08
8790.8, -2.121e-08
8792.8, -2.085e-08
8794.8, -1.626e-08
8796.8, -1.935e-08
8798.8, -1.883e-08
8800.8, -1.976e-08
8802.8, -1.686e-08
8804.8, -1.47e-08
8806.8, -1.772e-08
8808.8, -1.875e-08
8810.8, -1.76e-08
8812.8, -1.895e-08
8814.8, -2.178e-08
8816.8, -2.015e-08
8818.8, -1.693e-08
8820.8, -2.221e-08
8822.8, -1.886e-08
8824.8, -1.745e-08
8826.8, -1.814e-08
8828.8, -1.491e-08
8830.8, -2.069e-08
8832.8, -1.754e-08
8834.8, -1.956e-08
8836.8, -1.946e-08
8838.8, -1.703e-08
8840.8, -1.906e-08
8842.8, -1.885e-08
8844.8, -1.616e-08
8846.8, -1.593e-08
8848.8, -1.709e-08
8850.8, -1.989e-08
8852.8, -1.992e-08
8854.8, -1.791e-08
8856.8, -1.995e-08
8858.8, -1.584e-08
8860.9, -1.771e-08
8862.9, -1.99e-08
8864.9, -2.012e-08
8866.9, -2.146e-08
8868.9, -1.958e-08
8870.9, -2.149e-08
8872.9, -2.017e-08
8874.9, -2.146e-08
8876.9, -1.725e-08
8878.9, -1.947e-08
8880.9, -1.633e-08
8882.9, -1.854e-08
8884.9, -2.161e-08
8886.9, -1.917e-08
8888.9, -2.258e-08
8890.9, -1.788e-08
8892.9, -2.133e-08
8894.9, -2.272e-08
8896.9, -2.233e-08
8898.9, -2.255e-08
8900.9, -2.541e-08
8902.9, -2.072e-08
8904.9, -1.712e-08
8906.9, -1.675e-08
8908.9, -2.046e-08
8910.9, -2.4e-08
8912.9, -2.162e-08
8914.9, -2.43e-08
8916.9, -2.664e-08
8918.9, -2.359e-08
8920.9, -2.111e-08
8922.9, -2.174e-08
8924.9, -1.822e-08
8926.9, -1.873e-08
8928.9, -2.274e-08
8930.9, -2.315e-08
8932.9, -1.901e-08
8934.9, -1.761e-08
8936.9, -1.925e-08
8938.9, -2.14e-08
8940.9, -2.106e-08
8942.9, -2.47e-08
8944.9, -2.199e-08
8946.9, -1.822e-08
8948.9, -1.697e-08
8950.9, -1.826e-08
8952.9, -1.741e-08
8954.9, -1.893e-08
8956.9, -2.152e-08
8958.9, -2.018e-08
8961.0, -1.706e-08
8963.0, -1.943e-08
8965.0, -1.902e-08
8967.0, -2.203e-08
8969.0, -1.679e-08
8971.0, -1.989e-08
8973.0, -2.028e-08
8975.0, -2.229e-08
8977.0, -2.292e-08
8979.0, -2.002e-08
8981.0, -2.396e-08
8983.0, -2.195e-08
8985.0, -2.261e-08
8987.0, -2.314e-08
8989.0, -2.525e-08
8991.0, -2.154e-08
8993.0, -2.268e-08
8995.0, -2.018e-08
8997.0, -2.59e-08
8999.0, -2.278e-08
9001.0, -2.412e-08
9003.0, -2.558e-08
9005.0, -2.287e-08
9007.0, -2.367e-08
9009.0, -2.195e-08
9011.0, -1.733e-08
9013.0, -1.878e-08
9015.0, -2.107e-08
9017.0, -2.09e-08
9019.0, -1.853e-08
9021.0, -2.114e-08
9023.0, -1.981e-08
9025.0, -2.118e-08
9027.0, -2.215e-08
9029.0, -2.18e-08
9031.0, -2.399e-08
9033.0, -1.884e-08
9035.0, -2.003e-08
9037.0, -2.253e-08
9039.0, -2.284e-08
9041.0, -1.79e-08
9043.0, -1.872e-08
9045.0, -1.847e-08
9047.0, -2.119e-08
9049.0, -1.869e-08
9051.0, -1.902e-08
9053.0, -1.499e-08
9055.0, -1.298e-08
9057.0, -1.944e-08
9059.0, -1.941e-08
9061.1, -1.804e-08
9063.1, -2.029e-08
9065.1, -2.002e-08
9067.1, -2.144e-08
9069.1, -2.028e-08
9071.1, -2.049e-08
9073.1, -1.897e-08
9075.1, -1.76e-08
9077.1, -1.867e-08
9079.1, -1.801e-08
9081.1, -2.198e-08
9083.1, -1.894e-08
9085.1, -1.724e-08
9087.1, -2.081e-08
9089.1, -1.968e-08
9091.1, -1.995e-08
9093.1, -2.102e-08
9095.1, -1.922e-08
9097.1, -2.421e-08
9099.1, -2.102e-08
9101.1, -1.913e-08
9103.1, -2.316e-08
9105.1, -1.879e-08
9107.1, -2.228e-08
9109.1, -2.065e-08
9111.1, -2.283e-08
9113.1, -2.136e-08
9115.1, -2.406e-08
9117.1, -2.488e-08
9119.1, -2.023e-08
9121.1, -2.181e-08
9123.1, -2.314e-08
9125.1, -2.2e-08
9127.1, -2.463e-08
9129.1, -2.245e-08
9131.1, -1.847e-08
9133.1, -1.824e-08
9135.1, -2.095e-08
9137.1, -2.42e-08
9139.1, -1.836e-08
9141.1, -2.089e-08
9143.1, -2.017e-08
9145.1, -1.956e-08
9147.1, -2.318e-08
9149.1, -2.327e-08
9151.1, -2.382e-08
9153.1, -2.078e-08
9155.1, -2.145e-08
9157.1, -1.971e-08
9159.1, -2.303e-08
9161.2, -2.33e-08
9163.2, -1.882e-08
9165.2, -1.885e-08
9167.2, -2.036e-08
9169.2, -1.824e-08
9171.2, -1.997e-08
9173.2, -2.267e-08
9175.2, -2.118e-08
9177.2, -2.267e-08
9179.2, -2.172e-08
9181.2, -2.119e-08
9183.2, -1.773e-08
9185.2, -2.163e-08
9187.2, -2.332e-08
9189.2, -2.368e-08
9191.2, -2.03e-08
9193.2, -1.793e-08
9195.2, -2.449e-08
9197.2, -2.267e-08
9199.2, -2.185e-08
9201.2, -2.342e-08
9203.2, -2.35e-08
9205.2, -2.048e-08
9207.2, -1.955e-08
9209.2, -2.263e-08
9211.2, -1.8e-08
9213.2, -1.981e-08
9215.2, -1.99e-08
9217.2, -2.356e-08
9219.2, -2.16e-08
9221.2, -2.099e-08
9223.2, -2.129e-08
9225.2, -1.797e-08
9227.2, -2.114e-08
9229.2, -1.997e-08
9231.2, -2.114e-08
9233.2, -1.602e-08
9235.2, -1.961e-08
9237.2, -2.321e-08
9239.2, -2.074e-08
9241.2, -2.151e-08
9243.2, -2.154e-08
9245.2, -1.764e-08
9247.2, -1.914e-08
9249.2, -1.757e-08
9251.2, -2.107e-08
9253.2, -2.172e-08
9255.2, -2.222e-08
9257.2, -2.322e-08
9259.2, -2.288e-08
9261.3, -2.12e-08
9263.3, -1.963e-08
9265.3, -1.766e-08
9267.3, -1.993e-08
9269.3, -1.963e-08
9271.3, -2.146e-08
9273.3, -1.79e-08
9275.3, -2.163e-08
9277.3, -2.082e-08
9279.3, -1.971e-08
9281.3, -1.818e-08
9283.3, -1.88e-08
9285.3, -2.026e-08
9287.3, -2.233e-08
9289.3, -2.445e-08
9291.3, -2.335e-08
9293.3, -2.372e-08
9295.3, -2.416e-08
9297.3, -2.464e-08
9299.3, -2.189e-08
9301.3, -2.128e-08
9303.3, -2.283e-08
9305.3, -1.885e-08
9307.3, -2.281e-08
9309.3, -2.004e-08
9311.3, -2.367e-08
9313.3, -2.193e-08
9315.3, -2.072e-08
9317.3, -2.198e-08
9319.3, -2.014e-08
9321.3, -1.935e-08
9323.3, -2.337e-08
9325.3, -2.065e-08
9327.3, -2.111e-08
9329.3, -2.112e-08
9331.3, -1.724e-08
9333.3, -1.837e-08
9335.3, -2.045e-08
9337.3, -2.153e-08
9339.3, -2.044e-08
9341.3, -2.145e-08
9343.3, -1.822e-08
9345.3, -2.008e-08
9347.3, -1.967e-08
9349.3, -1.906e-08
9351.3, -1.695e-08
9353.3, -1.668e-08
9355.3, -1.796e-08
9357.3, -1.7e-08
9359.3, -1.736e-08
9361.4, -1.509e-08
9363.4, -1.599e-08
9365.4, -1.905e-08
9367.4, -1.685e-08
9369.4, -2.026e-08
9371.4, -2.113e-08
9373.4, -1.99e-08
9375.4, -1.996e-08
9377.4, -2.119e-08
9379.4, -2.35e-08
9381.4, -2.358e-08
9383.4, -2.112e-08
9385.4, -1.838e-08
9387.4, -2.017e-08
9389.4, -1.948e-08
9391.4, -1.771e-08
9393.4, -2.034e-08
9395.4, -2.285e-08
9397.4, -1.804e-08
9399.4, -2.085e-08
9401.4, -2.007e-08
9403.4, -1.821e-08
9405.4, -1.943e-08
9407.4, -2.136e-08
9409.4, -2.023e-08
9411.4, -1.886e-08
9413.4, -1.82e-08
9415.4, -1.784e-08
9417.4, -1.609e-08
9419.4, -1.769e-08
9421.4, -1.302e-08
9423.4, -1.445e-08
9425.4, -1.413e-08
9427.4, -1.307e-08
9429.4, -1.556e-08
9431.4, -1.811e-08
9433.4, -1.754e-08
9435.4, -1.595e-08
9437.4, -1.528e-08
9439.4, -1.794e-08
9441.4, -1.727e-08
9443.4, -1.699e-08
9445.4, -2.021e-08
9447.4, -1.711e-08
9449.4, -1.824e-08
9451.4, -1.96e-08
9453.4, -1.987e-08
9455.4, -1.767e-08
9457.4, -1.604e-08
9459.4, -2.067e-08
9461.5, -1.923e-08
9463.5, -1.956e-08
9465.5, -1.817e-08
9467.5, -1.728e-08
9469.5, -2.311e-08
9471.5, -2.182e-08
9473.5, -2.008e-08
9475.5, -2.031e-08
9477.5, -2.365e-08
9479.5, -2.353e-08
9481.5, -2.226e-08
9483.5, -2.197e-08
9485.5, -1.634e-08
9487.5, -1.943e-08
9489.5, -1.929e-08
9491.5, -1.469e-08
9493.5, -1.616e-08
9495.5, -2.074e-08
9497.5, -2.199e-08
9499.5, -1.689e-08
9501.5, -1.799e-08
9503.5, -2.137e-08
9505.5, -1.887e-08
9507.5, -1.905e-08
9509.5, -1.839e-08
9511.5, -2.378e-08
9513.5, -2.707e-08
9515.5, -2.525e-08
9517.5, -2.249e-08
9519.5, -2.425e-08
9521.5, -2.304e-08
9523.5, -2.291e-08
9525.5, -2.278e-08
9527.5, -2.694e-08
9529.5, -2.493e-08
9531.5, -2.516e-08
9533.5, -2.153e-08
9535.5, -1.925e-08
9537.5, -2.424e-08
9539.5, -2.393e-08
9541.5, -2.149e-08
9543.5, -2.068e-08
9545.5, -2.028e-08
9547.5, -1.828e-08
9549.5, -1.943e-08
9551.5, -1.659e-08
9553.5, -1.925e-08
9555.5, -2.22e-08
9557.5, -2.152e-08
9559.5, -2.295e-08
9561.6, -2.108e-08
9563.6, -1.674e-08
9565.6, -1.84e-08
9567.6, -1.459e-08
9569.6, -1.421e-08
9571.6, -1.55e-08
9573.6, -1.528e-08
9575.6, -2.05e-08
9577.6, -1.796e-08
9579.6, -1.745e-08
9581.6, -2.03e-08
9583.6, -1.68e-08
9585.6, -1.705e-08
9587.6, -1.617e-08
9589.6, -1.898e-08
9591.6, -1.806e-08
9593.6, -1.589e-08
9595.6, -1.851e-08
9597.6, -2.182e-08
9599.6, -1.517e-08
9601.6, -1.745e-08
9603.6, -1.851e-08
9605.6, -1.425e-08
9607.6, -1.698e-08
9609.6, -1.383e-08
9611.6, -1.602e-08
9613.6, -1.512e-08
9615.6, -1.824e-08
9617.6, -1.89e-08
9619.6, -1.601e-08
9621.6, -1.71e-08
9623.6, -1.243e-08
9625.6, -1.482e-08
9627.6, -1.518e-08
9629.6, -1.766e-08
9631.6, -1.356e-08
9633.6, -1.809e-08
9635.6, -1.648e-08
9637.6, -2.196e-08
9639.6, -1.807e-08
9641.6, -2.203e-08
9643.6, -1.696e-08
9645.6, -1.987e-08
9647.6, -1.691e-08
9649.6, -1.846e-08
9651.6, -1.868e-08
9653.6, -1.201e-08
9655.6, -1.395e-08
9657.6, -1.823e-08
9659.6, -1.963e-08
9661.7, -1.877e-08
9663.7, -1.841e-08
9665.7, -1.736e-08
9667.7, -1.889e-08
9669.7, -1.928e-08
9671.7, -1.715e-08
9673.7, -1.724e-08
9675.7, -1.687e-08
9677.7, -1.743e-08
9679.7, -1.772e-08
9681.7, -1.287e-08
9683.7, -1.503e-08
9685.7, -2.147e-08
9687.7, -1.831e-08
9689.7, -1.897e-08
9691.7, -1.961e-08
9693.7, -1.642e-08
9695.7, -1.788e-08
9697.7, -1.562e-08
9699.7, -1.597e-08
9701.7, -1.584e-08
9703.7, -1.545e-08
9705.7, -1.319e-08
9707.7, -1.566e-08
9709.7, -1.56e-08
9711.7, -1.501e-08
9713.7, -1.838e-08
9715.7, -1.502e-08
9717.7, -2.056e-08
9719.7, -1.949e-08
9721.7, -1.942e-08
9723.7, -1.381e-08
9725.7, -1.514e-08
9727.7, -1.674e-08
9729.7, -1.771e-08
9731.7, -1.539e-08
9733.7, -1.549e-08
9735.7, -1.302e-08
9737.7, -1.582e-08
9739.7, -1.596e-08
9741.7, -1.91e-08
9743.7, -1.624e-08
9745.7, -1.531e-08
9747.7, -2.018e-08
9749.7, -2.106e-08
9751.7, -1.714e-08
9753.7, -1.853e-08
9755.7, -1.657e-08
9757.7, -1.561e-08
9759.7, -1.713e-08
9761.8, -1.887e-08
9763.8, -2.194e-08
9765.8, -1.535e-08
9767.8, -1.968e-08
9769.8, -1.748e-08
9771.8, -1.626e-08
9773.8, -1.67e-08
9775.8, -1.561e-08
9777.8, -1.483e-08
9779.8, -1.887e-08
9781.8, -1.599e-08
9783.8, -1.741e-08
9785.8, -1.919e-08
9787.8, -1.66e-08
9789.8, -1.47e-08
9791.8, -1.714e-08
9793.8, -1.626e-08
9795.8, -1.266e-08
9797.8, -1.534e-08
9799.8, -1.643e-08
9801.8, -1.348e-08
9803.8, -1.273e-08
9805.8, -1.857e-08
9807.8, -1.815e-08
9809.8, -1.862e-08
9811.8, -1.974e-08
9813.8, -1.515e-08
9815.8, -1.429e-08
9817.8, -1.667e-08
9819.8, -1.573e-08
9821.8, -1.443e-08
9823.8, -1.498e-08
9825.8, -1.504e-08
9827.8, -1.535e-08
9829.8, -1.663e-08
9831.8, -1.393e-08
9833.8, -1.736e-08
9835.8, -1.63e-08
9837.8, -1.422e-08
9839.8, -1.571e-08
9841.8, -1.889e-08
9843.8, -1.698e-08
9845.8, -1.897e-08
9847.8, -1.855e-08
9849.8, -1.635e-08
9851.8, -1.845e-08
9853.8, -1.837e-08
9855.8, -1.491e-08
9857.8, -1.801e-08
9859.8, -2.023e-08
9861.9, -2.284e-08
9863.9, -1.595e-08
9865.9, -1.596e-08
9867.9, -2.147e-08
9869.9, -1.941e-08
9871.9, -2.203e-08
9873.9, -1.935e-08
9875.9, -1.932e-08
9877.9, -1.921e-08
9879.9, -1.967e-08
9881.9, -2.249e-08
9883.9, -2.191e-08
9885.9, -1.789e-08
9887.9, -2.318e-08
9889.9, -2.254e-08
9891.9, -2.102e-08
9893.9, -2.172e-08
9895.9, -1.986e-08
9897.9, -2.064e-08
9899.9, -2.084e-08
9901.9, -2.342e-08
9903.9, -2.017e-08
9905.9, -2.14e-08
9907.9, -2.111e-08
9909.9, -1.936e-08
9911.9, -1.899e-08
9913.9, -1.981e-08
9915.9, -2.054e-08
9917.9, -2.023e-08
9919.9, -2.152e-08
9921.9, -1.881e-08
9923.9, -2.207e-08
9925.9, -2.085e-08
9927.9, -1.934e-08
9929.9, -2.293e-08
9931.9, -1.982e-08
9933.9, -1.824e-08
9935.9, -2.242e-08
9937.9, -1.919e-08
9939.9, -1.823e-08
9941.9, -1.536e-08
9943.9, -1.875e-08
9945.9, -1.592e-08
9947.9, -1.788e-08
9949.9, -1.802e-08
9951.9, -1.839e-08
9953.9, -1.939e-08
9955.9, -1.842e-08
9957.9, -1.926e-08
9959.9, -1.954e-08
9962.0, -1.906e-08
9964.0, -1.678e-08
9966.0, -1.778e-08
9968.0, -1.565e-08
9970.0, -1.671e-08
9972.0, -1.536e-08
9974.0, -1.639e-08
9976.0, -1.403e-08
9978.0, -1.467e-08
9980.0, -1.873e-08
9982.0, -2.016e-08
9984.0, -2.152e-08
9986.0, -2.169e-08
9988.0, -2.367e-08
9990.0, -2.035e-08
9992.0, -1.805e-08
9994.0, -1.827e-08
9996.0, -2.319e-08
9998.0, -1.823e-08
10000.0, -1.533e-08
10002.0, -2.087e-08
10004.0, -1.588e-08
10006.0, -1.964e-08
10008.0, -2.114e-08
