Time sep (ms?), Current (A)
0.0, -3.266e-08
2.002, -3.351e-08
4.004, -3.252e-08
6.006, -3.315e-08
8.008, -3.396e-08
10.01, -3.769e-08
12.012, -3.227e-08
14.014, -3.888e-08
16.016, -3.774e-08
18.018, -3.522e-08
20.02, -3.351e-08
22.022, -3.439e-08
24.024, -3.585e-08
26.026, -2.93e-08
28.028, -3.158e-08
30.03, -3.49e-08
32.032, -3.58e-08
34.034, -3.732e-08
36.036, -3.618e-08
38.038, -3.648e-08
40.04, -3.729e-08
42.042, -3.973e-08
44.044, -3.964e-08
46.046, -3.772e-08
48.048, -3.486e-08
50.05, -3.613e-08
52.052, -3.677e-08
54.054, -3.896e-08
56.056, -4.038e-08
58.058, -3.712e-08
60.06, -3.792e-08
62.062, -3.842e-08
64.064, -4.016e-08
66.066, -3.852e-08
68.068, -3.849e-08
70.07, -3.613e-08
72.072, -3.632e-08
74.074, -4.013e-08
76.076, -3.704e-08
78.078, -3.624e-08
80.08, -3.616e-08
82.082, -3.799e-08
84.084, -3.733e-08
86.086, -3.982e-08
88.088, -3.862e-08
90.09, -3.716e-08
92.092, -3.334e-08
94.094, -3.107e-08
96.096, -3.558e-08
98.098, -3.218e-08
100.1, -3.586e-08
102.1, -3.535e-08
104.1, -3.555e-08
106.11, -3.415e-08
108.11, -3.237e-08
110.11, -3.494e-08
112.11, -3.389e-08
114.11, -3.658e-08
116.12, -3.707e-08
118.12, -3.338e-08
120.12, -3.634e-08
122.12, -3.441e-08
124.12, -3.885e-08
126.13, -3.667e-08
128.13, -3.404e-08
130.13, -3.424e-08
132.13, -3.903e-08
134.13, -3.491e-08
136.14, -3.476e-08
138.14, -3.371e-08
140.14, -3.589e-08
142.14, -3.58e-08
144.14, -3.113e-08
146.15, -3.137e-08
148.15, -2.791e-08
150.15, -3.31e-08
152.15, -3.037e-08
154.15, -3.191e-08
156.16, -3.137e-08
158.16, -3.052e-08
160.16, -3.33e-08
162.16, -3.646e-08
164.16, -3.353e-08
166.17, -3.111e-08
168.17, -3.543e-08
170.17, -3.264e-08
172.17, -3.653e-08
174.17, -3.055e-08
176.18, -3.175e-08
178.18, -3.274e-08
180.18, -3.024e-08
182.18, -3.122e-08
184.18, -3.166e-08
186.19, -3.644e-08
188.19, -3.586e-08
190.19, -3.332e-08
192.19, -3.187e-08
194.19, -3.428e-08
196.2, -3.365e-08
198.2, -3.391e-08
200.2, -3.212e-08
202.2, -3.582e-08
204.2, -3.258e-08
206.21, -3.382e-08
208.21, -3.64e-08
210.21, -3.41e-08
212.21, -3.581e-08
214.21, -3.734e-08
216.22, -3.835e-08
218.22, -3.803e-08
220.22, -3.894e-08
222.22, -3.701e-08
224.22, -3.861e-08
226.23, -3.611e-08
228.23, -3.624e-08
230.23, -3.474e-08
232.23, -3.948e-08
234.23, -3.968e-08
236.24, -3.24e-08
238.24, -3.216e-08
240.24, -3.275e-08
242.24, -3.449e-08
244.24, -3.764e-08
246.25, -3.786e-08
248.25, -3.513e-08
250.25, -3.488e-08
252.25, -3.6e-08
254.25, -4.009e-08
256.26, -3.3e-08
258.26, -3.436e-08
260.26, -3.514e-08
262.26, -3.397e-08
264.26, -3.561e-08
266.27, -3.649e-08
268.27, -3.984e-08
270.27, -3.653e-08
272.27, -3.607e-08
274.27, -3.504e-08
276.28, -3.758e-08
278.28, -3.475e-08
280.28, -3.49e-08
282.28, -3.657e-08
284.28, -3.661e-08
286.29, -3.443e-08
288.29, -3.273e-08
290.29, -3.557e-08
292.29, -3.513e-08
294.29, -3.789e-08
296.3, -3.733e-08
298.3, -3.53e-08
300.3, -3.756e-08
302.3, -3.714e-08
304.3, -3.684e-08
306.31, -3.325e-08
308.31, -3.417e-08
310.31, -3.26e-08
312.31, -3.345e-08
314.31, -3.264e-08
316.32, -3.477e-08
318.32, -3.412e-08
320.32, -3.157e-08
322.32, -3.249e-08
324.32, -3.439e-08
326.33, -3.484e-08
328.33, -3.162e-08
330.33, -3.111e-08
332.33, -3.412e-08
334.33, -3.53e-08
336.34, -3.479e-08
338.34, -3.374e-08
340.34, -3.026e-08
342.34, -3.5e-08
344.34, -3.286e-08
346.35, -3.293e-08
348.35, -3.26e-08
350.35, -3.68e-08
352.35, -3.41e-08
354.35, -3.401e-08
356.36, -3.238e-08
358.36, -3.376e-08
360.36, -3.262e-08
362.36, -3.336e-08
364.36, -3.483e-08
366.37, -3.395e-08
368.37, -2.994e-08
370.37, -3.284e-08
372.37, -3.25e-08
374.37, -3.692e-08
376.38, -3.648e-08
378.38, -2.932e-08
380.38, -3.502e-08
382.38, -3.096e-08
384.38, -2.971e-08
386.39, -3.127e-08
388.39, -3.1e-08
390.39, -2.896e-08
392.39, -2.835e-08
394.39, -3.133e-08
396.4, -3.045e-08
398.4, -3.241e-08
400.4, -3.611e-08
402.4, -3.681e-08
404.4, -3.699e-08
406.41, -3.828e-08
408.41, -3.836e-08
410.41, -3.708e-08
412.41, -3.699e-08
414.41, -3.51e-08
416.42, -3.486e-08
418.42, -3.608e-08
420.42, -2.973e-08
422.42, -3.474e-08
424.42, -3.487e-08
426.43, -3.46e-08
428.43, -3.714e-08
430.43, -3.532e-08
432.43, -3.566e-08
434.43, -3.487e-08
436.44, -3.265e-08
438.44, -3.309e-08
440.44, -3.88e-08
442.44, -3.802e-08
444.44, -3.873e-08
446.45, -3.639e-08
448.45, -3.627e-08
450.45, -3.62e-08
452.45, -3.674e-08
454.45, -3.848e-08
456.46, -3.973e-08
458.46, -3.536e-08
460.46, -3.651e-08
462.46, -3.732e-08
464.46, -4.001e-08
466.47, -3.811e-08
468.47, -3.891e-08
470.47, -4.065e-08
472.47, -4.217e-08
474.47, -3.766e-08
476.48, -3.406e-08
478.48, -3.888e-08
480.48, -3.649e-08
482.48, -3.87e-08
484.48, -3.712e-08
486.49, -3.382e-08
488.49, -3.562e-08
490.49, -3.973e-08
492.49, -3.779e-08
494.49, -3.862e-08
496.5, -3.806e-08
498.5, -3.323e-08
500.5, -3.31e-08
502.5, -3.577e-08
504.5, -3.161e-08
506.51, -3.556e-08
508.51, -3.775e-08
510.51, -3.578e-08
512.51, -3.725e-08
514.51, -3.794e-08
516.52, -3.679e-08
518.52, -3.904e-08
520.52, -4.176e-08
522.52, -4.091e-08
524.52, -3.664e-08
526.53, -3.659e-08
528.53, -3.374e-08
530.53, -3.597e-08
532.53, -3.479e-08
534.53, -3.125e-08
536.54, -3.971e-08
538.54, -3.684e-08
540.54, -3.601e-08
542.54, -3.388e-08
544.54, -3.656e-08
546.55, -3.49e-08
548.55, -3.498e-08
550.55, -3.132e-08
552.55, -3.57e-08
554.55, -3.227e-08
556.56, -3.672e-08
558.56, -3.304e-08
560.56, -3.475e-08
562.56, -3.355e-08
564.56, -3.24e-08
566.57, -3.583e-08
568.57, -3.579e-08
570.57, -3.518e-08
572.57, -3.66e-08
574.57, -3.492e-08
576.58, -3.627e-08
578.58, -3.872e-08
580.58, -3.829e-08
582.58, -3.827e-08
584.58, -3.582e-08
586.59, -3.583e-08
588.59, -3.468e-08
590.59, -3.459e-08
592.59, -3.835e-08
594.59, -3.677e-08
596.6, -3.52e-08
598.6, -3.612e-08
600.6, -3.209e-08
602.6, -3.433e-08
604.6, -3.213e-08
606.61, -3.547e-08
608.61, -3.261e-08
610.61, -3.756e-08
612.61, -3.686e-08
614.61, -3.975e-08
616.62, -3.756e-08
618.62, -3.35e-08
620.62, -3.772e-08
622.62, -3.825e-08
624.62, -3.6e-08
626.63, -3.542e-08
628.63, -3.348e-08
630.63, -4.057e-08
632.63, -3.711e-08
634.63, -3.94e-08
636.64, -3.967e-08
638.64, -3.685e-08
640.64, -3.493e-08
642.64, -3.537e-08
644.64, -3.824e-08
646.65, -3.683e-08
648.65, -3.454e-08
650.65, -3.562e-08
652.65, -3.45e-08
654.65, -3.592e-08
656.66, -3.511e-08
658.66, -3.461e-08
660.66, -3.941e-08
662.66, -3.779e-08
664.66, -3.684e-08
666.67, -3.63e-08
668.67, -3.136e-08
670.67, -3.488e-08
672.67, -3.62e-08
674.67, -3.268e-08
676.68, -3.271e-08
678.68, -3.565e-08
680.68, -3.765e-08
682.68, -3.808e-08
684.68, -3.532e-08
686.69, -3.48e-08
688.69, -3.551e-08
690.69, -3.949e-08
692.69, -3.675e-08
694.69, -3.91e-08
696.7, -3.916e-08
698.7, -3.884e-08
700.7, -3.811e-08
702.7, -3.809e-08
704.7, -4.01e-08
706.71, -4.111e-08
708.71, -4.002e-08
710.71, -3.707e-08
712.71, -3.77e-08
714.71, -3.801e-08
716.72, -3.538e-08
718.72, -3.777e-08
720.72, -3.906e-08
722.72, -4.182e-08
724.72, -3.805e-08
726.73, -3.294e-08
728.73, -4.084e-08
730.73, -3.76e-08
732.73, -3.565e-08
734.73, -4.101e-08
736.74, -3.746e-08
738.74, -3.804e-08
740.74, -3.733e-08
742.74, -4.195e-08
744.74, -4.138e-08
746.75, -4.071e-08
748.75, -4.169e-08
750.75, -3.962e-08
752.75, -4.229e-08
754.75, -3.968e-08
756.76, -3.78e-08
758.76, -3.505e-08
760.76, -3.982e-08
762.76, -4.046e-08
764.76, -3.5e-08
766.77, -3.7e-08
768.77, -3.821e-08
770.77, -3.774e-08
772.77, -3.971e-08
774.77, -3.97e-08
776.78, -3.898e-08
778.78, -3.818e-08
780.78, -4.062e-08
782.78, -3.897e-08
784.78, -3.941e-08
786.79, -3.923e-08
788.79, -3.475e-08
790.79, -3.308e-08
792.79, -3.548e-08
794.79, -3.701e-08
796.8, -3.915e-08
798.8, -3.72e-08
800.8, -3.395e-08
802.8, -3.703e-08
804.8, -3.949e-08
806.81, -3.814e-08
808.81, -3.707e-08
810.81, -3.761e-08
812.81, -3.965e-08
814.81, -3.723e-08
816.82, -3.677e-08
818.82, -3.418e-08
820.82, -3.7e-08
822.82, -3.588e-08
824.82, -3.917e-08
826.83, -3.923e-08
828.83, -3.781e-08
830.83, -4.029e-08
832.83, -4.262e-08
834.83, -4.26e-08
836.84, -4.402e-08
838.84, -4.116e-08
840.84, -4.073e-08
842.84, -3.924e-08
844.84, -3.92e-08
846.85, -4e-08
848.85, -3.861e-08
850.85, -3.734e-08
852.85, -3.692e-08
854.85, -4.445e-08
856.86, -3.835e-08
858.86, -3.747e-08
860.86, -3.626e-08
862.86, -3.897e-08
864.86, -4.053e-08
866.87, -4.112e-08
868.87, -4.031e-08
870.87, -3.989e-08
872.87, -4.291e-08
874.87, -4.226e-08
876.88, -3.904e-08
878.88, -3.906e-08
880.88, -3.906e-08
882.88, -3.871e-08
884.88, -3.722e-08
886.89, -4.026e-08
888.89, -3.764e-08
890.89, -4.132e-08
892.89, -4.363e-08
894.89, -4.073e-08
896.9, -3.79e-08
898.9, -3.917e-08
900.9, -3.944e-08
902.9, -4.284e-08
904.9, -4.289e-08
906.91, -4.241e-08
908.91, -4.11e-08
910.91, -4.336e-08
912.91, -4.186e-08
914.91, -4.181e-08
916.92, -3.957e-08
918.92, -3.781e-08
920.92, -4.046e-08
922.92, -4.037e-08
924.92, -3.54e-08
926.93, -3.818e-08
928.93, -3.63e-08
930.93, -4.067e-08
932.93, -4.192e-08
934.93, -4.027e-08
936.94, -4.004e-08
938.94, -4.045e-08
940.94, -4.08e-08
942.94, -4.129e-08
944.94, -3.992e-08
946.95, -4.43e-08
948.95, -4.1e-08
950.95, -4.088e-08
952.95, -3.948e-08
954.95, -3.846e-08
956.96, -3.852e-08
958.96, -3.783e-08
960.96, -3.726e-08
962.96, -3.742e-08
964.96, -4.034e-08
966.97, -3.725e-08
968.97, -3.593e-08
970.97, -4.083e-08
972.97, -3.868e-08
974.97, -4.232e-08
976.98, -4.051e-08
978.98, -3.974e-08
980.98, -4.15e-08
982.98, -3.778e-08
984.98, -4.269e-08
986.99, -3.71e-08
988.99, -4.065e-08
990.99, -3.891e-08
992.99, -3.397e-08
994.99, -3.877e-08
997.0, -3.711e-08
999.0, -3.647e-08
1001.0, -3.691e-08
1003.0, -3.475e-08
1005.0, -3.51e-08
1007.0, -3.689e-08
1009.0, -3.36e-08
1011.0, -3.728e-08
1013.0, -3.831e-08
1015.0, -3.488e-08
1017.0, -3.648e-08
1019.0, -3.841e-08
1021.0, -4.16e-08
1023.0, -3.951e-08
1025.0, -3.789e-08
1027.0, -3.611e-08
1029.0, -3.514e-08
1031.0, -3.763e-08
1033.0, -3.572e-08
1035.0, -3.653e-08
1037.0, -4.045e-08
1039.0, -3.916e-08
1041.0, -3.775e-08
1043.0, -3.694e-08
1045.0, -3.759e-08
1047.0, -3.613e-08
1049.0, -3.826e-08
1051.0, -3.597e-08
1053.1, -3.785e-08
1055.1, -3.912e-08
1057.1, -4.098e-08
1059.1, -3.418e-08
1061.1, -3.845e-08
1063.1, -3.583e-08
1065.1, -3.881e-08
1067.1, -3.872e-08
1069.1, -4.056e-08
1071.1, -3.783e-08
1073.1, -3.785e-08
1075.1, -4.058e-08
1077.1, -3.857e-08
1079.1, -4.423e-08
1081.1, -3.909e-08
1083.1, -4.253e-08
1085.1, -3.742e-08
1087.1, -3.715e-08
1089.1, -3.66e-08
1091.1, -3.77e-08
1093.1, -3.743e-08
1095.1, -3.593e-08
1097.1, -3.76e-08
1099.1, -4.164e-08
1101.1, -3.802e-08
1103.1, -3.389e-08
1105.1, 2.0055e-07
1107.1, 6.963e-07
1109.1, 6.4128e-07
1111.1, 5.2192e-07
1113.1, 4.4055e-07
1115.1, 4.9543e-07
1117.1, 2.9259e-07
1119.1, 4.4547e-07
1121.1, 5.7788e-07
1123.1, 5.5291e-07
1125.1, 2.7497e-07
1127.1, 7.7712e-07
1129.1, 3.3514e-07
1131.1, 6.1065e-07
1133.1, 7.587e-07
1135.1, 4.7377e-07
1137.1, 3.4289e-07
1139.1, 4.7591e-07
1141.1, 4.1206e-07
1143.1, 4.9113e-07
1145.1, 6.1174e-07
1147.1, 7.9678e-07
1149.1, 6.0818e-07
1151.1, 5.0809e-07
1153.2, 5.5803e-07
1155.2, 7.9402e-07
1157.2, 7.5176e-07
1159.2, 5.5923e-07
1161.2, 6.1346e-07
1163.2, 8.4169e-07
1165.2, 7.2102e-07
1167.2, 6.6543e-07
1169.2, 3.8743e-07
1171.2, 4.7571e-07
1173.2, 5.6366e-07
1175.2, 5.2882e-07
1177.2, 7.3915e-07
1179.2, 4.0183e-07
1181.2, 3.9964e-07
1183.2, 6.5194e-07
1185.2, 6.1588e-07
1187.2, 4.3842e-07
1189.2, 5.0168e-07
1191.2, 7.2396e-07
1193.2, 4.7886e-07
1195.2, 9.0888e-07
1197.2, 7.5307e-07
1199.2, 9.9587e-07
1201.2, 4.28e-07
1203.2, 7.11e-07
1205.2, 6.9405e-07
1207.2, 8.1046e-07
1209.2, 7.2968e-07
1211.2, 7.4928e-07
1213.2, 7.4579e-07
1215.2, 5.3408e-07
1217.2, 5.3898e-07
1219.2, 8.799e-07
1221.2, 6.9205e-07
1223.2, 5.77e-07
1225.2, 8.1161e-07
1227.2, 8.4898e-07
1229.2, 5.5363e-07
1231.2, 4.1529e-07
1233.2, 4.7555e-07
1235.2, 4.0449e-07
1237.2, 6.2096e-07
1239.2, 6.8475e-07
1241.2, 5.8158e-07
1243.2, 6.5675e-07
1245.2, 9.2957e-07
1247.2, 4.4658e-07
1249.2, 8.693e-07
1251.2, 8.6716e-07
1253.3, 6.3492e-07
1255.3, 4.0224e-07
1257.3, 5.5528e-07
1259.3, 6.3088e-07
1261.3, 7.2172e-07
1263.3, 6.2247e-07
1265.3, 5.5501e-07
1267.3, 1.0469e-06
1269.3, 6.317e-07
1271.3, 1.026e-06
1273.3, 5.6515e-07
1275.3, 5.601e-07
1277.3, 8.5303e-07
1279.3, 6.6372e-07
1281.3, 6.6607e-07
1283.3, 6.6356e-07
1285.3, 6.265e-07
1287.3, 7.5285e-07
1289.3, 5.4877e-07
1291.3, 6.5297e-07
1293.3, 4.8729e-07
1295.3, 6.4347e-07
1297.3, 7.6868e-07
1299.3, 3.4966e-07
1301.3, 7.0761e-07
1303.3, 6.634e-07
1305.3, 7.0836e-07
1307.3, 8.1867e-07
1309.3, 5.1184e-07
1311.3, 9.734e-07
1313.3, 3.929e-07
1315.3, 6.2764e-07
1317.3, 7.4464e-07
1319.3, 7.0033e-07
1321.3, 6.9307e-07
1323.3, 5.2662e-07
1325.3, 3.1871e-07
1327.3, 8.1796e-07
1329.3, 8.6089e-07
1331.3, 5.439e-07
1333.3, 8.6466e-07
1335.3, 5.737e-07
1337.3, 8.0358e-07
1339.3, 7.0049e-07
1341.3, 7.9897e-07
1343.3, 5.1208e-07
1345.3, 6.7222e-07
1347.3, 6.775e-07
1349.3, 7.2349e-07
1351.3, 8.2214e-07
1353.4, 5.6772e-07
1355.4, 9.5935e-07
1357.4, 1.1696e-06
1359.4, 4.5109e-07
1361.4, 6.173e-07
1363.4, 5.113e-07
1365.4, 8.2047e-07
1367.4, 4.3102e-07
1369.4, 7.8575e-07
1371.4, 9.8879e-07
1373.4, 1.2286e-06
1375.4, 5.8807e-07
1377.4, 6.8889e-07
1379.4, 7.2231e-07
1381.4, 9.9535e-07
1383.4, 6.4668e-07
1385.4, 5.9269e-07
1387.4, 4.7023e-07
1389.4, 8.2016e-07
1391.4, 5.3634e-07
1393.4, 9.4651e-07
1395.4, 7.8104e-07
1397.4, 5.5707e-07
1399.4, 8.162e-07
1401.4, 4.9334e-07
1403.4, 8.4537e-07
1405.4, 5.7065e-07
1407.4, 8.3677e-07
1409.4, 6.7101e-07
1411.4, 4.4105e-07
1413.4, 7.3385e-07
1415.4, 8.4641e-07
1417.4, 6.0035e-07
1419.4, 9.4123e-07
1421.4, 5.8659e-07
1423.4, 1.1414e-06
1425.4, 7.1311e-07
1427.4, 7.8841e-07
1429.4, 9.9441e-07
1431.4, 1.1272e-06
1433.4, 8.408e-07
1435.4, 4.7828e-07
1437.4, 1.0972e-06
1439.4, 8.1549e-07
1441.4, 6.8214e-07
1443.4, 7.2662e-07
1445.4, 7.6541e-07
1447.4, 5.0565e-07
1449.4, 8.8246e-07
1451.4, 7.5999e-07
1453.5, 4.5157e-07
1455.5, 6.2382e-07
1457.5, 7.0646e-07
1459.5, 9.9202e-07
1461.5, 6.9834e-07
1463.5, 8.5682e-07
1465.5, 4.6287e-07
1467.5, 6.1046e-07
1469.5, 6.7196e-07
1471.5, 8.4653e-07
1473.5, 6.7177e-07
1475.5, 8.3497e-07
1477.5, 7.4683e-07
1479.5, 7.1792e-07
1481.5, 5.7614e-07
1483.5, 8.489e-07
1485.5, 5.7594e-07
1487.5, 6.0266e-07
1489.5, 8.3207e-07
1491.5, 5.2382e-07
1493.5, 8.191e-07
1495.5, 9.7187e-07
1497.5, 6.5192e-07
1499.5, 8.051e-07
1501.5, 8.792e-07
1503.5, 6.0061e-07
1505.5, 8.8896e-07
1507.5, 6.7141e-07
1509.5, 7.2472e-07
1511.5, 7.1625e-07
1513.5, 8.7595e-07
1515.5, 5.724e-07
1517.5, 9.8824e-07
1519.5, 8.7736e-07
1521.5, 6.9675e-07
1523.5, 6.3768e-07
1525.5, 8.6625e-07
1527.5, 8.9084e-07
1529.5, 8.4159e-07
1531.5, 6.2629e-07
1533.5, 7.7379e-07
1535.5, 8.1279e-07
1537.5, 9.7289e-07
1539.5, 8.1636e-07
1541.5, 5.8467e-07
1543.5, 4.2612e-07
1545.5, 6.5298e-07
1547.5, 8.9474e-07
1549.5, 9.0646e-07
1551.5, 1.1618e-06
1553.6, 8.1619e-07
1555.6, 7.8796e-07
1557.6, 6.156e-07
1559.6, 1.045e-06
1561.6, 8.6997e-07
1563.6, 7.3437e-07
1565.6, 5.5329e-07
1567.6, 5.1662e-07
1569.6, 9.4787e-07
1571.6, 4.1009e-07
1573.6, 6.4149e-07
1575.6, 1.0128e-06
1577.6, 6.0481e-07
1579.6, 9.3624e-07
1581.6, 5.6909e-07
1583.6, 8.0973e-07
1585.6, 6.473e-07
1587.6, 8.4179e-07
1589.6, 5.5826e-07
1591.6, 9.393e-07
1593.6, 5.0509e-07
1595.6, 6.7898e-07
1597.6, 7.3257e-07
1599.6, 6.2917e-07
1601.6, 8.7692e-07
1603.6, 9.4886e-07
1605.6, 1.0544e-06
1607.6, 7.9297e-07
1609.6, 1.0074e-06
1611.6, 5.3405e-07
1613.6, 8.0721e-07
1615.6, 9.75e-07
1617.6, 9.3231e-07
1619.6, 9.4762e-07
1621.6, 8.4662e-07
1623.6, 4.5985e-07
1625.6, 6.7072e-07
1627.6, 1.1456e-06
1629.6, 7.2468e-07
1631.6, 9.5791e-07
1633.6, 8.1181e-07
1635.6, 8.8349e-07
1637.6, 6.1391e-07
1639.6, 9.4522e-07
1641.6, 7.6199e-07
1643.6, 7.7418e-07
1645.6, 9.9497e-07
1647.6, 6.0948e-07
1649.6, 6.7112e-07
1651.6, 4.5949e-07
1653.7, 6.1302e-07
1655.7, 5.0243e-07
1657.7, 6.7517e-07
1659.7, 1.0793e-06
1661.7, 7.6687e-07
1663.7, 8.1166e-07
1665.7, 8.2137e-07
1667.7, 7.2003e-07
1669.7, 7.9283e-07
1671.7, 6.1582e-07
1673.7, 8.0102e-07
1675.7, 1.1444e-06
1677.7, 7.0656e-07
1679.7, 5.8657e-07
1681.7, 7.2938e-07
1683.7, 4.6966e-07
1685.7, 1.0411e-06
1687.7, 7.2259e-07
1689.7, 8.176e-07
1691.7, 9.6111e-07
1693.7, 1.0537e-06
1695.7, 6.9461e-07
1697.7, 8.7587e-07
1699.7, 9.4719e-07
1701.7, 6.21e-07
1703.7, 8.2232e-07
1705.7, 6.7547e-07
1707.7, 6.629e-07
1709.7, 7.4196e-07
1711.7, 7.6507e-07
1713.7, 6.889e-07
1715.7, 6.6689e-07
1717.7, 7.6332e-07
1719.7, 6.5889e-07
1721.7, 6.7554e-07
1723.7, 5.3608e-07
1725.7, 6.6578e-07
1727.7, 7.4902e-07
1729.7, 1.1211e-06
1731.7, 5.0943e-07
1733.7, 7.5484e-07
1735.7, 8.0739e-07
1737.7, 8.1967e-07
1739.7, 5.4508e-07
1741.7, 9.0903e-07
1743.7, 9.6395e-07
1745.7, 8.0632e-07
1747.7, 5.3567e-07
1749.7, 6.1778e-07
1751.7, 7.0168e-07
1753.8, 6.8615e-07
1755.8, 5.7776e-07
1757.8, 4.8107e-07
1759.8, 8.8671e-07
1761.8, 6.8381e-07
1763.8, 4.9615e-07
1765.8, 9.602e-07
1767.8, 5.8071e-07
1769.8, 1.0175e-06
1771.8, 1.0452e-06
1773.8, 5.635e-07
1775.8, 8.2882e-07
1777.8, 9.0222e-07
1779.8, 7.8471e-07
1781.8, 4.8837e-07
1783.8, 4.4248e-07
1785.8, 7.4123e-07
1787.8, 9.4766e-07
1789.8, 4.9547e-07
1791.8, 8.0026e-07
1793.8, 5.8875e-07
1795.8, 1.0276e-06
1797.8, 1.0584e-06
1799.8, 7.1415e-07
1801.8, 9.9486e-07
1803.8, 9.734e-07
1805.8, 4.2586e-07
1807.8, 9.4178e-07
1809.8, 5.7538e-07
1811.8, 6.3091e-07
1813.8, 7.7422e-07
1815.8, 9.0794e-07
1817.8, 8.1034e-07
1819.8, 7.0001e-07
1821.8, 8.7809e-07
1823.8, 1.0118e-06
1825.8, 6.6091e-07
1827.8, 6.8735e-07
1829.8, 8.2582e-07
1831.8, 9.0441e-07
1833.8, 8.695e-07
1835.8, 7.571e-07
1837.8, 6.8782e-07
1839.8, 8.6568e-07
1841.8, 1.0027e-06
1843.8, 5.3337e-07
1845.8, 9.75e-07
1847.8, 6.942e-07
1849.8, 9.9125e-07
1851.8, 9.8661e-07
1853.9, 7.907e-07
1855.9, 9.2994e-07
1857.9, 9.8549e-07
1859.9, 7.1716e-07
1861.9, 4.4161e-07
1863.9, 6.7277e-07
1865.9, 7.3475e-07
1867.9, 6.0568e-07
1869.9, 9.9949e-07
1871.9, 6.8707e-07
1873.9, 7.4338e-07
1875.9, 5.3641e-07
1877.9, 4.9158e-07
1879.9, 4.761e-07
1881.9, 7.1129e-07
1883.9, 9.0397e-07
1885.9, 1.2647e-06
1887.9, 1.1525e-06
1889.9, 5.8185e-07
1891.9, 6.7827e-07
1893.9, 8.5402e-07
1895.9, 7.2761e-07
1897.9, 3.8121e-07
1899.9, 8.3151e-07
1901.9, 9.2569e-07
1903.9, 6.1602e-07
1905.9, 7.6414e-07
1907.9, 7.1511e-07
1909.9, 5.8783e-07
1911.9, 6.562e-07
1913.9, 1.123e-06
1915.9, 8.1387e-07
1917.9, 7.1301e-07
1919.9, 8.6808e-07
1921.9, 7.8094e-07
1923.9, 6.6599e-07
1925.9, 7.4006e-07
1927.9, 7.4372e-07
1929.9, 8.8598e-07
1931.9, 7.1988e-07
1933.9, 6.6249e-07
1935.9, 9.181e-07
1937.9, 6.2737e-07
1939.9, 9.7066e-07
1941.9, 9.239e-07
1943.9, 6.4025e-07
1945.9, 7.1411e-07
1947.9, 8.4557e-07
1949.9, 8.9031e-07
1951.9, 7.4372e-07
1954.0, 8.5452e-07
1956.0, 7.3179e-07
1958.0, 5.9794e-07
1960.0, 1.4712e-06
1962.0, 7.7867e-07
1964.0, 4.7148e-07
1966.0, 5.0985e-07
1968.0, 7.3658e-07
1970.0, 8.0046e-07
1972.0, 5.7972e-07
1974.0, 1.0309e-06
1976.0, 8.2192e-07
1978.0, 1.0935e-06
1980.0, 7.8152e-07
1982.0, 7.1781e-07
1984.0, 7.1678e-07
1986.0, 6.1313e-07
1988.0, 5.5318e-07
1990.0, 7.0361e-07
1992.0, 1.0436e-06
1994.0, 7.1637e-07
1996.0, 5.6122e-07
1998.0, 7.8517e-07
2000.0, 7.1198e-07
2002.0, 9.0253e-07
2004.0, 5.0768e-07
2006.0, 6.8941e-07
2008.0, 8.3471e-07
2010.0, 6.0642e-07
2012.0, 5.4616e-07
2014.0, 9.2622e-07
2016.0, 1.0001e-06
2018.0, 5.6322e-07
2020.0, 6.3155e-07
2022.0, 7.6644e-07
2024.0, 7.0154e-07
2026.0, 8.4872e-07
2028.0, 9.4394e-07
2030.0, 9.8856e-07
2032.0, 7.1669e-07
2034.0, 8.6545e-07
2036.0, 7.304e-07
2038.0, 6.8149e-07
2040.0, 1.0983e-06
2042.0, 9.7005e-07
2044.0, 1.3457e-06
2046.0, 6.7972e-07
2048.0, 9.1854e-07
2050.0, 1.3915e-06
2052.0, 5.8016e-07
2054.1, 6.1391e-07
2056.1, 7.4071e-07
2058.1, 7.7995e-07
2060.1, 1.0147e-06
2062.1, 8.889e-07
2064.1, 1.1114e-06
2066.1, 1.1375e-06
2068.1, 8.9879e-07
2070.1, 7.4385e-07
2072.1, 9.5072e-07
2074.1, 8.6829e-07
2076.1, 1.0019e-06
2078.1, 1.1049e-06
2080.1, 8.4883e-07
2082.1, 7.9845e-07
2084.1, 9.169e-07
2086.1, 6.7145e-07
2088.1, 7.8267e-07
2090.1, 6.2823e-07
2092.1, 7.1824e-07
2094.1, 6.8306e-07
2096.1, 7.3371e-07
2098.1, 7.9752e-07
2100.1, 9.6474e-07
2102.1, 9.6664e-07
2104.1, 1.1934e-06
2106.1, 3.5239e-07
2108.1, -3.443e-08
2110.1, -3.349e-08
2112.1, -3.338e-08
2114.1, -3.469e-08
2116.1, -3.663e-08
2118.1, -3.696e-08
2120.1, -3.664e-08
2122.1, -3.727e-08
2124.1, -3.497e-08
2126.1, -3.774e-08
2128.1, -3.574e-08
2130.1, -3.434e-08
2132.1, -3.854e-08
2134.1, -3.536e-08
2136.1, -3.649e-08
2138.1, -3.298e-08
2140.1, -3.254e-08
2142.1, -3.41e-08
2144.1, -3.269e-08
2146.1, -3.038e-08
2148.1, -3.22e-08
2150.1, -3.324e-08
2152.1, -3.178e-08
2154.2, -3.489e-08
2156.2, -3.681e-08
2158.2, -3.851e-08
2160.2, -3.413e-08
2162.2, -3.467e-08
2164.2, -3.613e-08
2166.2, -3.317e-08
2168.2, -3.542e-08
2170.2, -3.145e-08
2172.2, -3.514e-08
2174.2, -3.448e-08
2176.2, -3.09e-08
2178.2, -3.286e-08
2180.2, -3.334e-08
2182.2, -3.55e-08
2184.2, -3.744e-08
2186.2, -3.709e-08
2188.2, -3.433e-08
2190.2, -3.695e-08
2192.2, -3.561e-08
2194.2, -3.733e-08
2196.2, -3.438e-08
2198.2, -3.048e-08
2200.2, -3.402e-08
2202.2, -3.681e-08
2204.2, -3.537e-08
2206.2, -3.036e-08
2208.2, -3.204e-08
2210.2, -3.568e-08
2212.2, -3.924e-08
2214.2, -3.966e-08
2216.2, -3.667e-08
2218.2, -3.745e-08
2220.2, -3.804e-08
2222.2, -3.994e-08
2224.2, -3.76e-08
2226.2, -3.914e-08
2228.2, -3.653e-08
2230.2, -3.993e-08
2232.2, -3.91e-08
2234.2, -3.993e-08
2236.2, -3.649e-08
2238.2, -3.341e-08
2240.2, -3.443e-08
2242.2, -3.693e-08
2244.2, -4.145e-08
2246.2, -3.661e-08
2248.2, -3.734e-08
2250.2, -3.699e-08
2252.2, -4.004e-08
2254.3, -4.032e-08
2256.3, -3.965e-08
2258.3, -3.839e-08
2260.3, -3.926e-08
2262.3, -3.984e-08
2264.3, -3.854e-08
2266.3, -3.858e-08
2268.3, -4.28e-08
2270.3, -3.954e-08
2272.3, -3.984e-08
2274.3, -4.429e-08
2276.3, -3.85e-08
2278.3, -3.613e-08
2280.3, -3.438e-08
2282.3, -3.715e-08
2284.3, -3.624e-08
2286.3, -3.695e-08
2288.3, -3.816e-08
2290.3, -4.188e-08
2292.3, -3.604e-08
2294.3, -3.856e-08
2296.3, -3.559e-08
2298.3, -3.837e-08
2300.3, -4.148e-08
2302.3, -4.171e-08
2304.3, -4.325e-08
2306.3, -3.974e-08
2308.3, -3.584e-08
2310.3, -3.703e-08
2312.3, -3.88e-08
2314.3, -4.243e-08
2316.3, -4.232e-08
2318.3, -3.848e-08
2320.3, -3.922e-08
2322.3, -4.104e-08
2324.3, -3.947e-08
2326.3, -3.618e-08
2328.3, -3.573e-08
2330.3, -3.21e-08
2332.3, -3.719e-08
2334.3, -3.848e-08
2336.3, -4.056e-08
2338.3, -3.891e-08
2340.3, -3.716e-08
2342.3, -3.806e-08
2344.3, -3.582e-08
2346.3, -3.643e-08
2348.3, -3.651e-08
2350.3, -3.335e-08
2352.3, -3.847e-08
2354.4, -3.493e-08
2356.4, -3.838e-08
2358.4, -4.073e-08
2360.4, -4.136e-08
2362.4, -3.987e-08
2364.4, -4.178e-08
2366.4, -4.129e-08
2368.4, -3.915e-08
2370.4, -4.16e-08
2372.4, -3.846e-08
2374.4, -4.111e-08
2376.4, -3.84e-08
2378.4, -3.774e-08
2380.4, -3.737e-08
2382.4, -3.713e-08
2384.4, -3.25e-08
2386.4, -3.724e-08
2388.4, -3.771e-08
2390.4, -3.577e-08
2392.4, -3.63e-08
2394.4, -3.766e-08
2396.4, -3.272e-08
2398.4, -3.533e-08
2400.4, -3.492e-08
2402.4, -4.104e-08
2404.4, -3.838e-08
2406.4, -3.768e-08
2408.4, -3.811e-08
2410.4, -3.826e-08
2412.4, -3.53e-08
2414.4, -3.923e-08
2416.4, -3.881e-08
2418.4, -3.759e-08
2420.4, -3.472e-08
2422.4, -3.197e-08
2424.4, -3.392e-08
2426.4, -3.105e-08
2428.4, -3.234e-08
2430.4, -3.379e-08
2432.4, -3.415e-08
2434.4, -3.848e-08
2436.4, -4.025e-08
2438.4, -3.706e-08
2440.4, -3.455e-08
2442.4, -3.995e-08
2444.4, -3.81e-08
2446.4, -3.608e-08
2448.4, -3.527e-08
2450.4, -3.116e-08
2452.4, -3.387e-08
2454.5, -3.572e-08
2456.5, -3.755e-08
2458.5, -3.786e-08
2460.5, -3.287e-08
2462.5, -3.8e-08
2464.5, -3.717e-08
2466.5, -3.489e-08
2468.5, -3.69e-08
2470.5, -3.654e-08
2472.5, -3.342e-08
2474.5, -3.332e-08
2476.5, -3.712e-08
2478.5, -3.548e-08
2480.5, -3.95e-08
2482.5, -3.559e-08
2484.5, -3.729e-08
2486.5, -3.42e-08
2488.5, -3.619e-08
2490.5, -3.935e-08
2492.5, -3.561e-08
2494.5, -3.883e-08
2496.5, -3.835e-08
2498.5, -3.643e-08
2500.5, -3.545e-08
2502.5, -3.625e-08
2504.5, -3.775e-08
2506.5, -3.565e-08
2508.5, -3.791e-08
2510.5, -3.725e-08
2512.5, -3.775e-08
2514.5, -3.63e-08
2516.5, -3.764e-08
2518.5, -3.753e-08
2520.5, -3.589e-08
2522.5, -3.837e-08
2524.5, -3.766e-08
2526.5, -3.212e-08
2528.5, -3.499e-08
2530.5, -3.608e-08
2532.5, -3.693e-08
2534.5, -3.766e-08
2536.5, -3.465e-08
2538.5, -3.93e-08
2540.5, -3.698e-08
2542.5, -3.75e-08
2544.5, -3.596e-08
2546.5, -3.328e-08
2548.5, -3.481e-08
2550.5, -3.581e-08
2552.5, -3.69e-08
2554.6, -3.455e-08
2556.6, -3.196e-08
2558.6, -3.195e-08
2560.6, -3.454e-08
2562.6, -3.342e-08
2564.6, -3.275e-08
2566.6, -3.105e-08
2568.6, -3.718e-08
2570.6, -3.293e-08
2572.6, -3.508e-08
2574.6, -3.373e-08
2576.6, -3.357e-08
2578.6, -3.286e-08
2580.6, -3.316e-08
2582.6, -3.16e-08
2584.6, -3.252e-08
2586.6, -3.373e-08
2588.6, -2.96e-08
2590.6, -3.322e-08
2592.6, -3.628e-08
2594.6, -3.523e-08
2596.6, -3.754e-08
2598.6, -3.422e-08
2600.6, -3.571e-08
2602.6, -3.443e-08
2604.6, -3.192e-08
2606.6, -3.304e-08
2608.6, -3.302e-08
2610.6, -3.554e-08
2612.6, -3.402e-08
2614.6, -3.402e-08
2616.6, -3.348e-08
2618.6, -3.335e-08
2620.6, -3.599e-08
2622.6, -3.505e-08
2624.6, -3.513e-08
2626.6, -3.382e-08
2628.6, -3.564e-08
2630.6, -3.575e-08
2632.6, -3.649e-08
2634.6, -3.791e-08
2636.6, -3.439e-08
2638.6, -3.519e-08
2640.6, -3.719e-08
2642.6, -3.954e-08
2644.6, -4.119e-08
2646.6, -3.788e-08
2648.6, -3.866e-08
2650.6, -3.883e-08
2652.6, -4.058e-08
2654.7, -3.567e-08
2656.7, -3.346e-08
2658.7, -3.859e-08
2660.7, -3.78e-08
2662.7, -3.699e-08
2664.7, -3.577e-08
2666.7, -3.424e-08
2668.7, -3.497e-08
2670.7, -3.734e-08
2672.7, -3.713e-08
2674.7, -4.111e-08
2676.7, -3.586e-08
2678.7, -3.167e-08
2680.7, -3.391e-08
2682.7, -3.903e-08
2684.7, -3.497e-08
2686.7, -3.166e-08
2688.7, -3.41e-08
2690.7, -3.443e-08
2692.7, -3.187e-08
2694.7, -3.512e-08
2696.7, -3.76e-08
2698.7, -3.342e-08
2700.7, -3.555e-08
2702.7, -3.861e-08
2704.7, -3.551e-08
2706.7, -3.395e-08
2708.7, -3.901e-08
2710.7, -3.625e-08
2712.7, -3.779e-08
2714.7, -3.659e-08
2716.7, -3.393e-08
2718.7, -3.83e-08
2720.7, -3.272e-08
2722.7, -3.491e-08
2724.7, -3.295e-08
2726.7, -3.691e-08
2728.7, -3.577e-08
2730.7, -3.618e-08
2732.7, -3.769e-08
2734.7, -3.831e-08
2736.7, -3.711e-08
2738.7, -3.323e-08
2740.7, -3.61e-08
2742.7, -3.344e-08
2744.7, -3.753e-08
2746.7, -3.674e-08
2748.7, -4.168e-08
2750.7, -3.844e-08
2752.7, -3.529e-08
2754.8, -3.85e-08
2756.8, -3.487e-08
2758.8, -3.65e-08
2760.8, -4.035e-08
2762.8, -3.812e-08
2764.8, -3.647e-08
2766.8, -3.792e-08
2768.8, -3.997e-08
2770.8, -3.865e-08
2772.8, -4.371e-08
2774.8, -3.788e-08
2776.8, -3.893e-08
2778.8, -3.651e-08
2780.8, -3.686e-08
2782.8, -3.377e-08
2784.8, -3.5e-08
2786.8, -3.173e-08
2788.8, -3.492e-08
2790.8, -3.473e-08
2792.8, -3.652e-08
2794.8, -3.834e-08
2796.8, -3.867e-08
2798.8, -3.688e-08
2800.8, -3.881e-08
2802.8, -3.953e-08
2804.8, -3.942e-08
2806.8, -4.017e-08
2808.8, -3.955e-08
2810.8, -3.655e-08
2812.8, -3.961e-08
2814.8, -3.904e-08
2816.8, -4.115e-08
2818.8, -3.694e-08
2820.8, -4.037e-08
2822.8, -3.954e-08
2824.8, -4.275e-08
2826.8, -4.206e-08
2828.8, -3.768e-08
2830.8, -4.24e-08
2832.8, -4.377e-08
2834.8, -4.046e-08
2836.8, -4.141e-08
2838.8, -4.108e-08
2840.8, -3.765e-08
2842.8, -3.865e-08
2844.8, -3.824e-08
2846.8, -3.519e-08
2848.8, -3.977e-08
2850.8, -3.848e-08
2852.8, -4.141e-08
2854.9, -3.908e-08
2856.9, -4.252e-08
2858.9, -3.834e-08
2860.9, -4.4e-08
2862.9, -4.618e-08
2864.9, -4.359e-08
2866.9, -4.427e-08
2868.9, -4.138e-08
2870.9, -4.164e-08
2872.9, -4.113e-08
2874.9, -4.083e-08
2876.9, -4.14e-08
2878.9, -4.311e-08
2880.9, -4.163e-08
2882.9, -4.161e-08
2884.9, -3.944e-08
2886.9, -3.831e-08
2888.9, -3.94e-08
2890.9, -4.24e-08
2892.9, -4.26e-08
2894.9, -3.972e-08
2896.9, -4.098e-08
2898.9, -4.333e-08
2900.9, -4.04e-08
2902.9, -4.212e-08
2904.9, -4.155e-08
2906.9, -3.975e-08
2908.9, -3.761e-08
2910.9, -3.421e-08
2912.9, -3.766e-08
2914.9, -3.583e-08
2916.9, -3.889e-08
2918.9, -4.226e-08
2920.9, -4.437e-08
2922.9, -3.878e-08
2924.9, -4.379e-08
2926.9, -4.003e-08
2928.9, -4.096e-08
2930.9, -4.293e-08
2932.9, -3.964e-08
2934.9, -3.974e-08
2936.9, -4.224e-08
2938.9, -4.301e-08
2940.9, -4.298e-08
2942.9, -4.187e-08
2944.9, -4.166e-08
2946.9, -4.148e-08
2948.9, -4.068e-08
2950.9, -4.136e-08
2952.9, -4.131e-08
2955.0, -4.205e-08
2957.0, -4.129e-08
2959.0, -3.967e-08
2961.0, -4.279e-08
2963.0, -4.145e-08
2965.0, -3.679e-08
2967.0, -4.115e-08
2969.0, -4.049e-08
2971.0, -4.131e-08
2973.0, -4.486e-08
2975.0, -3.963e-08
2977.0, -3.901e-08
2979.0, -4.282e-08
2981.0, -3.641e-08
2983.0, -3.949e-08
2985.0, -4.026e-08
2987.0, -3.958e-08
2989.0, -3.988e-08
2991.0, -3.87e-08
2993.0, -4.008e-08
2995.0, -3.51e-08
2997.0, -3.639e-08
2999.0, -3.639e-08
3001.0, -3.56e-08
3003.0, -3.773e-08
3005.0, -3.955e-08
3007.0, -3.876e-08
3009.0, -3.799e-08
3011.0, -3.89e-08
3013.0, -4.06e-08
3015.0, -3.96e-08
3017.0, -3.663e-08
3019.0, -3.582e-08
3021.0, -3.701e-08
3023.0, -3.712e-08
3025.0, -3.668e-08
3027.0, -3.544e-08
3029.0, -3.923e-08
3031.0, -4.064e-08
3033.0, -3.748e-08
3035.0, -3.627e-08
3037.0, -3.527e-08
3039.0, -4.093e-08
3041.0, -3.944e-08
3043.0, -3.908e-08
3045.0, -4.324e-08
3047.0, -3.998e-08
3049.0, -3.912e-08
3051.0, -3.891e-08
3053.0, -4.115e-08
3055.1, -4.179e-08
3057.1, -3.985e-08
3059.1, -3.953e-08
3061.1, -3.942e-08
3063.1, -4.185e-08
3065.1, -3.642e-08
3067.1, -3.987e-08
3069.1, -3.996e-08
3071.1, -3.886e-08
3073.1, -3.942e-08
3075.1, -4.018e-08
3077.1, -3.681e-08
3079.1, -3.554e-08
3081.1, -4.326e-08
3083.1, -4.33e-08
3085.1, -4.03e-08
3087.1, -3.645e-08
3089.1, -3.654e-08
3091.1, -3.754e-08
3093.1, -3.447e-08
3095.1, -3.792e-08
3097.1, -3.551e-08
3099.1, -3.872e-08
3101.1, -3.914e-08
3103.1, -4.004e-08
3105.1, -3.813e-08
3107.1, -3.766e-08
3109.1, -3.758e-08
3111.1, -3.908e-08
3113.1, -4.002e-08
3115.1, -3.79e-08
3117.1, -3.926e-08
3119.1, -3.365e-08
3121.1, -3.649e-08
3123.1, -3.344e-08
3125.1, -3.5e-08
3127.1, -3.775e-08
3129.1, -3.87e-08
3131.1, -3.846e-08
3133.1, -3.769e-08
3135.1, -3.214e-08
3137.1, -3.099e-08
3139.1, -3.613e-08
3141.1, -3.399e-08
3143.1, -3.784e-08
3145.1, -3.612e-08
3147.1, -3.842e-08
3149.1, -3.582e-08
3151.1, -4.169e-08
3153.1, -4.117e-08
3155.2, -3.876e-08
3157.2, -4.033e-08
3159.2, -3.901e-08
3161.2, -3.666e-08
3163.2, -3.706e-08
3165.2, -3.963e-08
3167.2, -3.565e-08
3169.2, -3.526e-08
3171.2, -3.492e-08
3173.2, -3.955e-08
3175.2, -3.689e-08
3177.2, -3.497e-08
3179.2, -3.679e-08
3181.2, -3.695e-08
3183.2, -4.299e-08
3185.2, -3.503e-08
3187.2, -3.614e-08
3189.2, -3.816e-08
3191.2, -3.713e-08
3193.2, -3.976e-08
3195.2, 5.1664e-07
3197.2, 4.9888e-07
3199.2, 5.5419e-07
3201.2, 3.131e-07
3203.2, 2.9405e-07
3205.2, 3.7993e-07
3207.2, 6.3701e-07
3209.2, 5.2385e-07
3211.2, 4.0227e-07
3213.2, 4.7614e-07
3215.2, 4.1321e-07
3217.2, 3.0072e-07
3219.2, 5.3908e-07
3221.2, 1.9131e-07
3223.2, 3.2963e-07
3225.2, 4.7251e-07
3227.2, 6.2791e-07
3229.2, 6.1821e-07
3231.2, 4.6708e-07
3233.2, 5.1441e-07
3235.2, 4.6843e-07
3237.2, 7.121e-07
3239.2, 5.689e-07
3241.2, 5.8771e-07
3243.2, 5.4304e-07
3245.2, 5.4338e-07
3247.2, 5.9547e-07
3249.2, 5.2917e-07
3251.2, 6.4483e-07
3253.2, 4.3013e-07
3255.3, 4.0953e-07
3257.3, 5.8414e-07
3259.3, 7.6059e-07
3261.3, 4.734e-07
3263.3, 3.9391e-07
3265.3, 5.4358e-07
3267.3, 5.9973e-07
3269.3, 5.8266e-07
3271.3, 3.9491e-07
3273.3, 5.08e-07
3275.3, 5.3095e-07
3277.3, 6.9277e-07
3279.3, 7.2697e-07
3281.3, 4.8157e-07
3283.3, 8.5328e-07
3285.3, 7.6857e-07
3287.3, 4.7606e-07
3289.3, 4.3554e-07
3291.3, 6.1945e-07
3293.3, 7.1709e-07
3295.3, 6.0657e-07
3297.3, 4.9259e-07
3299.3, 5.0146e-07
3301.3, 6.2165e-07
3303.3, 6.0413e-07
3305.3, 4.2877e-07
3307.3, 7.1664e-07
3309.3, 6.0466e-07
3311.3, 6.235e-07
3313.3, 5.8185e-07
3315.3, 4.1422e-07
3317.3, 4.0318e-07
3319.3, 8.4725e-07
3321.3, 8.0317e-07
3323.3, 6.441e-07
3325.3, 5.7919e-07
3327.3, 5.587e-07
3329.3, 7.2407e-07
3331.3, 6.4683e-07
3333.3, 6.5659e-07
3335.3, 8.3712e-07
3337.3, 5.8893e-07
3339.3, 5.7347e-07
3341.3, 7.8186e-07
3343.3, 8.0944e-07
3345.3, 7.4298e-07
3347.3, 8.6334e-07
3349.3, 6.6628e-07
3351.3, 7.203e-07
3353.3, 4.912e-07
3355.4, 7.0993e-07
3357.4, 6.4905e-07
3359.4, 5.1376e-07
3361.4, 6.5126e-07
3363.4, 6.0881e-07
3365.4, 1.0914e-06
3367.4, 7.4197e-07
3369.4, 8.4583e-07
3371.4, 3.9169e-07
3373.4, 5.215e-07
3375.4, 6.6798e-07
3377.4, 6.6883e-07
3379.4, 7.7905e-07
3381.4, 6.7097e-07
3383.4, 6.5856e-07
3385.4, 6.96e-07
3387.4, 7.3198e-07
3389.4, 5.4895e-07
3391.4, 6.0621e-07
3393.4, 3.956e-07
3395.4, 6.8265e-07
3397.4, 6.1481e-07
3399.4, 6.0369e-07
3401.4, 7.6824e-07
3403.4, 7.1744e-07
3405.4, 7.5794e-07
3407.4, 6.4774e-07
3409.4, 4.7383e-07
3411.4, 5.8189e-07
3413.4, 6.8411e-07
3415.4, 7.5995e-07
3417.4, 6.1197e-07
3419.4, 7.2592e-07
3421.4, 5.8412e-07
3423.4, 8.4143e-07
3425.4, 6.3715e-07
3427.4, 8.9456e-07
3429.4, 5.9859e-07
3431.4, 6.2103e-07
3433.4, 1.0665e-06
3435.4, 6.7041e-07
3437.4, 7.9308e-07
3439.4, 6.8131e-07
3441.4, 5.1246e-07
3443.4, 7.4082e-07
3445.4, 7.6837e-07
3447.4, 6.3567e-07
3449.4, 7.9795e-07
3451.4, 9.42e-07
3453.4, 7.5645e-07
3455.5, 6.8494e-07
3457.5, 7.9007e-07
3459.5, 8.8462e-07
3461.5, 8.0728e-07
3463.5, 5.1244e-07
3465.5, 5.4348e-07
3467.5, 7.6561e-07
3469.5, 7.4631e-07
3471.5, 8.8392e-07
3473.5, 4.8371e-07
3475.5, 4.8732e-07
3477.5, 5.6431e-07
3479.5, 7.3231e-07
3481.5, 5.7563e-07
3483.5, 6.4069e-07
3485.5, 1.0411e-06
3487.5, 8.9016e-07
3489.5, 7.7732e-07
3491.5, 7.3058e-07
3493.5, 8.0727e-07
3495.5, 7.7529e-07
3497.5, 6.8405e-07
3499.5, 1.1333e-06
3501.5, 7.8947e-07
3503.5, 4.7843e-07
3505.5, 7.8017e-07
3507.5, 7.0035e-07
3509.5, 4.7719e-07
3511.5, 8.0614e-07
3513.5, 5.4057e-07
3515.5, 6.7583e-07
3517.5, 9.3236e-07
3519.5, 5.3899e-07
3521.5, 7.048e-07
3523.5, 4.6723e-07
3525.5, 6.1401e-07
3527.5, 5.2462e-07
3529.5, 6.5363e-07
3531.5, 7.7498e-07
3533.5, 8.7398e-07
3535.5, 1.0568e-06
3537.5, 8.797e-07
3539.5, 5.2509e-07
3541.5, 6.184e-07
3543.5, 8.7032e-07
3545.5, 7.6476e-07
3547.5, 6.1801e-07
3549.5, 7.1033e-07
3551.5, 5.5612e-07
3553.5, 7.7812e-07
3555.6, 6.5235e-07
3557.6, 7.4206e-07
3559.6, 6.8734e-07
3561.6, 5.5841e-07
3563.6, 6.1998e-07
3565.6, 6.2862e-07
3567.6, 7.4693e-07
3569.6, 6.4504e-07
3571.6, 4.6939e-07
3573.6, 1.1517e-06
3575.6, 8.0915e-07
3577.6, 7.1695e-07
3579.6, 8.4955e-07
3581.6, 6.5485e-07
3583.6, 5.752e-07
3585.6, 5.3752e-07
3587.6, 6.6306e-07
3589.6, 6.4545e-07
3591.6, 8.8567e-07
3593.6, 6.9368e-07
3595.6, 4.5486e-07
3597.6, 5.4812e-07
3599.6, 4.7358e-07
3601.6, 4.3549e-07
3603.6, 9.7011e-07
3605.6, 6.2179e-07
3607.6, 5.4867e-07
3609.6, 8.5009e-07
3611.6, 9.5667e-07
3613.6, 8.5433e-07
3615.6, 1.0341e-06
3617.6, 6.8256e-07
3619.6, 7.2588e-07
3621.6, 8.9261e-07
3623.6, 9.3575e-07
3625.6, 8.4635e-07
3627.6, 7.1377e-07
3629.6, 6.3312e-07
3631.6, 7.5167e-07
3633.6, 6.0777e-07
3635.6, 8.3051e-07
3637.6, 6.7877e-07
3639.6, 6.4608e-07
3641.6, 8.075e-07
3643.6, 8.3143e-07
3645.6, 6.5182e-07
3647.6, 7.7367e-07
3649.6, 9.2912e-07
3651.6, 5.7974e-07
3653.6, 8.9059e-07
3655.7, 4.7336e-07
3657.7, 6.1231e-07
3659.7, 1.1833e-06
3661.7, 1.0406e-06
3663.7, 7.7925e-07
3665.7, 8.5119e-07
3667.7, 5.5763e-07
3669.7, 4.9422e-07
3671.7, 8.0347e-07
3673.7, 8.7711e-07
3675.7, 1.0966e-06
3677.7, 8.5857e-07
3679.7, 1.0734e-06
3681.7, 7.5599e-07
3683.7, 8.618e-07
3685.7, 9.0048e-07
3687.7, 9.5754e-07
3689.7, 5.5077e-07
3691.7, 8.4374e-07
3693.7, 9.1068e-07
3695.7, 9.9538e-07
3697.7, 8.4874e-07
3699.7, 8.6859e-07
3701.7, 6.7005e-07
3703.7, 6.6752e-07
3705.7, 7.9891e-07
3707.7, 8.7005e-07
3709.7, 7.2555e-07
3711.7, 7.5636e-07
3713.7, 7.3973e-07
3715.7, 7.2739e-07
3717.7, 9.8576e-07
3719.7, 7.5219e-07
3721.7, 8.0254e-07
3723.7, 5.6278e-07
3725.7, 6.8422e-07
3727.7, 1.13e-06
3729.7, 7.0841e-07
3731.7, 6.8522e-07
3733.7, 9.0644e-07
3735.7, 7.8432e-07
3737.7, 5.9783e-07
3739.7, 9.7506e-07
3741.7, 9.5218e-07
3743.7, 8.8602e-07
3745.7, 8.0693e-07
3747.7, 5.3372e-07
3749.7, 7.1748e-07
3751.7, 9.0583e-07
3753.7, 6.7117e-07
3755.8, 1.0206e-06
3757.8, 6.1832e-07
3759.8, 1.0267e-06
3761.8, 9.237e-07
3763.8, 8.1369e-07
3765.8, 7.9741e-07
3767.8, 7.7721e-07
3769.8, 1.0661e-06
3771.8, 9.644e-07
3773.8, 7.1841e-07
3775.8, 8.9385e-07
3777.8, 7.9172e-07
3779.8, 6.5788e-07
3781.8, 7.5699e-07
3783.8, 7.2711e-07
3785.8, 8.1896e-07
3787.8, 9.8033e-07
3789.8, 1.175e-06
3791.8, 7.9682e-07
3793.8, 8.4367e-07
3795.8, 1.0007e-06
3797.8, 5.6025e-07
3799.8, 6.8852e-07
3801.8, 9.543e-07
3803.8, 8.7415e-07
3805.8, 8.2669e-07
3807.8, 8.359e-07
3809.8, 6.496e-07
3811.8, 8.4064e-07
3813.8, 7.7089e-07
3815.8, 5.6053e-07
3817.8, 4.4704e-07
3819.8, 9.6521e-07
3821.8, 6.9625e-07
3823.8, 5.9077e-07
3825.8, 8.193e-07
3827.8, 5.7449e-07
3829.8, 7.8537e-07
3831.8, 7.2377e-07
3833.8, 7.3201e-07
3835.8, 6.1482e-07
3837.8, 6.6079e-07
3839.8, 6.7149e-07
3841.8, 1.1694e-06
3843.8, 7.2907e-07
3845.8, 1.1704e-06
3847.8, 5.6329e-07
3849.8, 7.2462e-07
3851.8, 5.2969e-07
3853.8, 8.4451e-07
3855.9, 1.0859e-06
3857.9, 8.2294e-07
3859.9, 5.6157e-07
3861.9, 5.3246e-07
3863.9, 7.4521e-07
3865.9, 8.29e-07
3867.9, 7.8254e-07
3869.9, 5.5735e-07
3871.9, 6.2932e-07
3873.9, 1.0027e-06
3875.9, 9.0036e-07
3877.9, 8.882e-07
3879.9, 8.9993e-07
3881.9, 1.0153e-06
3883.9, 9.7493e-07
3885.9, 7.8792e-07
3887.9, 8.0534e-07
3889.9, 7.3237e-07
3891.9, 6.6822e-07
3893.9, 5.306e-07
3895.9, 6.5572e-07
3897.9, 7.2156e-07
3899.9, 8.0897e-07
3901.9, 6.6541e-07
3903.9, 1.1849e-06
3905.9, 6.1871e-07
3907.9, 1.0321e-06
3909.9, 1.0055e-06
3911.9, 7.6627e-07
3913.9, 8.6602e-07
3915.9, 1.0128e-06
3917.9, 9.8608e-07
3919.9, 5.9267e-07
3921.9, 6.2753e-07
3923.9, 7.2398e-07
3925.9, 9.1597e-07
3927.9, 7.1677e-07
3929.9, 6.2209e-07
3931.9, 9.2681e-07
3933.9, 7.1249e-07
3935.9, 5.7569e-07
3937.9, 6.557e-07
3939.9, 4.109e-07
3941.9, 8.9285e-07
3943.9, 6.6815e-07
3945.9, 9.2037e-07
3947.9, 8.249e-07
3949.9, 6.8189e-07
3951.9, 9.0175e-07
3953.9, 1.0369e-06
3956.0, 9.0131e-07
3958.0, 4.8203e-07
3960.0, 5.3937e-07
3962.0, 1.0002e-06
3964.0, 8.157e-07
3966.0, 8.9559e-07
3968.0, 1.0963e-06
3970.0, 6.9644e-07
3972.0, 7.7438e-07
3974.0, 8.0536e-07
3976.0, 8.7085e-07
3978.0, 7.4055e-07
3980.0, 7.2166e-07
3982.0, 3.9205e-07
3984.0, 7.3592e-07
3986.0, 7.0906e-07
3988.0, 8.2621e-07
3990.0, 1.0129e-06
3992.0, 1.0188e-06
3994.0, 9.9977e-07
3996.0, 6.87e-07
3998.0, 6.3891e-07
4000.0, 1.039e-06
4002.0, 5.9036e-07
4004.0, 8.4741e-07
4006.0, 7.7207e-07
4008.0, 8.7956e-07
4010.0, 7.6592e-07
4012.0, 9.8811e-07
4014.0, 6.8393e-07
4016.0, 5.0868e-07
4018.0, 1.0066e-06
4020.0, 1.0148e-06
4022.0, 7.5817e-07
4024.0, 7.9641e-07
4026.0, 4.6214e-07
4028.0, 5.9731e-07
4030.0, 7.239e-07
4032.0, 7.6327e-07
4034.0, 7.0177e-07
4036.0, 7.8991e-07
4038.0, 1.0389e-06
4040.0, 6.2109e-07
4042.0, 7.6901e-07
4044.0, 1.046e-06
4046.0, 7.4012e-07
4048.0, 1.1101e-06
4050.0, 6.7978e-07
4052.0, 8.1834e-07
4054.0, 8.5665e-07
4056.1, 6.6436e-07
4058.1, 8.4094e-07
4060.1, 6.6709e-07
4062.1, 8.3206e-07
4064.1, 6.6632e-07
4066.1, 5.9923e-07
4068.1, 7.5497e-07
4070.1, 7.138e-07
4072.1, 5.8474e-07
4074.1, 8.2187e-07
4076.1, 6.7196e-07
4078.1, 5.6242e-07
4080.1, 7.9766e-07
4082.1, 9.8741e-07
4084.1, 8.505e-07
4086.1, 8.6111e-07
4088.1, 1.003e-06
4090.1, 7.4505e-07
4092.1, 6.0529e-07
4094.1, 9.6672e-07
4096.1, 8.6225e-07
4098.1, 8.8868e-07
4100.1, 8.63e-07
4102.1, 9.7155e-07
4104.1, 1.0126e-06
4106.1, 8.2527e-07
4108.1, 9.9597e-07
4110.1, 7.2568e-07
4112.1, 6.9377e-07
4114.1, 7.6626e-07
4116.1, 7.6737e-07
4118.1, 7.6049e-07
4120.1, 9.5369e-07
4122.1, 8.0041e-07
4124.1, 8.3716e-07
4126.1, 7.8128e-07
4128.1, 8.4011e-07
4130.1, 4.4694e-07
4132.1, 7.7569e-07
4134.1, 6.1226e-07
4136.1, 1.0113e-06
4138.1, 7.48e-07
4140.1, 7.1966e-07
4142.1, 9.3956e-07
4144.1, 7.5027e-07
4146.1, 9.0852e-07
4148.1, 1.0146e-06
4150.1, 6.1929e-07
4152.1, 9.1978e-07
4154.1, 9.4408e-07
4156.2, 8.0369e-07
4158.2, 9.4247e-07
4160.2, 8.3399e-07
4162.2, 6.7484e-07
4164.2, 7.4753e-07
4166.2, 9.2078e-07
4168.2, 8.4945e-07
4170.2, 9.4125e-07
4172.2, 6.2746e-07
4174.2, 6.4552e-07
4176.2, 8.8784e-07
4178.2, 6.241e-07
4180.2, 7.9819e-07
4182.2, 9.1637e-07
4184.2, 7.0794e-07
4186.2, 8.6635e-07
4188.2, 9.798e-07
4190.2, 8.2552e-07
4192.2, 7.2195e-07
4194.2, 6.6169e-07
4196.2, -2.638e-08
4198.2, -3.032e-08
4200.2, -3.654e-08
4202.2, -3.522e-08
4204.2, -3.555e-08
4206.2, -3.494e-08
4208.2, -3.11e-08
4210.2, -3.349e-08
4212.2, -3.281e-08
4214.2, -3.942e-08
4216.2, -3.557e-08
4218.2, -3.855e-08
4220.2, -3.68e-08
4222.2, -3.633e-08
4224.2, -3.488e-08
4226.2, -3.299e-08
4228.2, -3.628e-08
4230.2, -3.529e-08
4232.2, -3.588e-08
4234.2, -3.544e-08
4236.2, -3.519e-08
4238.2, -3.24e-08
4240.2, -3.374e-08
4242.2, -3.558e-08
4244.2, -3.72e-08
4246.2, -3.46e-08
4248.2, -3.335e-08
4250.2, -3.384e-08
4252.2, -3.391e-08
4254.2, -3.634e-08
4256.3, -3.351e-08
4258.3, -3.074e-08
4260.3, -3.304e-08
4262.3, -3.612e-08
4264.3, -3.309e-08
4266.3, -3.322e-08
4268.3, -3.232e-08
4270.3, -3.576e-08
4272.3, -3.412e-08
4274.3, -3.587e-08
4276.3, -3.516e-08
4278.3, -3.622e-08
4280.3, -3.471e-08
4282.3, -4.107e-08
4284.3, -3.864e-08
4286.3, -3.724e-08
4288.3, -3.783e-08
4290.3, -3.467e-08
4292.3, -3.222e-08
4294.3, -3.58e-08
4296.3, -3.754e-08
4298.3, -3.227e-08
4300.3, -3.207e-08
4302.3, -3.543e-08
4304.3, -3.74e-08
4306.3, -3.796e-08
4308.3, -3.684e-08
4310.3, -3.683e-08
4312.3, -3.911e-08
4314.3, -3.685e-08
4316.3, -3.791e-08
4318.3, -3.981e-08
4320.3, -3.81e-08
4322.3, -3.713e-08
4324.3, -3.975e-08
4326.3, -3.729e-08
4328.3, -3.573e-08
4330.3, -3.681e-08
4332.3, -3.82e-08
4334.3, -3.897e-08
4336.3, -3.791e-08
4338.3, -3.943e-08
4340.3, -3.635e-08
4342.3, -3.869e-08
4344.3, -3.923e-08
4346.3, -3.475e-08
4348.3, -3.862e-08
4350.3, -3.551e-08
4352.3, -4.116e-08
4354.3, -4.15e-08
4356.4, -3.77e-08
4358.4, -3.832e-08
4360.4, -3.85e-08
4362.4, -3.842e-08
4364.4, -3.721e-08
4366.4, -4.255e-08
4368.4, -4.038e-08
4370.4, -4.006e-08
4372.4, -4.227e-08
4374.4, -4.172e-08
4376.4, -4.107e-08
4378.4, -3.588e-08
4380.4, -3.89e-08
4382.4, -3.5e-08
4384.4, -3.714e-08
4386.4, -4.012e-08
4388.4, -3.817e-08
4390.4, -3.683e-08
4392.4, -3.916e-08
4394.4, -3.831e-08
4396.4, -3.933e-08
4398.4, -3.716e-08
4400.4, -4.062e-08
4402.4, -4.121e-08
4404.4, -3.991e-08
4406.4, -3.689e-08
4408.4, -4.061e-08
4410.4, -3.781e-08
4412.4, -3.539e-08
4414.4, -3.434e-08
4416.4, -4.043e-08
4418.4, -3.383e-08
4420.4, -3.736e-08
4422.4, -3.847e-08
4424.4, -3.637e-08
4426.4, -3.691e-08
4428.4, -3.884e-08
4430.4, -3.712e-08
4432.4, -3.699e-08
4434.4, -3.761e-08
4436.4, -3.721e-08
4438.4, -3.68e-08
4440.4, -3.531e-08
4442.4, -3.571e-08
4444.4, -3.469e-08
4446.4, -3.226e-08
4448.4, -3.446e-08
4450.4, -3.626e-08
4452.4, -3.273e-08
4454.4, -3.377e-08
4456.5, -3.724e-08
4458.5, -2.966e-08
4460.5, -3.159e-08
4462.5, -3.341e-08
4464.5, -2.91e-08
4466.5, -3.645e-08
4468.5, -3.468e-08
4470.5, -3.459e-08
4472.5, -3.217e-08
4474.5, -3.298e-08
4476.5, -3.725e-08
4478.5, -3.381e-08
4480.5, -3.443e-08
4482.5, -3.573e-08
4484.5, -3.321e-08
4486.5, -3.583e-08
4488.5, -3.264e-08
4490.5, -3.123e-08
4492.5, -3.218e-08
4494.5, -3.481e-08
4496.5, -3.437e-08
4498.5, -3.339e-08
4500.5, -2.967e-08
4502.5, -3.477e-08
4504.5, -3.723e-08
4506.5, -3.587e-08
4508.5, -3.697e-08
4510.5, -3.604e-08
4512.5, -4.145e-08
4514.5, -3.654e-08
4516.5, -3.586e-08
4518.5, -3.566e-08
4520.5, -3.568e-08
4522.5, -3.714e-08
4524.5, -3.94e-08
4526.5, -3.925e-08
4528.5, -4.013e-08
4530.5, -3.537e-08
4532.5, -3.684e-08
4534.5, -3.563e-08
4536.5, -3.822e-08
4538.5, -3.545e-08
4540.5, -3.991e-08
4542.5, -3.825e-08
4544.5, -4.114e-08
4546.5, -3.865e-08
4548.5, -3.771e-08
4550.5, -3.777e-08
4552.5, -3.983e-08
4554.5, -4.031e-08
4556.6, -3.691e-08
4558.6, -3.75e-08
4560.6, -3.704e-08
4562.6, -3.733e-08
4564.6, -3.608e-08
4566.6, -3.884e-08
4568.6, -3.555e-08
4570.6, -3.74e-08
4572.6, -3.847e-08
4574.6, -3.929e-08
4576.6, -3.514e-08
4578.6, -3.671e-08
4580.6, -3.96e-08
4582.6, -3.813e-08
4584.6, -3.941e-08
4586.6, -3.626e-08
4588.6, -3.461e-08
4590.6, -3.959e-08
4592.6, -3.572e-08
4594.6, -3.538e-08
4596.6, -3.583e-08
4598.6, -3.407e-08
4600.6, -3.942e-08
4602.6, -3.708e-08
4604.6, -3.603e-08
4606.6, -3.741e-08
4608.6, -3.645e-08
4610.6, -3.705e-08
4612.6, -3.713e-08
4614.6, -3.855e-08
4616.6, -3.897e-08
4618.6, -3.792e-08
4620.6, -3.747e-08
4622.6, -3.62e-08
4624.6, -3.632e-08
4626.6, -3.654e-08
4628.6, -3.776e-08
4630.6, -3.702e-08
4632.6, -3.776e-08
4634.6, -3.743e-08
4636.6, -3.55e-08
4638.6, -3.975e-08
4640.6, -3.68e-08
4642.6, -3.88e-08
4644.6, -3.39e-08
4646.6, -3.754e-08
4648.6, -3.601e-08
4650.6, -3.593e-08
4652.6, -3.568e-08
4654.6, -3.517e-08
4656.7, -4.131e-08
4658.7, -3.397e-08
4660.7, -3.441e-08
4662.7, -3.424e-08
4664.7, -3.547e-08
4666.7, -3.42e-08
4668.7, -3.5e-08
4670.7, -3.727e-08
4672.7, -4.016e-08
4674.7, -3.866e-08
4676.7, -3.925e-08
4678.7, -3.428e-08
4680.7, -3.618e-08
4682.7, -3.979e-08
4684.7, -3.651e-08
4686.7, -3.782e-08
4688.7, -3.859e-08
4690.7, -3.789e-08
4692.7, -3.694e-08
4694.7, -3.77e-08
4696.7, -3.844e-08
4698.7, -3.554e-08
4700.7, -3.723e-08
4702.7, -3.428e-08
4704.7, -3.582e-08
4706.7, -3.809e-08
4708.7, -3.862e-08
4710.7, -4.454e-08
4712.7, -4.007e-08
4714.7, -3.656e-08
4716.7, -3.855e-08
4718.7, -4.004e-08
4720.7, -4.129e-08
4722.7, -3.596e-08
4724.7, -3.669e-08
4726.7, -3.46e-08
4728.7, -3.486e-08
4730.7, -3.664e-08
4732.7, -3.62e-08
4734.7, -3.86e-08
4736.7, -3.873e-08
4738.7, -3.644e-08
4740.7, -3.493e-08
4742.7, -3.81e-08
4744.7, -3.879e-08
4746.7, -3.843e-08
4748.7, -4.084e-08
4750.7, -3.825e-08
4752.7, -3.573e-08
4754.7, -3.847e-08
4756.8, -3.769e-08
4758.8, -4.042e-08
4760.8, -3.632e-08
4762.8, -3.784e-08
4764.8, -3.499e-08
4766.8, -3.468e-08
4768.8, -3.523e-08
4770.8, -3.309e-08
4772.8, -3.395e-08
4774.8, -3.351e-08
4776.8, -3.532e-08
4778.8, -3.301e-08
4780.8, -3.758e-08
4782.8, -3.421e-08
4784.8, -3.332e-08
4786.8, -3.589e-08
4788.8, -3.744e-08
4790.8, -3.077e-08
4792.8, -3.247e-08
4794.8, -3.485e-08
4796.8, -3.355e-08
4798.8, -3.462e-08
4800.8, -3.279e-08
4802.8, -3.771e-08
4804.8, -3.554e-08
4806.8, -3.526e-08
4808.8, -3.084e-08
4810.8, -3.431e-08
4812.8, -3.45e-08
4814.8, -3.212e-08
4816.8, -3.466e-08
4818.8, -3.215e-08
4820.8, -3.169e-08
4822.8, -3.091e-08
4824.8, -3.453e-08
4826.8, -3.352e-08
4828.8, -3.511e-08
4830.8, -3.504e-08
4832.8, -3.393e-08
4834.8, -3.156e-08
4836.8, -3.585e-08
4838.8, -3.344e-08
4840.8, -3.541e-08
4842.8, -3.672e-08
4844.8, -3.666e-08
4846.8, -3.775e-08
4848.8, -3.625e-08
4850.8, -3.913e-08
4852.8, -3.541e-08
4854.8, -3.834e-08
4856.9, -3.984e-08
4858.9, -3.58e-08
4860.9, -3.832e-08
4862.9, -3.668e-08
4864.9, -3.401e-08
4866.9, -3.673e-08
4868.9, -3.289e-08
4870.9, -3.526e-08
4872.9, -3.311e-08
4874.9, -3.576e-08
4876.9, -3.613e-08
4878.9, -3.237e-08
4880.9, -3.511e-08
4882.9, -2.949e-08
4884.9, -3.09e-08
4886.9, -2.946e-08
4888.9, -3.061e-08
4890.9, -3.225e-08
4892.9, -3.301e-08
4894.9, -3.349e-08
4896.9, -3.179e-08
4898.9, -3.531e-08
4900.9, -3.584e-08
4902.9, -3.615e-08
4904.9, -3.242e-08
4906.9, -3.247e-08
4908.9, -3.318e-08
4910.9, -3.376e-08
4912.9, -3.348e-08
4914.9, -3.348e-08
4916.9, -3.015e-08
4918.9, -3.052e-08
4920.9, -3.702e-08
4922.9, -3.618e-08
4924.9, -3.198e-08
4926.9, -3.373e-08
4928.9, -3.288e-08
4930.9, -2.872e-08
4932.9, -3.44e-08
4934.9, -3.287e-08
4936.9, -3.168e-08
4938.9, -3.402e-08
4940.9, -3.344e-08
4942.9, -3.553e-08
4944.9, -3.228e-08
4946.9, -3.14e-08
4948.9, -3.023e-08
4950.9, -3.174e-08
4952.9, -3.16e-08
4954.9, -3.112e-08
4957.0, -3.45e-08
4959.0, -3.761e-08
4961.0, -3.478e-08
4963.0, -3.554e-08
4965.0, -3.547e-08
4967.0, -3.131e-08
4969.0, -2.987e-08
4971.0, -3.262e-08
4973.0, -2.979e-08
4975.0, -3.382e-08
4977.0, -2.975e-08
4979.0, -3.083e-08
4981.0, -3.099e-08
4983.0, -3.425e-08
4985.0, -3.284e-08
4987.0, -3.314e-08
4989.0, -3.435e-08
4991.0, -3.652e-08
4993.0, -3.039e-08
4995.0, -3.468e-08
4997.0, -3.33e-08
4999.0, -3.225e-08
5001.0, -3.497e-08
5003.0, -3.513e-08
5005.0, -3.514e-08
5007.0, -3.318e-08
5009.0, -3.184e-08
5011.0, -3.023e-08
5013.0, -3.121e-08
5015.0, -3.411e-08
5017.0, -3.331e-08
5019.0, -3.16e-08
5021.0, -3.238e-08
5023.0, -2.994e-08
5025.0, -3.298e-08
5027.0, -3.393e-08
5029.0, -3.565e-08
5031.0, -3.287e-08
5033.0, -3.478e-08
5035.0, -3.616e-08
5037.0, -3.606e-08
5039.0, -3.461e-08
5041.0, -3.235e-08
5043.0, -3.402e-08
5045.0, -3.395e-08
5047.0, -3.022e-08
5049.0, -3.381e-08
5051.0, -3.346e-08
5053.0, -3.522e-08
5055.0, -3.502e-08
5057.1, -3.481e-08
5059.1, -3.18e-08
5061.1, -3.375e-08
5063.1, -3.567e-08
5065.1, -3.442e-08
5067.1, -3.63e-08
5069.1, -3.562e-08
5071.1, -3.386e-08
5073.1, -3.333e-08
5075.1, -3.598e-08
5077.1, -3.374e-08
5079.1, -3.403e-08
5081.1, -3.331e-08
5083.1, -3.372e-08
5085.1, -3.295e-08
5087.1, -3.422e-08
5089.1, -3.239e-08
5091.1, -3.049e-08
5093.1, -3.26e-08
5095.1, -3.215e-08
5097.1, -2.902e-08
5099.1, -3.078e-08
5101.1, -2.78e-08
5103.1, -2.937e-08
5105.1, -3.117e-08
5107.1, -2.981e-08
5109.1, -3.211e-08
5111.1, -3.182e-08
5113.1, -3.323e-08
5115.1, -3.443e-08
5117.1, -3.131e-08
5119.1, -3.233e-08
5121.1, -3.285e-08
5123.1, -3.382e-08
5125.1, -3.287e-08
5127.1, -3.02e-08
5129.1, -3.569e-08
5131.1, -3.335e-08
5133.1, -3.37e-08
5135.1, -3.013e-08
5137.1, -3.041e-08
5139.1, -3.045e-08
5141.1, -2.737e-08
5143.1, -2.874e-08
5145.1, -3.019e-08
5147.1, -3.081e-08
5149.1, -2.501e-08
5151.1, -2.711e-08
5153.1, -2.768e-08
5155.1, -3.024e-08
5157.2, -3.167e-08
5159.2, -3.141e-08
5161.2, -3.397e-08
5163.2, -3.383e-08
5165.2, -3.061e-08
5167.2, -3.244e-08
5169.2, -3.503e-08
5171.2, -3.416e-08
5173.2, -3.551e-08
5175.2, -3.013e-08
5177.2, -2.981e-08
5179.2, -3.45e-08
5181.2, -3.211e-08
5183.2, -2.984e-08
5185.2, -3.093e-08
5187.2, -3.301e-08
5189.2, -3.134e-08
5191.2, -3.026e-08
5193.2, -3.047e-08
5195.2, -2.676e-08
5197.2, -3.073e-08
5199.2, -3.175e-08
5201.2, -3.52e-08
5203.2, -3.235e-08
5205.2, -3.217e-08
5207.2, -2.819e-08
5209.2, -3.066e-08
5211.2, -2.877e-08
5213.2, -2.915e-08
5215.2, -2.762e-08
5217.2, -3e-08
5219.2, -2.981e-08
5221.2, -2.91e-08
5223.2, -3.048e-08
5225.2, -2.604e-08
5227.2, -2.656e-08
5229.2, -3.024e-08
5231.2, -2.912e-08
5233.2, -2.771e-08
5235.2, -3.112e-08
5237.2, -3.013e-08
5239.2, -2.803e-08
5241.2, -2.669e-08
5243.2, -3.015e-08
5245.2, -2.919e-08
5247.2, -2.963e-08
5249.2, -2.471e-08
5251.2, -2.863e-08
5253.2, -3.255e-08
5255.2, -3.107e-08
5257.3, -3.177e-08
5259.3, -3.185e-08
5261.3, -3.232e-08
5263.3, -3.138e-08
5265.3, -2.955e-08
5267.3, -2.966e-08
5269.3, -3.115e-08
5271.3, -3.205e-08
5273.3, -2.977e-08
5275.3, -3.049e-08
5277.3, -2.795e-08
5279.3, -2.989e-08
5281.3, -3.163e-08
5283.3, -2.881e-08
5285.3, 7.1829e-07
5287.3, 6.341e-07
5289.3, 4.3391e-07
5291.3, 5.7356e-07
5293.3, 6.8712e-07
5295.3, 4.2272e-07
5297.3, 6.5614e-07
5299.3, 3.7397e-07
5301.3, 5.7169e-07
5303.3, 5.4599e-07
5305.3, 8.2282e-07
5307.3, 3.9274e-07
5309.3, 4.4151e-07
5311.3, 4.3852e-07
5313.3, 5.2014e-07
5315.3, 6.0152e-07
5317.3, 5.9488e-07
5319.3, 6.9215e-07
5321.3, 5.1116e-07
5323.3, 5.4395e-07
5325.3, 8.133e-07
5327.3, 8.4297e-07
5329.3, 6.259e-07
5331.3, 7.3854e-07
5333.3, 5.3227e-07
5335.3, 4.7445e-07
5337.3, 5.7883e-07
5339.3, 3.2264e-07
5341.3, 7.2933e-07
5343.3, 7.5539e-07
5345.3, 7.2641e-07
5347.3, 4.6693e-07
5349.3, 1.0652e-06
5351.3, 5.5891e-07
5353.3, 3.5193e-07
5355.3, 8.849e-07
5357.4, 6.8724e-07
5359.4, 6.9189e-07
5361.4, 5.5994e-07
5363.4, 6.8587e-07
5365.4, 4.5912e-07
5367.4, 4.6894e-07
5369.4, 4.3531e-07
5371.4, 6.9974e-07
5373.4, 8.2166e-07
5375.4, 5.0248e-07
5377.4, 8.8729e-07
5379.4, 6.5699e-07
5381.4, 4.7944e-07
5383.4, 1.1026e-06
5385.4, 1.0181e-06
5387.4, 9.7134e-07
5389.4, 4.6043e-07
5391.4, 4.7355e-07
5393.4, 6.5098e-07
5395.4, 6.3468e-07
5397.4, 9.1373e-07
5399.4, 4.5753e-07
5401.4, 4.7585e-07
5403.4, 6.3599e-07
5405.4, 9.5774e-07
5407.4, 7.2519e-07
5409.4, 6.9005e-07
5411.4, 7.0411e-07
5413.4, 7.2216e-07
5415.4, 6.5892e-07
5417.4, 7.964e-07
5419.4, 4.1788e-07
5421.4, 8.0053e-07
5423.4, 8.8118e-07
5425.4, 6.9447e-07
5427.4, 6.4107e-07
5429.4, 8.0309e-07
5431.4, 4.4559e-07
5433.4, 5.6366e-07
5435.4, 6.7823e-07
5437.4, 6.274e-07
5439.4, 8.7162e-07
5441.4, 4.4508e-07
5443.4, 9.2485e-07
5445.4, 7.8246e-07
5447.4, 7.2569e-07
5449.4, 7.3525e-07
5451.4, 9.352e-07
5453.4, 8.5856e-07
5455.4, 8.1799e-07
5457.5, 6.0146e-07
5459.5, 8.3241e-07
5461.5, 1.046e-06
5463.5, 5.0934e-07
5465.5, 7.443e-07
5467.5, 6.8943e-07
5469.5, 5.3637e-07
5471.5, 4.2498e-07
5473.5, 9.7028e-07
5475.5, 6.5655e-07
5477.5, 5.5976e-07
5479.5, 6.0975e-07
5481.5, 6.1304e-07
5483.5, 5.9395e-07
5485.5, 7.7749e-07
5487.5, 8.5202e-07
5489.5, 8.3445e-07
5491.5, 7.1465e-07
5493.5, 3.2806e-07
5495.5, 7.741e-07
5497.5, 8.2366e-07
5499.5, 9.1208e-07
5501.5, 5.8977e-07
5503.5, 7.2932e-07
5505.5, 7.6099e-07
5507.5, 6.6124e-07
5509.5, 5.0527e-07
5511.5, 5.8883e-07
5513.5, 8.7487e-07
5515.5, 5.7785e-07
5517.5, 8.6626e-07
5519.5, 9.0191e-07
5521.5, 6.4563e-07
5523.5, 8.6815e-07
5525.5, 6.1076e-07
5527.5, 8.5104e-07
5529.5, 6.0259e-07
5531.5, 6.9348e-07
5533.5, 4.0626e-07
5535.5, 3.4193e-07
5537.5, 9.5022e-07
5539.5, 7.1803e-07
5541.5, 5.2418e-07
5543.5, 6.1797e-07
5545.5, 6.7478e-07
5547.5, 6.3031e-07
5549.5, 6.4144e-07
5551.5, 6.1842e-07
5553.5, 1.1179e-06
5555.5, 9.2692e-07
5557.6, 1.0241e-06
5559.6, 7.4228e-07
5561.6, 7.7855e-07
5563.6, 6.9281e-07
5565.6, 9.5089e-07
5567.6, 7.685e-07
5569.6, 6.7706e-07
5571.6, 6.2616e-07
5573.6, 9.1812e-07
5575.6, 9.1185e-07
5577.6, 7.5902e-07
5579.6, 6.3768e-07
5581.6, 8.9463e-07
5583.6, 7.1839e-07
5585.6, 1.1501e-06
5587.6, 7.4984e-07
5589.6, 6.342e-07
5591.6, 7.3663e-07
5593.6, 4.887e-07
5595.6, 3.9971e-07
5597.6, 1.19e-06
5599.6, 7.1659e-07
5601.6, 8.3464e-07
5603.6, 9.9539e-07
5605.6, 9.4964e-07
5607.6, 6.315e-07
5609.6, 7.5806e-07
5611.6, 9.5027e-07
5613.6, 7.6789e-07
5615.6, 9.2261e-07
5617.6, 8.0133e-07
5619.6, 9.4787e-07
5621.6, 7.3409e-07
5623.6, 6.3863e-07
5625.6, 6.7585e-07
5627.6, 6.6145e-07
5629.6, 9.3988e-07
5631.6, 9.0224e-07
5633.6, 8.0566e-07
5635.6, 4.4523e-07
5637.6, 8.8663e-07
5639.6, 7.5571e-07
5641.6, 1.0989e-06
5643.6, 8.1274e-07
5645.6, 6.4472e-07
5647.6, 7.9896e-07
5649.6, 6.4199e-07
5651.6, 5.4461e-07
5653.6, 6.8541e-07
5655.6, 8.0989e-07
5657.7, 7.5537e-07
5659.7, 5.4902e-07
5661.7, 9.3598e-07
5663.7, 6.3385e-07
5665.7, 1.1495e-06
5667.7, 5.4224e-07
5669.7, 8.1116e-07
5671.7, 1.0097e-06
5673.7, 6.5848e-07
5675.7, 6.6889e-07
5677.7, 9.26e-07
5679.7, 7.506e-07
5681.7, 6.7406e-07
5683.7, 1.0711e-06
5685.7, 9.4907e-07
5687.7, 7.971e-07
5689.7, 6.4529e-07
5691.7, 9.2061e-07
5693.7, 6.9541e-07
5695.7, 1.0289e-06
5697.7, 5.51e-07
5699.7, 1.2376e-06
5701.7, 9.1294e-07
5703.7, 9.0814e-07
5705.7, 7.7836e-07
5707.7, 5.9977e-07
5709.7, 5.9201e-07
5711.7, 8.1221e-07
5713.7, 9.9673e-07
5715.7, 5.9451e-07
5717.7, 6.1532e-07
5719.7, 8.4026e-07
5721.7, 6.2239e-07
5723.7, 5.8821e-07
5725.7, 7.7159e-07
5727.7, 7.9852e-07
5729.7, 9.3411e-07
5731.7, 8.7072e-07
5733.7, 1.0472e-06
5735.7, 1.1621e-06
5737.7, 8.088e-07
5739.7, 5.4835e-07
5741.7, 9.6211e-07
5743.7, 1.2066e-06
5745.7, 7.3993e-07
5747.7, 9.1348e-07
5749.7, 6.4729e-07
5751.7, 9.891e-07
5753.7, 1.108e-06
5755.7, 8.2414e-07
5757.8, 7.7982e-07
5759.8, 6.9717e-07
5761.8, 1.1428e-06
5763.8, 7.9652e-07
5765.8, 7.7768e-07
5767.8, 7.2977e-07
5769.8, 7.9433e-07
5771.8, 9.2045e-07
5773.8, 7.5047e-07
5775.8, 9.8885e-07
5777.8, 8.7351e-07
5779.8, 9.3878e-07
5781.8, 8.4194e-07
5783.8, 6.3404e-07
5785.8, 7.4149e-07
5787.8, 5.3792e-07
5789.8, 5.7708e-07
5791.8, 8.9449e-07
5793.8, 7.7046e-07
5795.8, 8.1971e-07
5797.8, 9.5523e-07
5799.8, 9.3667e-07
5801.8, 6.3302e-07
5803.8, 8.7858e-07
5805.8, 6.0084e-07
5807.8, 1.0329e-06
5809.8, 1.0917e-06
5811.8, 4.8338e-07
5813.8, 9.3975e-07
5815.8, 9.5972e-07
5817.8, 5.2877e-07
5819.8, 1.0631e-06
5821.8, 1.0047e-06
5823.8, 1.0084e-06
5825.8, 8.8784e-07
5827.8, 7.4121e-07
5829.8, 8.4427e-07
5831.8, 1.0606e-06
5833.8, 9.2406e-07
5835.8, 8.8346e-07
5837.8, 9.1359e-07
5839.8, 7.198e-07
5841.8, 9.6997e-07
5843.8, 5.4762e-07
5845.8, 9.6945e-07
5847.8, 8.2056e-07
5849.8, 5.2006e-07
5851.8, 7.9702e-07
5853.8, 5.9378e-07
5855.8, 9.2003e-07
5857.9, 1.0453e-06
5859.9, 1.0865e-06
5861.9, 7.7598e-07
5863.9, 7.1436e-07
5865.9, 9.5433e-07
5867.9, 1.0409e-06
5869.9, 1.0065e-06
5871.9, 4.5444e-07
5873.9, 8.9226e-07
5875.9, 6.1825e-07
5877.9, 9.1121e-07
5879.9, 7.7806e-07
5881.9, 7.8404e-07
5883.9, 1.1309e-06
5885.9, 1.2319e-06
5887.9, 8.521e-07
5889.9, 7.017e-07
5891.9, 5.7675e-07
5893.9, 8.2255e-07
5895.9, 8.5134e-07
5897.9, 7.4123e-07
5899.9, 8.5496e-07
5901.9, 7.341e-07
5903.9, 8.129e-07
5905.9, 4.5277e-07
5907.9, 1.0384e-06
5909.9, 7.9483e-07
5911.9, 7.6151e-07
5913.9, 6.5073e-07
5915.9, 8.685e-07
5917.9, 6.2669e-07
5919.9, 9.5239e-07
5921.9, 8.8652e-07
5923.9, 8.635e-07
5925.9, 5.3213e-07
5927.9, 9.1525e-07
5929.9, 8.14e-07
5931.9, 9.9228e-07
5933.9, 8.2783e-07
5935.9, 8.9874e-07
5937.9, 1.0429e-06
5939.9, 7.6383e-07
5941.9, 9.0201e-07
5943.9, 1.0185e-06
5945.9, 8.4065e-07
5947.9, 6.1075e-07
5949.9, 9.6039e-07
5951.9, 8.5037e-07
5953.9, 7.444e-07
5955.9, 8.6355e-07
5958.0, 8.2114e-07
5960.0, 7.2373e-07
5962.0, 8.275e-07
5964.0, 7.1411e-07
5966.0, 8.4331e-07
5968.0, 3.4808e-07
5970.0, 8.4829e-07
5972.0, 8.8203e-07
5974.0, 8.2244e-07
5976.0, 1.0432e-06
5978.0, 7.9176e-07
5980.0, 7.8428e-07
5982.0, 8.4464e-07
5984.0, 7.7884e-07
5986.0, 6.8985e-07
5988.0, 8.1163e-07
5990.0, 8.1316e-07
5992.0, 8.734e-07
5994.0, 9.3127e-07
5996.0, 1.1059e-06
5998.0, 8.4809e-07
6000.0, 9.3084e-07
6002.0, 9.8818e-07
6004.0, 8.9997e-07
6006.0, 8.5867e-07
6008.0, 7.0859e-07
6010.0, 1.0105e-06
6012.0, 8.806e-07
6014.0, 7.681e-07
6016.0, 7.9965e-07
6018.0, 7.1408e-07
6020.0, 1.1133e-06
6022.0, 1.0285e-06
6024.0, 7.3818e-07
6026.0, 1.2456e-06
6028.0, 8.8645e-07
6030.0, 8.36e-07
6032.0, 1.0055e-06
6034.0, 1.2136e-06
6036.0, 8.4653e-07
6038.0, 8.2465e-07
6040.0, 1.149e-06
6042.0, 6.9853e-07
6044.0, 7.7572e-07
6046.0, 9.593e-07
6048.0, 1.1733e-06
6050.0, 8.3829e-07
6052.0, 9.2566e-07
6054.0, 9.1913e-07
6056.0, 5.7574e-07
6058.1, 6.5373e-07
6060.1, 8.8297e-07
6062.1, 1.0164e-06
6064.1, 7.8773e-07
6066.1, 8.3899e-07
6068.1, 1.1869e-06
6070.1, 9.406e-07
6072.1, 8.682e-07
6074.1, 6.3464e-07
6076.1, 6.4836e-07
6078.1, 9.6073e-07
6080.1, 9.2215e-07
6082.1, 1.0789e-06
6084.1, 8.7554e-07
6086.1, 7.7068e-07
6088.1, 6.5639e-07
6090.1, 5.4391e-07
6092.1, 6.9835e-07
6094.1, 1.0498e-06
6096.1, 7.8596e-07
6098.1, 1.0515e-06
6100.1, 9.2537e-07
6102.1, 8.9086e-07
6104.1, 9.3834e-07
6106.1, 8.0778e-07
6108.1, 7.7641e-07
6110.1, 6.2155e-07
6112.1, 6.3782e-07
6114.1, 1.1354e-06
6116.1, 5.3713e-07
6118.1, 1.156e-06
6120.1, 1.1188e-06
6122.1, 9.2149e-07
6124.1, 5.8277e-07
6126.1, 9.1188e-07
6128.1, 7.267e-07
6130.1, 7.7682e-07
6132.1, 7.1715e-07
6134.1, 1.2488e-06
6136.1, 9.3154e-07
6138.1, 7.5079e-07
6140.1, 8.5013e-07
6142.1, 8.8303e-07
6144.1, 8.4307e-07
6146.1, 6.8692e-07
6148.1, 1.0385e-06
6150.1, 4.971e-07
6152.1, 1.0793e-06
6154.1, 6.4468e-07
6156.1, 1.0389e-06
6158.2, 7.5803e-07
6160.2, 8.0925e-07
6162.2, 9.9493e-07
6164.2, 8.1125e-07
6166.2, 1.0456e-06
6168.2, 7.3846e-07
6170.2, 6.2836e-07
6172.2, 1.1925e-06
6174.2, 8.0935e-07
6176.2, 5.9011e-07
6178.2, 9.3e-07
6180.2, 1.2239e-06
6182.2, 5.9429e-07
6184.2, 9.7636e-07
6186.2, 1.0433e-06
6188.2, 8.68e-07
6190.2, 8.697e-07
6192.2, 6.4135e-07
6194.2, 1.0933e-06
6196.2, 8.7421e-07
6198.2, 1.0953e-06
6200.2, 1.3927e-06
6202.2, 8.3235e-07
6204.2, 8.8948e-07
6206.2, 1.2508e-06
6208.2, 9.8256e-07
6210.2, 1.0001e-06
6212.2, 8.8179e-07
6214.2, 5.0985e-07
6216.2, 8.1774e-07
6218.2, 1.1317e-06
6220.2, 8.8041e-07
6222.2, 9.3677e-07
6224.2, 9.0107e-07
6226.2, 1.1064e-06
6228.2, 1.0639e-06
6230.2, 8.3787e-07
6232.2, 6.6485e-07
6234.2, 8.227e-07
6236.2, 9.0948e-07
6238.2, 6.5076e-07
6240.2, 8.2468e-07
6242.2, 8.7317e-07
6244.2, 1.2675e-06
6246.2, 7.6365e-07
6248.2, 7.8885e-07
6250.2, 1.1743e-06
6252.2, 7.0113e-07
6254.2, 9.8851e-07
6256.2, 8.1061e-07
6258.3, 1.2532e-06
6260.3, 8.75e-07
6262.3, 8.9002e-07
6264.3, 1.0326e-06
6266.3, 7.9261e-07
6268.3, 1.0888e-06
6270.3, 1.1354e-06
6272.3, 7.9314e-07
6274.3, 7.4087e-07
6276.3, 1.011e-06
6278.3, 1.3162e-06
6280.3, 9.6161e-07
6282.3, 1.1255e-06
6284.3, 8.1761e-07
6286.3, -4.045e-08
6288.3, -3.152e-08
6290.3, -3.369e-08
6292.3, -3.045e-08
6294.3, -3.271e-08
6296.3, -3.627e-08
6298.3, -3.866e-08
6300.3, -3.707e-08
6302.3, -3.756e-08
6304.3, -3.362e-08
6306.3, -3.23e-08
6308.3, -3.456e-08
6310.3, -3.751e-08
6312.3, -3.306e-08
6314.3, -3.519e-08
6316.3, -3.817e-08
6318.3, -3.746e-08
6320.3, -3.471e-08
6322.3, -3.716e-08
6324.3, -3.495e-08
6326.3, -3.396e-08
6328.3, -3.586e-08
6330.3, -3.808e-08
6332.3, -3.887e-08
6334.3, -3.79e-08
6336.3, -3.84e-08
6338.3, -3.608e-08
6340.3, -3.38e-08
6342.3, -4.088e-08
6344.3, -3.746e-08
6346.3, -4.213e-08
6348.3, -3.862e-08
6350.3, -3.668e-08
6352.3, -3.557e-08
6354.3, -3.559e-08
6356.3, -3.687e-08
6358.4, -3.511e-08
6360.4, -3.255e-08
6362.4, -3.88e-08
6364.4, -4.009e-08
6366.4, -3.479e-08
6368.4, -3.596e-08
6370.4, -3.474e-08
6372.4, -3.609e-08
6374.4, -3.716e-08
6376.4, -3.699e-08
6378.4, -3.213e-08
6380.4, -3.333e-08
6382.4, -3.339e-08
6384.4, -3.521e-08
6386.4, -3.022e-08
6388.4, -3.351e-08
6390.4, -3.517e-08
6392.4, -3.495e-08
6394.4, -3.293e-08
6396.4, -3.015e-08
6398.4, -3.046e-08
6400.4, -3.052e-08
6402.4, -3.124e-08
6404.4, -3.004e-08
6406.4, -3.284e-08
6408.4, -3.56e-08
6410.4, -3.094e-08
6412.4, -3.043e-08
6414.4, -3.13e-08
6416.4, -3.118e-08
6418.4, -3.268e-08
6420.4, -3.309e-08
6422.4, -3.457e-08
6424.4, -3.571e-08
6426.4, -3.237e-08
6428.4, -2.909e-08
6430.4, -3.352e-08
6432.4, -3.331e-08
6434.4, -3.392e-08
6436.4, -3.295e-08
6438.4, -3.307e-08
6440.4, -3.314e-08
6442.4, -3.255e-08
6444.4, -3.426e-08
6446.4, -3.5e-08
6448.4, -3.245e-08
6450.4, -3.611e-08
6452.4, -3.304e-08
6454.4, -3.234e-08
6456.4, -3.096e-08
6458.5, -3.286e-08
6460.5, -3.583e-08
6462.5, -3.536e-08
6464.5, -3.35e-08
6466.5, -2.961e-08
6468.5, -3.12e-08
6470.5, -3.313e-08
6472.5, -3.23e-08
6474.5, -3.364e-08
6476.5, -3.692e-08
6478.5, -3.403e-08
6480.5, -3.409e-08
6482.5, -3.46e-08
6484.5, -3.311e-08
6486.5, -3.369e-08
6488.5, -3.328e-08
6490.5, -3.083e-08
6492.5, -3.001e-08
6494.5, -2.879e-08
6496.5, -3.189e-08
6498.5, -2.981e-08
6500.5, -2.951e-08
6502.5, -2.951e-08
6504.5, -3.328e-08
6506.5, -2.865e-08
6508.5, -2.926e-08
6510.5, -3.295e-08
6512.5, -3.315e-08
6514.5, -2.96e-08
6516.5, -3.513e-08
6518.5, -3.061e-08
6520.5, -2.79e-08
6522.5, -3.236e-08
6524.5, -3.247e-08
6526.5, -3.001e-08
6528.5, -2.849e-08
6530.5, -2.94e-08
6532.5, -3.187e-08
6534.5, -3.391e-08
6536.5, -3.28e-08
6538.5, -2.98e-08
6540.5, -3.121e-08
6542.5, -3.293e-08
6544.5, -3.174e-08
6546.5, -3.038e-08
6548.5, -3.302e-08
6550.5, -3.484e-08
6552.5, -3.514e-08
6554.5, -3.315e-08
6556.5, -3.217e-08
6558.6, -3.048e-08
6560.6, -3.09e-08
6562.6, -3.659e-08
6564.6, -3.105e-08
6566.6, -3.281e-08
6568.6, -3.593e-08
6570.6, -3.25e-08
6572.6, -3.611e-08
6574.6, -3.99e-08
6576.6, -2.996e-08
6578.6, -3.259e-08
6580.6, -3.35e-08
6582.6, -3.449e-08
6584.6, -3.301e-08
6586.6, -3.497e-08
6588.6, -3.112e-08
6590.6, -3.332e-08
6592.6, -3.308e-08
6594.6, -3.571e-08
6596.6, -3.261e-08
6598.6, -2.984e-08
6600.6, -3.04e-08
6602.6, -3.335e-08
6604.6, -3.52e-08
6606.6, -3.156e-08
6608.6, -3.487e-08
6610.6, -3.277e-08
6612.6, -2.981e-08
6614.6, -3.015e-08
6616.6, -3.372e-08
6618.6, -3.481e-08
6620.6, -3.878e-08
6622.6, -3.637e-08
6624.6, -3.416e-08
6626.6, -3.285e-08
6628.6, -3.202e-08
6630.6, -3.207e-08
6632.6, -3.085e-08
6634.6, -3.533e-08
6636.6, -3.357e-08
6638.6, -3.55e-08
6640.6, -3.115e-08
6642.6, -3.165e-08
6644.6, -3.044e-08
6646.6, -3.445e-08
6648.6, -3.394e-08
6650.6, -3.403e-08
6652.6, -3.436e-08
6654.6, -3.503e-08
6656.6, -3.541e-08
6658.7, -3.131e-08
6660.7, -3.402e-08
6662.7, -3.3e-08
6664.7, -3.535e-08
6666.7, -3.695e-08
6668.7, -3.119e-08
6670.7, -3.457e-08
6672.7, -3.088e-08
6674.7, -3.447e-08
6676.7, -3.948e-08
6678.7, -3.686e-08
6680.7, -3.67e-08
6682.7, -4.101e-08
6684.7, -4.019e-08
6686.7, -4.025e-08
6688.7, -4.121e-08
6690.7, -3.924e-08
6692.7, -4.236e-08
6694.7, -4.07e-08
6696.7, -3.982e-08
6698.7, -3.153e-08
6700.7, -3.241e-08
6702.7, -3.292e-08
6704.7, -3.31e-08
6706.7, -3.148e-08
6708.7, -3.196e-08
6710.7, -3.126e-08
6712.7, -3.701e-08
6714.7, -3.337e-08
6716.7, -3.134e-08
6718.7, -3.525e-08
6720.7, -3.053e-08
6722.7, -3.083e-08
6724.7, -2.96e-08
6726.7, -3.266e-08
6728.7, -3.169e-08
6730.7, -3.416e-08
6732.7, -3.085e-08
6734.7, -3.101e-08
6736.7, -2.679e-08
6738.7, -3.245e-08
6740.7, -3.036e-08
6742.7, -3.521e-08
6744.7, -3.436e-08
6746.7, -2.983e-08
6748.7, -3.261e-08
6750.7, -2.857e-08
6752.7, -3.21e-08
6754.7, -3.176e-08
6756.7, -3.081e-08
6758.8, -3.206e-08
6760.8, -3.122e-08
6762.8, -3.048e-08
6764.8, -3.162e-08
6766.8, -3.465e-08
6768.8, -3.067e-08
6770.8, -3.577e-08
6772.8, -3.347e-08
6774.8, -3.656e-08
6776.8, -3.69e-08
6778.8, -3.644e-08
6780.8, -2.977e-08
6782.8, -3.353e-08
6784.8, -3.392e-08
6786.8, -2.91e-08
6788.8, -3.151e-08
6790.8, -3.576e-08
6792.8, -3.345e-08
6794.8, -3.6e-08
6796.8, -3.479e-08
6798.8, -3.318e-08
6800.8, -3.12e-08
6802.8, -3.576e-08
6804.8, -3.476e-08
6806.8, -3.614e-08
6808.8, -3.443e-08
6810.8, -3.159e-08
6812.8, -3.178e-08
6814.8, -3.228e-08
6816.8, -3.366e-08
6818.8, -3.642e-08
6820.8, -3.332e-08
6822.8, -3.589e-08
6824.8, -3.694e-08
6826.8, -3.476e-08
6828.8, -3.476e-08
6830.8, -3.752e-08
6832.8, -2.988e-08
6834.8, -3.348e-08
6836.8, -3.637e-08
6838.8, -3.325e-08
6840.8, -3.52e-08
6842.8, -3.775e-08
6844.8, -3.741e-08
6846.8, -3.139e-08
6848.8, -3.478e-08
6850.8, -3.667e-08
6852.8, -3.202e-08
6854.8, -3.823e-08
6856.8, -3.819e-08
6858.9, -3.813e-08
6860.9, -3.623e-08
6862.9, -3.512e-08
6864.9, -3.828e-08
6866.9, -3.578e-08
6868.9, -3.76e-08
6870.9, -3.723e-08
6872.9, -3.812e-08
6874.9, -3.865e-08
6876.9, -3.921e-08
6878.9, -3.745e-08
6880.9, -3.899e-08
6882.9, -3.716e-08
6884.9, -4.175e-08
6886.9, -3.957e-08
6888.9, -3.637e-08
6890.9, -3.903e-08
6892.9, -3.837e-08
6894.9, -3.421e-08
6896.9, -3.708e-08
6898.9, -3.642e-08
6900.9, -3.867e-08
6902.9, -3.07e-08
6904.9, -3.247e-08
6906.9, -3.311e-08
6908.9, -3.311e-08
6910.9, -3.752e-08
6912.9, -3.691e-08
6914.9, -3.853e-08
6916.9, -3.596e-08
6918.9, -3.083e-08
6920.9, -2.958e-08
6922.9, -2.653e-08
6924.9, -3.416e-08
6926.9, -2.899e-08
6928.9, -3.626e-08
6930.9, -3.431e-08
6932.9, -3.352e-08
6934.9, -3.307e-08
6936.9, -3.202e-08
6938.9, -3.255e-08
6940.9, -3.397e-08
6942.9, -3.426e-08
6944.9, -2.979e-08
6946.9, -3.149e-08
6948.9, -3.188e-08
6950.9, -3.414e-08
6952.9, -2.971e-08
6954.9, -3.1e-08
6956.9, -3.217e-08
6959.0, -2.911e-08
6961.0, -3.289e-08
6963.0, -3.339e-08
6965.0, -3.121e-08
6967.0, -2.925e-08
6969.0, -2.959e-08
6971.0, -3.131e-08
6973.0, -2.857e-08
6975.0, -3.114e-08
6977.0, -3.479e-08
6979.0, -3.043e-08
6981.0, -3.077e-08
6983.0, -2.979e-08
6985.0, -3.156e-08
6987.0, -3.121e-08
6989.0, -3.491e-08
6991.0, -3.367e-08
6993.0, -3.567e-08
6995.0, -3.705e-08
6997.0, -3.161e-08
6999.0, -3.064e-08
7001.0, -3.347e-08
7003.0, -3.383e-08
7005.0, -3.495e-08
7007.0, -3.609e-08
7009.0, -3.671e-08
7011.0, -3.48e-08
7013.0, -3.39e-08
7015.0, -3.513e-08
7017.0, -3.444e-08
7019.0, -2.995e-08
7021.0, -3.299e-08
7023.0, -2.936e-08
7025.0, -3.454e-08
7027.0, -3.255e-08
7029.0, -3.693e-08
7031.0, -3.345e-08
7033.0, -3.572e-08
7035.0, -3.356e-08
7037.0, -3.526e-08
7039.0, -3.5e-08
7041.0, -3.475e-08
7043.0, -3.517e-08
7045.0, -3.118e-08
7047.0, -3.662e-08
7049.0, -3.65e-08
7051.0, -3.688e-08
7053.0, -3.547e-08
7055.0, -3.953e-08
7057.0, -3.768e-08
7059.1, -3.858e-08
7061.1, -3.964e-08
7063.1, -3.622e-08
7065.1, -3.695e-08
7067.1, -3.819e-08
7069.1, -3.409e-08
7071.1, -3.537e-08
7073.1, -3.501e-08
7075.1, -3.815e-08
7077.1, -3.478e-08
7079.1, -3.697e-08
7081.1, -3.687e-08
7083.1, -3.551e-08
7085.1, -3.222e-08
7087.1, -3.424e-08
7089.1, -3.245e-08
7091.1, -3.454e-08
7093.1, -3.636e-08
7095.1, -3.349e-08
7097.1, -3.549e-08
7099.1, -3.404e-08
7101.1, -3.624e-08
7103.1, -3.896e-08
7105.1, -3.735e-08
7107.1, -3.674e-08
7109.1, -3.804e-08
7111.1, -3.838e-08
7113.1, -3.615e-08
7115.1, -3.452e-08
7117.1, -3.507e-08
7119.1, -3.542e-08
7121.1, -3.311e-08
7123.1, -3.519e-08
7125.1, -3.687e-08
7127.1, -3.463e-08
7129.1, -3.608e-08
7131.1, -3.592e-08
7133.1, -3.365e-08
7135.1, -3.486e-08
7137.1, -3.585e-08
7139.1, -3.192e-08
7141.1, -3.509e-08
7143.1, -3.641e-08
7145.1, -3.614e-08
7147.1, -3.903e-08
7149.1, -3.73e-08
7151.1, -3.843e-08
7153.1, -3.734e-08
7155.1, -3.922e-08
7157.1, -3.705e-08
7159.2, -3.42e-08
7161.2, -3.365e-08
7163.2, -3.42e-08
7165.2, -3.446e-08
7167.2, -3.798e-08
7169.2, -3.908e-08
7171.2, -4.289e-08
7173.2, -4.166e-08
7175.2, -4.103e-08
7177.2, -3.751e-08
7179.2, -3.825e-08
7181.2, -3.383e-08
7183.2, -3.826e-08
7185.2, -3.654e-08
7187.2, -3.629e-08
7189.2, -3.753e-08
7191.2, -3.873e-08
7193.2, -3.615e-08
7195.2, -3.834e-08
7197.2, -3.681e-08
7199.2, -3.439e-08
7201.2, -3.403e-08
7203.2, -3.817e-08
7205.2, -3.585e-08
7207.2, -3.577e-08
7209.2, -3.42e-08
7211.2, -3.488e-08
7213.2, -3.859e-08
7215.2, -3.972e-08
7217.2, -3.974e-08
7219.2, -3.602e-08
7221.2, -3.989e-08
7223.2, -3.656e-08
7225.2, -4.398e-08
7227.2, -3.954e-08
7229.2, -3.796e-08
7231.2, -3.945e-08
7233.2, -3.754e-08
7235.2, -4.014e-08
7237.2, -3.855e-08
7239.2, -3.392e-08
7241.2, -3.95e-08
7243.2, -4.027e-08
7245.2, -4.357e-08
7247.2, -4.014e-08
7249.2, -3.71e-08
7251.2, -3.535e-08
7253.2, -3.929e-08
7255.2, -3.684e-08
7257.2, -3.874e-08
7259.3, -3.85e-08
7261.3, -3.509e-08
7263.3, -3.875e-08
7265.3, -3.648e-08
7267.3, -3.535e-08
7269.3, -4.05e-08
7271.3, -3.679e-08
7273.3, -4.26e-08
7275.3, -3.852e-08
7277.3, -3.79e-08
7279.3, -3.791e-08
7281.3, -3.535e-08
7283.3, -3.967e-08
7285.3, -3.691e-08
7287.3, -3.629e-08
7289.3, -3.98e-08
7291.3, -3.679e-08
7293.3, -3.482e-08
7295.3, -3.82e-08
7297.3, -3.465e-08
7299.3, -3.349e-08
7301.3, -3.227e-08
7303.3, -2.956e-08
7305.3, -3.361e-08
7307.3, -3.477e-08
7309.3, -3.467e-08
7311.3, -3.153e-08
7313.3, -3.406e-08
7315.3, -3.486e-08
7317.3, -3.227e-08
7319.3, -3.548e-08
7321.3, -3.204e-08
7323.3, -3.364e-08
7325.3, -3.555e-08
7327.3, -3.041e-08
7329.3, -3.459e-08
7331.3, -3.135e-08
7333.3, -3.345e-08
7335.3, -2.886e-08
7337.3, -3.107e-08
7339.3, -3.385e-08
7341.3, -3.24e-08
7343.3, -3.447e-08
7345.3, -2.885e-08
7347.3, -2.845e-08
7349.3, -3.039e-08
7351.3, -2.862e-08
7353.3, -2.856e-08
7355.3, -3.175e-08
7357.3, -2.843e-08
7359.4, -2.64e-08
7361.4, -2.859e-08
7363.4, -2.943e-08
7365.4, -3.27e-08
7367.4, -2.928e-08
7369.4, -3.051e-08
7371.4, -3.087e-08
7373.4, -3.203e-08
7375.4, -3.15e-08
7377.4, -3.205e-08
7379.4, -3.157e-08
7381.4, -3.09e-08
7383.4, -3.62e-08
7385.4, 6.9423e-07
7387.4, 5.1594e-07
7389.4, 3.2638e-07
7391.4, 6.9777e-07
7393.4, 3.3282e-07
7395.4, 4.8788e-07
7397.4, 7.6048e-07
7399.4, 7.3262e-07
7401.4, 6.9045e-07
7403.4, 4.5436e-07
7405.4, 5.1352e-07
7407.4, 6.7203e-07
7409.4, 6.5758e-07
7411.4, 7.8588e-07
7413.4, 5.5208e-07
7415.4, 5.3504e-07
7417.4, 5.7646e-07
7419.4, 8.5012e-07
7421.4, 6.0106e-07
7423.4, 8.488e-07
7425.4, 6.23e-07
7427.4, 3.4254e-07
7429.4, 4.7833e-07
7431.4, 5.3653e-07
7433.4, 5.4757e-07
7435.4, 4.6022e-07
7437.4, 5.3543e-07
7439.4, 5.7297e-07
7441.4, 6.5684e-07
7443.4, 6.7543e-07
7445.4, 5.2179e-07
7447.4, 6.5745e-07
7449.4, 7.4941e-07
7451.4, 9.3818e-07
7453.4, 4.3604e-07
7455.4, 5.5339e-07
7457.4, 4.5613e-07
7459.5, 6.5996e-07
7461.5, 4.9619e-07
7463.5, 6.183e-07
7465.5, 6.4816e-07
7467.5, 8.5408e-07
7469.5, 3.9204e-07
7471.5, 6.6204e-07
7473.5, 7.1386e-07
7475.5, 5.8429e-07
7477.5, 4.7412e-07
7479.5, 6.7918e-07
7481.5, 5.8166e-07
7483.5, 7.251e-07
7485.5, 8.6464e-07
7487.5, 9.6996e-07
7489.5, 8.2802e-07
7491.5, 1.2301e-06
7493.5, 9.3644e-07
7495.5, 7.259e-07
7497.5, 6.8653e-07
7499.5, 6.91e-07
7501.5, 1.1521e-06
7503.5, 6.5327e-07
7505.5, 4.9046e-07
7507.5, 6.7122e-07
7509.5, 5.6253e-07
7511.5, 5.2019e-07
7513.5, 5.5967e-07
7515.5, 4.1502e-07
7517.5, 6.1182e-07
7519.5, 8.1315e-07
7521.5, 9.1749e-07
7523.5, 7.0716e-07
7525.5, 4.736e-07
7527.5, 6.4445e-07
7529.5, 5.9209e-07
7531.5, 1.0583e-06
7533.5, 8.7872e-07
7535.5, 7.1924e-07
7537.5, 6.5231e-07
7539.5, 1.0077e-06
7541.5, 9.5538e-07
7543.5, 5.5814e-07
7545.5, 7.3641e-07
7547.5, 9.5958e-07
7549.5, 4.8346e-07
7551.5, 8.7551e-07
7553.5, 8.0698e-07
7555.5, 6.4841e-07
7557.5, 8.9175e-07
7559.6, 8.8845e-07
7561.6, 7.6507e-07
7563.6, 1.0879e-06
7565.6, 7.6901e-07
7567.6, 7.8299e-07
7569.6, 9.2082e-07
7571.6, 8.0819e-07
7573.6, 7.3154e-07
7575.6, 8.0568e-07
7577.6, 9.2029e-07
7579.6, 7.8678e-07
7581.6, 7.9265e-07
7583.6, 6.6207e-07
7585.6, 6.7473e-07
7587.6, 9.3829e-07
7589.6, 6.6033e-07
7591.6, 5.9605e-07
7593.6, 6.8138e-07
7595.6, 4.0112e-07
7597.6, 5.1841e-07
7599.6, 8.048e-07
7601.6, 7.563e-07
7603.6, 7.4815e-07
7605.6, 1.2517e-06
7607.6, 1.0117e-06
7609.6, 5.7657e-07
7611.6, 6.5579e-07
7613.6, 7.5522e-07
7615.6, 6.65e-07
7617.6, 6.9693e-07
7619.6, 6.5811e-07
7621.6, 8.0682e-07
7623.6, 9.461e-07
7625.6, 9.4021e-07
7627.6, 6.5469e-07
7629.6, 1.056e-06
7631.6, 1.2654e-06
7633.6, 6.2238e-07
7635.6, 4.503e-07
7637.6, 7.5021e-07
7639.6, 7.1953e-07
7641.6, 8.7514e-07
7643.6, 8.963e-07
7645.6, 7.4712e-07
7647.6, 8.3453e-07
7649.6, 7.5728e-07
7651.6, 7.1588e-07
7653.6, 5.4502e-07
7655.6, 6.669e-07
7657.6, 7.5348e-07
7659.7, 1.0294e-06
7661.7, 9.4173e-07
7663.7, 8.6137e-07
7665.7, 1.0276e-06
7667.7, 5.0761e-07
7669.7, 8.6428e-07
7671.7, 8.656e-07
7673.7, 7.0019e-07
7675.7, 7.2583e-07
7677.7, 4.981e-07
7679.7, 6.8636e-07
7681.7, 6.7342e-07
7683.7, 6.8275e-07
7685.7, 1.0358e-06
7687.7, 8.2282e-07
7689.7, 6.5465e-07
7691.7, 4.4214e-07
7693.7, 1.3461e-06
7695.7, 7.4259e-07
7697.7, 8.6549e-07
7699.7, 8.1584e-07
7701.7, 5.2993e-07
7703.7, 9.1399e-07
7705.7, 7.5331e-07
7707.7, 6.6541e-07
7709.7, 1.0572e-06
7711.7, 4.7131e-07
7713.7, 1.0356e-06
7715.7, 9.9212e-07
7717.7, 6.1407e-07
7719.7, 7.9032e-07
7721.7, 6.7605e-07
7723.7, 5.8639e-07
7725.7, 6.4554e-07
7727.7, 5.5482e-07
7729.7, 1.1457e-06
7731.7, 1.0126e-06
7733.7, 8.7866e-07
7735.7, 6.2903e-07
7737.7, 9.8676e-07
7739.7, 7.6441e-07
7741.7, 6.7104e-07
7743.7, 8.6615e-07
7745.7, 6.1662e-07
7747.7, 7.7284e-07
7749.7, 5.7834e-07
7751.7, 8.4926e-07
7753.7, 9.2759e-07
7755.7, 6.6654e-07
7757.7, 8.2918e-07
7759.8, 7.0606e-07
7761.8, 8.0849e-07
7763.8, 1.3149e-06
7765.8, 6.6115e-07
7767.8, 6.513e-07
7769.8, 1.1217e-06
7771.8, 7.061e-07
7773.8, 1.0398e-06
7775.8, 6.2581e-07
7777.8, 9.8238e-07
7779.8, 8.939e-07
7781.8, 7.6837e-07
7783.8, 5.8395e-07
7785.8, 5.8966e-07
7787.8, 9.9978e-07
7789.8, 1.0055e-06
7791.8, 6.4571e-07
7793.8, 6.0465e-07
7795.8, 6.5728e-07
7797.8, 9.1426e-07
7799.8, 1.1594e-06
7801.8, 7.7423e-07
7803.8, 8.2852e-07
7805.8, 7.6981e-07
7807.8, 7.2535e-07
7809.8, 1.0426e-06
7811.8, 1.1299e-06
7813.8, 8.7516e-07
7815.8, 1.0014e-06
7817.8, 9.7869e-07
7819.8, 9.7629e-07
7821.8, 1.1174e-06
7823.8, 5.2019e-07
7825.8, 7.3531e-07
7827.8, 7.3268e-07
7829.8, 6.9147e-07
7831.8, 8.7884e-07
7833.8, 7.5915e-07
7835.8, 9.3625e-07
7837.8, 1.004e-06
7839.8, 7.3395e-07
7841.8, 8.7761e-07
7843.8, 9.5376e-07
7845.8, 8.964e-07
7847.8, 1.1382e-06
7849.8, 8.3658e-07
7851.8, 1.0344e-06
7853.8, 8.997e-07
7855.8, 4.4617e-07
7857.8, 1.1322e-06
7859.9, 1.0049e-06
7861.9, 5.9817e-07
7863.9, 6.9355e-07
7865.9, 1.0201e-06
7867.9, 5.579e-07
7869.9, 6.8787e-07
7871.9, 9.929e-07
7873.9, 5.9782e-07
7875.9, 8.4134e-07
7877.9, 1.029e-06
7879.9, 1.0542e-06
7881.9, 8.1847e-07
7883.9, 8.2606e-07
7885.9, 7.1413e-07
7887.9, 8.1842e-07
7889.9, 7.7137e-07
7891.9, 6.751e-07
7893.9, 6.9308e-07
7895.9, 1.1241e-06
7897.9, 8.9722e-07
7899.9, 7.6924e-07
7901.9, 7.1019e-07
7903.9, 1.1256e-06
7905.9, 8.3333e-07
7907.9, 8.8678e-07
7909.9, 8.8568e-07
7911.9, 8.8484e-07
7913.9, 7.6671e-07
7915.9, 9.4198e-07
7917.9, 8.8807e-07
7919.9, 7.3872e-07
7921.9, 7.4847e-07
7923.9, 7.2322e-07
7925.9, 7.1161e-07
7927.9, 9.005e-07
7929.9, 8.6108e-07
7931.9, 1.1429e-06
7933.9, 5.6672e-07
7935.9, 1.1721e-06
7937.9, 8.21e-07
7939.9, 7.8901e-07
7941.9, 1.0062e-06
7943.9, 7.4816e-07
7945.9, 9.4331e-07
7947.9, 6.9413e-07
7949.9, 1.1724e-06
7951.9, 7.4648e-07
7953.9, 6.4421e-07
7955.9, 9.6506e-07
7957.9, 7.5861e-07
7960.0, 8.3174e-07
7962.0, 1.3308e-06
7964.0, 4.8968e-07
7966.0, 6.1255e-07
7968.0, 7.4683e-07
7970.0, 8.5871e-07
7972.0, 5.8604e-07
7974.0, 1.2834e-06
7976.0, 8.3501e-07
7978.0, 7.8585e-07
7980.0, 8.8619e-07
7982.0, 1.1199e-06
7984.0, 8.0095e-07
7986.0, 7.3107e-07
7988.0, 8.8413e-07
7990.0, 9.5516e-07
7992.0, 7.4982e-07
7994.0, 9.5523e-07
7996.0, 9.9448e-07
7998.0, 8.3099e-07
8000.0, 8.5243e-07
8002.0, 8.7931e-07
8004.0, 1.2058e-06
8006.0, 6.2169e-07
8008.0, 7.1944e-07
8010.0, 6.4259e-07
8012.0, 7.2087e-07
8014.0, 9.6345e-07
8016.0, 9.6268e-07
8018.0, 7.5368e-07
8020.0, 1.0086e-06
8022.0, 8.7787e-07
8024.0, 8.529e-07
8026.0, 7.5871e-07
8028.0, 9.9866e-07
8030.0, 6.1111e-07
8032.0, 6.133e-07
8034.0, 8.7544e-07
8036.0, 9.0817e-07
8038.0, 7.2131e-07
8040.0, 1.0871e-06
8042.0, 7.3796e-07
8044.0, 9.6214e-07
8046.0, 9.5212e-07
8048.0, 6.4879e-07
8050.0, 6.9131e-07
8052.0, 9.0273e-07
8054.0, 8.2116e-07
8056.0, 5.3187e-07
8058.0, 1.074e-06
8060.1, 9.9003e-07
8062.1, 1.1085e-06
8064.1, 1.0411e-06
8066.1, 8.5404e-07
8068.1, 7.0253e-07
8070.1, 1.1794e-06
8072.1, 1.2807e-06
8074.1, 8.6453e-07
8076.1, 7.2536e-07
8078.1, 9.4076e-07
8080.1, 7.5879e-07
8082.1, 6.3045e-07
8084.1, 9.5041e-07
8086.1, 1.2978e-06
8088.1, 1.0135e-06
8090.1, 7.1217e-07
8092.1, 1.1122e-06
8094.1, 9.3609e-07
8096.1, 1.3849e-06
8098.1, 1.0793e-06
8100.1, 8.785e-07
8102.1, 7.1988e-07
8104.1, 9.0298e-07
8106.1, 1.0951e-06
8108.1, 6.6946e-07
8110.1, 6.6303e-07
8112.1, 7.7029e-07
8114.1, 1.1419e-06
8116.1, 8.559e-07
8118.1, 6.2525e-07
8120.1, 5.8855e-07
8122.1, 9.9822e-07
8124.1, 9.8345e-07
8126.1, 1.0465e-06
8128.1, 8.9134e-07
8130.1, 7.8363e-07
8132.1, 6.3772e-07
8134.1, 6.3233e-07
8136.1, 7.5009e-07
8138.1, 7.5033e-07
8140.1, 1.1102e-06
8142.1, 5.2508e-07
8144.1, 8.6502e-07
8146.1, 1.0828e-06
8148.1, 6.7827e-07
8150.1, 9.5362e-07
8152.1, 7.282e-07
8154.1, 8.4636e-07
8156.1, 9.8969e-07
8158.1, 9.1329e-07
8160.2, 7.6797e-07
8162.2, 9.9407e-07
8164.2, 9.7426e-07
8166.2, 7.9049e-07
8168.2, 7.8962e-07
8170.2, 8.2596e-07
8172.2, 7.2526e-07
8174.2, 6.8489e-07
8176.2, 4.8068e-07
8178.2, 9.4174e-07
8180.2, 9.3489e-07
8182.2, 1.0806e-06
8184.2, 8.6834e-07
8186.2, 1.0348e-06
8188.2, 1.1494e-06
8190.2, 6.224e-07
8192.2, 6.227e-07
8194.2, 8.3153e-07
8196.2, 9.1614e-07
8198.2, 1.0071e-06
8200.2, 7.1338e-07
8202.2, 9.1694e-07
8204.2, 8.6479e-07
8206.2, 8.5768e-07
8208.2, 9.167e-07
8210.2, 1.0007e-06
8212.2, 8.1863e-07
8214.2, 1.0676e-06
8216.2, 9.7999e-07
8218.2, 9.9981e-07
8220.2, 9.7407e-07
8222.2, 7.7031e-07
8224.2, 9.1718e-07
8226.2, 9.5455e-07
8228.2, 9.9583e-07
8230.2, 1.1152e-06
8232.2, 1.1862e-06
8234.2, 9.4112e-07
8236.2, 6.8822e-07
8238.2, 7.3449e-07
8240.2, 9.0901e-07
8242.2, 1.0704e-06
8244.2, 8.1248e-07
8246.2, 8.1713e-07
8248.2, 1.3327e-06
8250.2, 8.5946e-07
8252.2, 9.7067e-07
8254.2, 8.2407e-07
8256.2, 1.239e-06
8258.2, 9.4411e-07
8260.3, 7.9754e-07
8262.3, 8.522e-07
8264.3, 8.6057e-07
8266.3, 9.5807e-07
8268.3, 8.1199e-07
8270.3, 8.1769e-07
8272.3, 7.0938e-07
8274.3, 9.0485e-07
8276.3, 1.2757e-06
8278.3, 6.4638e-07
8280.3, 9.8509e-07
8282.3, 8.4152e-07
8284.3, 1.1251e-06
8286.3, 8.4964e-07
8288.3, 7.5335e-07
8290.3, 8.4246e-07
8292.3, 8.5343e-07
8294.3, 1.165e-06
8296.3, 6.2286e-07
8298.3, 1.1178e-06
8300.3, 1.0713e-06
8302.3, 9.7573e-07
8304.3, 5.5611e-07
8306.3, 9.4693e-07
8308.3, 8.5956e-07
8310.3, 8.0484e-07
8312.3, 7.1057e-07
8314.3, 9.7583e-07
8316.3, 5.8339e-07
8318.3, 8.8901e-07
8320.3, 9.3685e-07
8322.3, 8.5738e-07
8324.3, 9.2749e-07
8326.3, 7.1887e-07
8328.3, 7.6474e-07
8330.3, 8.1595e-07
8332.3, 1.0007e-06
8334.3, 1.1476e-06
8336.3, 7.209e-07
8338.3, 9.9324e-07
8340.3, 6.7215e-07
8342.3, 8.8706e-07
8344.3, 1.1268e-06
8346.3, 6.7864e-07
8348.3, 6.4137e-07
8350.3, 7.6603e-07
8352.3, 8.564e-07
8354.3, 1.0951e-06
8356.3, 7.9319e-07
8358.3, 6.4803e-07
8360.4, 9.4105e-07
8362.4, 7.1786e-07
8364.4, 8.7216e-07
8366.4, 7.3763e-07
8368.4, 1.0189e-06
8370.4, 1.0279e-06
8372.4, 6.112e-07
8374.4, 6.2077e-07
8376.4, 5.3478e-07
8378.4, 9.6222e-07
8380.4, 7.3072e-07
8382.4, 6.8027e-07
8384.4, 1.0728e-06
8386.4, -2.404e-08
8388.4, -2.624e-08
8390.4, -2.912e-08
8392.4, -2.901e-08
8394.4, -2.849e-08
8396.4, -2.712e-08
8398.4, -2.58e-08
8400.4, -2.47e-08
8402.4, -2.852e-08
8404.4, -3.024e-08
8406.4, -2.744e-08
8408.4, -2.532e-08
8410.4, -2.558e-08
8412.4, -3.034e-08
8414.4, -2.722e-08
8416.4, -2.873e-08
8418.4, -2.834e-08
8420.4, -2.835e-08
8422.4, -2.603e-08
8424.4, -2.66e-08
8426.4, -2.584e-08
8428.4, -2.636e-08
8430.4, -2.424e-08
8432.4, -2.255e-08
8434.4, -2.472e-08
8436.4, -2.939e-08
8438.4, -3.001e-08
8440.4, -3.134e-08
8442.4, -2.842e-08
8444.4, -3.071e-08
8446.4, -2.594e-08
8448.4, -2.773e-08
8450.4, -2.91e-08
8452.4, -2.753e-08
8454.4, -2.893e-08
8456.4, -3.002e-08
8458.4, -2.446e-08
8460.5, -2.508e-08
8462.5, -2.612e-08
8464.5, -2.614e-08
8466.5, -2.926e-08
8468.5, -2.737e-08
8470.5, -2.898e-08
8472.5, -2.96e-08
8474.5, -2.941e-08
8476.5, -3.177e-08
8478.5, -2.817e-08
8480.5, -3.029e-08
8482.5, -3.097e-08
8484.5, -3.198e-08
8486.5, -2.924e-08
8488.5, -2.934e-08
8490.5, -2.853e-08
8492.5, -2.788e-08
8494.5, -3.24e-08
8496.5, -2.85e-08
8498.5, -2.861e-08
8500.5, -2.579e-08
8502.5, -3.045e-08
8504.5, -3.122e-08
8506.5, -2.702e-08
8508.5, -2.929e-08
8510.5, -2.884e-08
8512.5, -3.114e-08
8514.5, -3.389e-08
8516.5, -2.849e-08
8518.5, -2.873e-08
8520.5, -2.742e-08
8522.5, -2.814e-08
8524.5, -2.978e-08
8526.5, -3.174e-08
8528.5, -2.739e-08
8530.5, -2.732e-08
8532.5, -3.525e-08
8534.5, -2.975e-08
8536.5, -2.781e-08
8538.5, -3.176e-08
8540.5, -2.721e-08
8542.5, -3.019e-08
8544.5, -2.744e-08
8546.5, -2.672e-08
8548.5, -2.886e-08
8550.5, -2.85e-08
8552.5, -2.654e-08
8554.5, -2.676e-08
8556.5, -2.476e-08
8558.5, -2.842e-08
8560.6, -2.879e-08
8562.6, -2.893e-08
8564.6, -3.243e-08
8566.6, -2.836e-08
8568.6, -2.731e-08
8570.6, -3.01e-08
8572.6, -3.062e-08
8574.6, -2.915e-08
8576.6, -2.672e-08
8578.6, -3.187e-08
8580.6, -3.052e-08
8582.6, -3.037e-08
8584.6, -2.549e-08
8586.6, -2.686e-08
8588.6, -2.559e-08
8590.6, -2.808e-08
8592.6, -2.99e-08
8594.6, -2.773e-08
8596.6, -2.764e-08
8598.6, -2.9e-08
8600.6, -3.269e-08
8602.6, -2.953e-08
8604.6, -3.238e-08
8606.6, -3.128e-08
8608.6, -2.679e-08
8610.6, -2.862e-08
8612.6, -2.782e-08
8614.6, -2.663e-08
8616.6, -2.824e-08
8618.6, -2.891e-08
8620.6, -2.694e-08
8622.6, -2.81e-08
8624.6, -2.651e-08
8626.6, -2.631e-08
8628.6, -2.648e-08
8630.6, -2.762e-08
8632.6, -2.587e-08
8634.6, -2.704e-08
8636.6, -2.747e-08
8638.6, -2.765e-08
8640.6, -3.087e-08
8642.6, -2.953e-08
8644.6, -3.237e-08
8646.6, -2.886e-08
8648.6, -3.106e-08
8650.6, -3.285e-08
8652.6, -3.048e-08
8654.6, -3.196e-08
8656.6, -3.14e-08
8658.6, -2.949e-08
8660.7, -3.305e-08
8662.7, -3.616e-08
8664.7, -3.12e-08
8666.7, -3.249e-08
8668.7, -3.645e-08
8670.7, -3.203e-08
8672.7, -3.03e-08
8674.7, -3.512e-08
8676.7, -3.403e-08
8678.7, -3.251e-08
8680.7, -3.41e-08
8682.7, -3.376e-08
8684.7, -3.417e-08
8686.7, -2.979e-08
8688.7, -3.044e-08
8690.7, -2.89e-08
8692.7, -3.051e-08
8694.7, -3.261e-08
8696.7, -3.093e-08
8698.7, -2.909e-08
8700.7, -2.62e-08
8702.7, -3.023e-08
8704.7, -2.956e-08
8706.7, -2.789e-08
8708.7, -2.957e-08
8710.7, -3.15e-08
8712.7, -3.001e-08
8714.7, -2.855e-08
8716.7, -3.066e-08
8718.7, -2.971e-08
8720.7, -3.049e-08
8722.7, -3.177e-08
8724.7, -3.109e-08
8726.7, -3.041e-08
8728.7, -3.549e-08
8730.7, -3.252e-08
8732.7, -3.318e-08
8734.7, -3.306e-08
8736.7, -3.669e-08
8738.7, -3.267e-08
8740.7, -3.044e-08
8742.7, -2.728e-08
8744.7, -2.747e-08
8746.7, -3.421e-08
8748.7, -2.949e-08
8750.7, -2.722e-08
8752.7, -2.876e-08
8754.7, -3.094e-08
8756.7, -3.208e-08
8758.7, -3.393e-08
8760.8, -3.052e-08
8762.8, -3.055e-08
8764.8, -2.887e-08
8766.8, -3.139e-08
8768.8, -3.155e-08
8770.8, -3.238e-08
8772.8, -2.822e-08
8774.8, -2.546e-08
8776.8, -2.647e-08
8778.8, -2.664e-08
8780.8, -2.717e-08
8782.8, -2.686e-08
8784.8, -2.952e-08
8786.8, -2.932e-08
8788.8, -2.962e-08
8790.8, -2.922e-08
8792.8, -3.065e-08
8794.8, -2.927e-08
8796.8, -3.057e-08
8798.8, -2.707e-08
8800.8, -2.809e-08
8802.8, -2.822e-08
8804.8, -3.125e-08
8806.8, -2.831e-08
8808.8, -3.258e-08
8810.8, -3.101e-08
8812.8, -3.047e-08
8814.8, -3.004e-08
8816.8, -2.982e-08
8818.8, -2.723e-08
8820.8, -2.933e-08
8822.8, -3.205e-08
8824.8, -3.139e-08
8826.8, -2.961e-08
8828.8, -3.159e-08
8830.8, -2.839e-08
8832.8, -2.677e-08
8834.8, -2.864e-08
8836.8, -3.221e-08
8838.8, -2.841e-08
8840.8, -2.722e-08
8842.8, -3.079e-08
8844.8, -2.966e-08
8846.8, -3.228e-08
8848.8, -2.921e-08
8850.8, -2.736e-08
8852.8, -3.05e-08
8854.8, -3.255e-08
8856.8, -2.581e-08
8858.8, -3.123e-08
8860.9, -2.512e-08
8862.9, -2.943e-08
8864.9, -2.981e-08
8866.9, -2.772e-08
8868.9, -2.579e-08
8870.9, -2.944e-08
8872.9, -3.109e-08
8874.9, -2.804e-08
8876.9, -2.995e-08
8878.9, -3.1e-08
8880.9, -2.929e-08
8882.9, -3.359e-08
8884.9, -3.178e-08
8886.9, -2.907e-08
8888.9, -3.017e-08
8890.9, -2.898e-08
8892.9, -2.894e-08
8894.9, -2.781e-08
8896.9, -2.95e-08
8898.9, -2.836e-08
8900.9, -3.297e-08
8902.9, -3.191e-08
8904.9, -2.673e-08
8906.9, -2.678e-08
8908.9, -2.854e-08
8910.9, -2.632e-08
8912.9, -3.095e-08
8914.9, -3.165e-08
8916.9, -2.816e-08
8918.9, -2.529e-08
8920.9, -2.837e-08
8922.9, -3.092e-08
8924.9, -2.726e-08
8926.9, -3.277e-08
8928.9, -3.054e-08
8930.9, -3e-08
8932.9, -3.083e-08
8934.9, -3.183e-08
8936.9, -2.983e-08
8938.9, -2.87e-08
8940.9, -2.686e-08
8942.9, -2.881e-08
8944.9, -3.269e-08
8946.9, -2.722e-08
8948.9, -2.746e-08
8950.9, -2.856e-08
8952.9, -2.519e-08
8954.9, -2.841e-08
8956.9, -2.925e-08
8958.9, -2.656e-08
8961.0, -2.643e-08
8963.0, -2.696e-08
8965.0, -2.977e-08
8967.0, -2.892e-08
8969.0, -2.836e-08
8971.0, -2.678e-08
8973.0, -2.717e-08
8975.0, -2.734e-08
8977.0, -2.837e-08
8979.0, -2.468e-08
8981.0, -2.672e-08
8983.0, -2.708e-08
8985.0, -2.986e-08
8987.0, -2.969e-08
8989.0, -2.25e-08
8991.0, -2.84e-08
8993.0, -2.885e-08
8995.0, -2.835e-08
8997.0, -2.977e-08
8999.0, -2.778e-08
9001.0, -2.985e-08
9003.0, -2.913e-08
9005.0, -3.006e-08
9007.0, -2.805e-08
9009.0, -3.264e-08
9011.0, -2.991e-08
9013.0, -2.854e-08
9015.0, -3.007e-08
9017.0, -3.029e-08
9019.0, -2.925e-08
9021.0, -3.019e-08
9023.0, -2.951e-08
9025.0, -2.611e-08
9027.0, -2.505e-08
9029.0, -2.773e-08
9031.0, -2.822e-08
9033.0, -2.772e-08
9035.0, -2.556e-08
9037.0, -2.283e-08
9039.0, -2.34e-08
9041.0, -2.656e-08
9043.0, -3.18e-08
9045.0, -3.184e-08
9047.0, -2.602e-08
9049.0, -2.655e-08
9051.0, -2.611e-08
9053.0, -2.873e-08
9055.0, -3.043e-08
9057.0, -2.861e-08
9059.0, -2.93e-08
9061.1, -2.936e-08
9063.1, -2.784e-08
9065.1, -2.634e-08
9067.1, -2.873e-08
9069.1, -2.802e-08
9071.1, -2.859e-08
9073.1, -2.522e-08
9075.1, -2.977e-08
9077.1, -3.292e-08
9079.1, -3.24e-08
9081.1, -3.136e-08
9083.1, -3.289e-08
9085.1, -2.937e-08
9087.1, -3.096e-08
9089.1, -3.061e-08
9091.1, -3.493e-08
9093.1, -3.133e-08
9095.1, -3.466e-08
9097.1, -2.974e-08
9099.1, -3.294e-08
9101.1, -3.185e-08
9103.1, -3.235e-08
9105.1, -3.329e-08
9107.1, -3.285e-08
9109.1, -3.142e-08
9111.1, -3.066e-08
9113.1, -2.857e-08
9115.1, -2.947e-08
9117.1, -2.634e-08
9119.1, -2.867e-08
9121.1, -2.816e-08
9123.1, -3.103e-08
9125.1, -3.146e-08
9127.1, -3.257e-08
9129.1, -3.115e-08
9131.1, -3.217e-08
9133.1, -3.011e-08
9135.1, -3.268e-08
9137.1, -2.805e-08
9139.1, -2.887e-08
9141.1, -2.802e-08
9143.1, -2.905e-08
9145.1, -2.651e-08
9147.1, -2.751e-08
9149.1, -2.977e-08
9151.1, -2.698e-08
9153.1, -2.901e-08
9155.1, -2.466e-08
9157.1, -2.577e-08
9159.1, -2.686e-08
9161.2, -2.921e-08
9163.2, -2.86e-08
9165.2, -2.995e-08
9167.2, -3.002e-08
9169.2, -2.618e-08
9171.2, -2.502e-08
9173.2, -2.647e-08
9175.2, -2.609e-08
9177.2, -2.942e-08
9179.2, -2.722e-08
9181.2, -2.931e-08
9183.2, -2.969e-08
9185.2, -3.006e-08
9187.2, -2.945e-08
9189.2, -3.062e-08
9191.2, -2.93e-08
9193.2, -2.723e-08
9195.2, -3.037e-08
9197.2, -3.138e-08
9199.2, -3.319e-08
9201.2, -3.092e-08
9203.2, -3.232e-08
9205.2, -3.109e-08
9207.2, -3.166e-08
9209.2, -2.808e-08
9211.2, -3.04e-08
9213.2, -3.103e-08
9215.2, -3.204e-08
9217.2, -2.957e-08
9219.2, -3.022e-08
9221.2, -3.188e-08
9223.2, -3.075e-08
9225.2, -2.925e-08
9227.2, -2.958e-08
9229.2, -2.819e-08
9231.2, -2.842e-08
9233.2, -3.198e-08
9235.2, -3.298e-08
9237.2, -3.01e-08
9239.2, -2.867e-08
9241.2, -2.803e-08
9243.2, -2.812e-08
9245.2, -3.257e-08
9247.2, -2.993e-08
9249.2, -3.141e-08
9251.2, -3.029e-08
9253.2, -3.348e-08
9255.2, -3.41e-08
9257.2, -3.381e-08
9259.2, -3.344e-08
9261.3, -3.468e-08
9263.3, -3.887e-08
9265.3, -3.465e-08
9267.3, -3.201e-08
9269.3, -3.36e-08
9271.3, -3.464e-08
9273.3, -3.294e-08
9275.3, -3.121e-08
9277.3, -2.905e-08
9279.3, -2.923e-08
9281.3, -2.947e-08
9283.3, -3.218e-08
9285.3, -3.093e-08
9287.3, -2.866e-08
9289.3, -2.76e-08
9291.3, -2.965e-08
9293.3, -2.889e-08
9295.3, -2.835e-08
9297.3, -2.832e-08
9299.3, -3.463e-08
9301.3, -2.989e-08
9303.3, -2.705e-08
9305.3, -2.77e-08
9307.3, -2.99e-08
9309.3, -3.161e-08
9311.3, -3.251e-08
9313.3, -3.121e-08
9315.3, -3.212e-08
9317.3, -3.368e-08
9319.3, -2.696e-08
9321.3, -2.864e-08
9323.3, -2.909e-08
9325.3, -2.726e-08
9327.3, -2.807e-08
9329.3, -2.494e-08
9331.3, -2.514e-08
9333.3, -2.587e-08
9335.3, -2.987e-08
9337.3, -3.271e-08
9339.3, -3.499e-08
9341.3, -2.952e-08
9343.3, -3.413e-08
9345.3, -3.237e-08
9347.3, -3.148e-08
9349.3, -3.338e-08
9351.3, -3.028e-08
9353.3, -2.837e-08
9355.3, -2.57e-08
9357.3, -2.856e-08
9359.3, -2.581e-08
9361.4, -2.953e-08
9363.4, -2.95e-08
9365.4, -2.767e-08
9367.4, -3.013e-08
9369.4, -2.699e-08
9371.4, -2.82e-08
9373.4, -2.887e-08
9375.4, -2.599e-08
9377.4, -2.771e-08
9379.4, -2.831e-08
9381.4, -2.869e-08
9383.4, -3.025e-08
9385.4, -2.975e-08
9387.4, -3.155e-08
9389.4, -2.883e-08
9391.4, -3.191e-08
9393.4, -3.251e-08
9395.4, -3.747e-08
9397.4, -3.494e-08
9399.4, -3.305e-08
9401.4, -3.216e-08
9403.4, -3.237e-08
9405.4, -2.975e-08
9407.4, -2.749e-08
9409.4, -2.926e-08
9411.4, -2.584e-08
9413.4, -3.196e-08
9415.4, -3.163e-08
9417.4, -3.03e-08
9419.4, -2.669e-08
9421.4, -2.854e-08
9423.4, -3.139e-08
9425.4, -3.234e-08
9427.4, -3.198e-08
9429.4, -3.266e-08
9431.4, -3.25e-08
9433.4, -3.382e-08
9435.4, -3.188e-08
9437.4, -2.762e-08
9439.4, -2.801e-08
9441.4, -2.972e-08
9443.4, -3.108e-08
9445.4, -3.402e-08
9447.4, -3.172e-08
9449.4, -2.683e-08
9451.4, -2.933e-08
9453.4, -3.26e-08
9455.4, -3.567e-08
9457.4, -2.992e-08
9459.4, -2.994e-08
9461.5, -3.322e-08
9463.5, -3.404e-08
9465.5, -3.652e-08
9467.5, -3.313e-08
9469.5, -3.538e-08
9471.5, -3.438e-08
9473.5, -3.37e-08
9475.5, -3.332e-08
9477.5, -2.906e-08
9479.5, -3.378e-08
9481.5, -3.683e-08
9483.5, 4.0167e-07
9485.5, 4.0588e-07
9487.5, 3.8409e-07
9489.5, 5.9322e-07
9491.5, 4.8793e-07
9493.5, 8.2046e-07
9495.5, 8.0577e-07
9497.5, 7.4841e-07
9499.5, 3.7457e-07
9501.5, 9.3355e-07
9503.5, 6.9851e-07
9505.5, 8.2911e-07
9507.5, 5.375e-07
9509.5, 6.2838e-07
9511.5, 6.0298e-07
9513.5, 5.7649e-07
9515.5, 7.4194e-07
9517.5, 7.206e-07
9519.5, 7.8512e-07
9521.5, 7.5026e-07
9523.5, 6.5653e-07
9525.5, 5.5316e-07
9527.5, 2.5165e-07
9529.5, 6.499e-07
9531.5, 5.9202e-07
9533.5, 6.4662e-07
9535.5, 5.8162e-07
9537.5, 7.0762e-07
9539.5, 3.5488e-07
9541.5, 5.9014e-07
9543.5, 7.8473e-07
9545.5, 4.4602e-07
9547.5, 6.9299e-07
9549.5, 5.5136e-07
9551.5, 7.515e-07
9553.5, 6.3506e-07
9555.5, 5.7327e-07
9557.5, 7.8344e-07
9559.5, 6.4531e-07
9561.6, 1.0692e-06
9563.6, 9.588e-07
9565.6, 5.4493e-07
9567.6, 6.4173e-07
9569.6, 8.0722e-07
9571.6, 8.8235e-07
9573.6, 6.5366e-07
9575.6, 7.6374e-07
9577.6, 5.5945e-07
9579.6, 7.6577e-07
9581.6, 6.9572e-07
9583.6, 6.6556e-07
9585.6, 8.3322e-07
9587.6, 5.1873e-07
9589.6, 6.1902e-07
9591.6, 6.7096e-07
9593.6, 6.5033e-07
9595.6, 6.8393e-07
9597.6, 4.6221e-07
9599.6, 7.4915e-07
9601.6, 8.4093e-07
9603.6, 7.6329e-07
9605.6, 4.4918e-07
9607.6, 5.6444e-07
9609.6, 5.6195e-07
9611.6, 7.186e-07
9613.6, 6.893e-07
9615.6, 7.2886e-07
9617.6, 8.8753e-07
9619.6, 9.7563e-07
9621.6, 8.533e-07
9623.6, 5.3855e-07
9625.6, 8.9358e-07
9627.6, 7.2485e-07
9629.6, 8.4264e-07
9631.6, 5.8631e-07
9633.6, 1.0447e-06
9635.6, 1.1309e-06
9637.6, 4.7568e-07
9639.6, 9.0388e-07
9641.6, 8.0529e-07
9643.6, 6.6937e-07
9645.6, 8.375e-07
9647.6, 8.8327e-07
9649.6, 7.1051e-07
9651.6, 8.5413e-07
9653.6, 4.8843e-07
9655.6, 8.9902e-07
9657.6, 5.6808e-07
9659.6, 9.239e-07
9661.7, 4.6745e-07
9663.7, 5.2522e-07
9665.7, 9.5533e-07
9667.7, 8.0686e-07
9669.7, 5.6606e-07
9671.7, 8.2772e-07
9673.7, 3.0797e-07
9675.7, 6.2377e-07
9677.7, 8.4695e-07
9679.7, 5.6322e-07
9681.7, 9.1199e-07
9683.7, 5.9049e-07
9685.7, 8.8596e-07
9687.7, 8.7859e-07
9689.7, 6.5264e-07
9691.7, 5.9676e-07
9693.7, 5.198e-07
9695.7, 4.9064e-07
9697.7, 5.5301e-07
9699.7, 1.1256e-06
9701.7, 5.5606e-07
9703.7, 4.7708e-07
9705.7, 5.5764e-07
9707.7, 9.9122e-07
9709.7, 7.1202e-07
9711.7, 1.0118e-06
9713.7, 6.0325e-07
9715.7, 8.0972e-07
9717.7, 7.1947e-07
9719.7, 6.3134e-07
9721.7, 5.4127e-07
9723.7, 6.0577e-07
9725.7, 8.4841e-07
9727.7, 7.4904e-07
9729.7, 8.1261e-07
9731.7, 5.1459e-07
9733.7, 6.6935e-07
9735.7, 8.1577e-07
9737.7, 9.5024e-07
9739.7, 8.5255e-07
9741.7, 5.2344e-07
9743.7, 7.1579e-07
9745.7, 9.7904e-07
9747.7, 8.3993e-07
9749.7, 9.0245e-07
9751.7, 5.1069e-07
9753.7, 7.8166e-07
9755.7, 7.7383e-07
9757.7, 7.3022e-07
9759.7, 7.4685e-07
9761.8, 5.9197e-07
9763.8, 8.0992e-07
9765.8, 1.068e-06
9767.8, 9.0932e-07
9769.8, 6.5426e-07
9771.8, 7.5454e-07
9773.8, 1.2611e-06
9775.8, 7.9653e-07
9777.8, 4.4216e-07
9779.8, 1.1064e-06
9781.8, 9.1334e-07
9783.8, 6.596e-07
9785.8, 8.0167e-07
9787.8, 7.0121e-07
9789.8, 6.529e-07
9791.8, 7.3305e-07
9793.8, 9.3677e-07
9795.8, 1.1283e-06
9797.8, 9.5281e-07
9799.8, 9.5807e-07
9801.8, 6.6005e-07
9803.8, 9.3727e-07
9805.8, 6.5016e-07
9807.8, 6.9747e-07
9809.8, 8.2127e-07
9811.8, 7.2462e-07
9813.8, 5.6751e-07
9815.8, 9.5689e-07
9817.8, 5.7014e-07
9819.8, 6.8654e-07
9821.8, 8.8682e-07
9823.8, 6.1898e-07
9825.8, 8.636e-07
9827.8, 1.5324e-06
9829.8, 1.0733e-06
9831.8, 4.7444e-07
9833.8, 5.9086e-07
9835.8, 6.7905e-07
9837.8, 8.4174e-07
9839.8, 7.3323e-07
9841.8, 8.1381e-07
9843.8, 1.0938e-06
9845.8, 6.0348e-07
9847.8, 9.0744e-07
9849.8, 9.6606e-07
9851.8, 9.6523e-07
9853.8, 1.0117e-06
9855.8, 6.6567e-07
9857.8, 6.6366e-07
9859.8, 1.023e-06
9861.9, 6.1983e-07
9863.9, 9.2507e-07
9865.9, 7.3841e-07
9867.9, 8.7062e-07
9869.9, 8.8896e-07
9871.9, 8.4923e-07
9873.9, 7.5663e-07
9875.9, 4.9159e-07
9877.9, 7.4429e-07
9879.9, 7.7754e-07
9881.9, 9.3193e-07
9883.9, 5.1573e-07
9885.9, 9.0085e-07
9887.9, 7.1971e-07
9889.9, 8.6092e-07
9891.9, 7.5312e-07
9893.9, 7.9261e-07
9895.9, 9.6475e-07
9897.9, 9.2265e-07
9899.9, 1.3974e-06
9901.9, 8.0109e-07
9903.9, 1.0595e-06
9905.9, 6.3572e-07
9907.9, 4.6699e-07
9909.9, 5.7743e-07
9911.9, 9.2226e-07
9913.9, 5.6529e-07
9915.9, 5.911e-07
9917.9, 6.6322e-07
9919.9, 7.8329e-07
9921.9, 8.6061e-07
9923.9, 6.0496e-07
9925.9, 5.7163e-07
9927.9, 8.0067e-07
9929.9, 8.106e-07
9931.9, 8.0775e-07
9933.9, 7.6345e-07
9935.9, 6.0891e-07
9937.9, 8.0379e-07
9939.9, 7.2375e-07
9941.9, 9.3846e-07
9943.9, 8.4245e-07
9945.9, 8.6726e-07
9947.9, 8.6223e-07
9949.9, 9.0854e-07
9951.9, 5.5678e-07
9953.9, 7.9904e-07
9955.9, 8.4473e-07
9957.9, 8.8695e-07
9959.9, 6.828e-07
9962.0, 6.7992e-07
9964.0, 6.2459e-07
9966.0, 9.6839e-07
9968.0, 5.5976e-07
9970.0, 9.6995e-07
9972.0, 1.0864e-06
9974.0, 7.7751e-07
9976.0, 8.0759e-07
9978.0, 1.0453e-06
9980.0, 8.2051e-07
9982.0, 1.1275e-06
9984.0, 9.6484e-07
9986.0, 4.475e-07
9988.0, 5.9575e-07
9990.0, 1.2526e-06
9992.0, 1.1539e-06
9994.0, 9.7109e-07
9996.0, 6.3285e-07
9998.0, 5.6351e-07
10000.0, 8.1673e-07
10002.0, 8.1244e-07
10004.0, 8.5114e-07
10006.0, 7.9838e-07
10008.0, 9.7243e-07
10010.0, 1.2334e-06
10012.0, 1.0464e-06
10014.0, 9.6015e-07
10016.0, 7.3046e-07
10018.0, 8.4951e-07
10020.0, 7.4548e-07
10022.0, 1.306e-06
10024.0, 8.9185e-07
10026.0, 8.2171e-07
10028.0, 8.1015e-07
10030.0, 8.1581e-07
10032.0, 7.897e-07
10034.0, 8.8551e-07
10036.0, 9.8343e-07
10038.0, 8.1384e-07
10040.0, 6.2024e-07
10042.0, 8.68e-07
10044.0, 9.5759e-07
10046.0, 7.6242e-07
10048.0, 7.1868e-07
10050.0, 7.3646e-07
10052.0, 9.3186e-07
10054.0, 7.9715e-07
10056.0, 6.7371e-07
10058.0, 7.9822e-07
10060.0, 1.2545e-06
10062.0, 1.1045e-06
10064.0, 8.4068e-07
10066.0, 9.0188e-07
10068.0, 7.2805e-07
10070.0, 9.5634e-07
10072.0, 4.1938e-07
10074.0, 1.0513e-06
10076.0, 7.9111e-07
10078.0, 9.3095e-07
10080.0, 1.0099e-06
10082.0, 7.575e-07
10084.0, 6.3963e-07
10086.0, 9.6143e-07
10088.0, 8.6304e-07
10090.0, 7.4702e-07
10092.0, 7.6186e-07
10094.0, 5.5907e-07
10096.0, 9.1872e-07
10098.0, 7.3556e-07
10100.0, 7.0963e-07
10102.0, 1.086e-06
10104.0, 7.5533e-07
10106.0, 7.442e-07
10108.0, 7.1432e-07
10110.0, 9.4432e-07
10112.0, 8.4074e-07
10114.0, 1.0839e-06
10116.0, 8.4713e-07
10118.0, 6.5629e-07
10120.0, 6.3661e-07
10122.0, 9.0353e-07
10124.0, 6.5817e-07
10126.0, 8.1441e-07
10128.0, 1.0839e-06
10130.0, 7.2528e-07
10132.0, 7.0375e-07
10134.0, 1.0177e-06
10136.0, 9.3544e-07
10138.0, 8.0967e-07
10140.0, 1.0033e-06
10142.0, 9.2206e-07
10144.0, 1.0913e-06
10146.0, 7.9998e-07
10148.0, 1.1775e-06
10150.0, 9.5698e-07
10152.0, 9.0091e-07
10154.0, 7.4585e-07
10156.0, 9.587e-07
10158.0, 9.7415e-07
10160.0, 1.0329e-06
10162.0, 5.4247e-07
10164.0, 1.0848e-06
10166.0, 6.2001e-07
10168.0, 6.4288e-07
10170.0, 6.576e-07
10172.0, 7.7765e-07
10174.0, 5.3386e-07
10176.0, 1.0181e-06
10178.0, 7.1829e-07
10180.0, 1.1471e-06
10182.0, 1.0248e-06
10184.0, 7.0212e-07
10186.0, 8.0686e-07
10188.0, 8.7248e-07
10190.0, 9.4096e-07
10192.0, 1.1529e-06
10194.0, 1.022e-06
10196.0, 5.4449e-07
10198.0, 1.0177e-06
10200.0, 7.1076e-07
10202.0, 9.5907e-07
10204.0, 7.488e-07
10206.0, 1.0526e-06
10208.0, 1.0973e-06
10210.0, 7.5331e-07
10212.0, 6.3411e-07
10214.0, 9.7062e-07
10216.0, 6.9502e-07
10218.0, 6.5254e-07
10220.0, 1.2194e-06
10222.0, 7.1629e-07
10224.0, 9.0829e-07
10226.0, 8.2191e-07
10228.0, 7.2596e-07
10230.0, 7.4996e-07
10232.0, 9.0212e-07
10234.0, 9.0887e-07
10236.0, 7.9268e-07
10238.0, 9.3939e-07
10240.0, 8.369e-07
10242.0, 1.0539e-06
10244.0, 6.811e-07
10246.0, 8.7623e-07
10248.0, 8.1881e-07
10250.0, 1.2853e-06
10252.0, 7.0232e-07
10254.0, 7.3088e-07
10256.0, 8.3696e-07
10258.0, 9.0495e-07
10260.0, 7.8779e-07
10262.0, 7.9432e-07
10264.0, 8.9233e-07
10266.0, 1.1721e-06
10268.0, 6.5798e-07
10270.0, 7.4166e-07
10272.0, 6.6086e-07
10274.0, 7.9005e-07
10276.0, 7.7449e-07
10278.0, 6.092e-07
10280.0, 6.3506e-07
10282.0, 8.1515e-07
10284.0, 9.0198e-07
10286.0, 1.1311e-06
10288.0, 7.3877e-07
10290.0, 1.242e-06
10292.0, 1.197e-06
10294.0, 1.0311e-06
10296.0, 5.0238e-07
10298.0, 8.5985e-07
10300.0, 7.9118e-07
10302.0, 9.3596e-07
10304.0, 9.3798e-07
10306.0, 7.5187e-07
10308.0, 7.6132e-07
10310.0, 9.2123e-07
10312.0, 8.9434e-07
10314.0, 1.009e-06
10316.0, 1.0657e-06
10318.0, 8.2385e-07
10320.0, 9.6869e-07
10322.0, 5.7288e-07
10324.0, 8.0338e-07
10326.0, 8.5902e-07
10328.0, 9.6513e-07
10330.0, 7.6706e-07
10332.0, 9.8312e-07
10334.0, 8.4436e-07
10336.0, 7.66e-07
10338.0, 1.0412e-06
10340.0, 1.1738e-06
10342.0, 7.3052e-07
10344.0, 8.1611e-07
10346.0, 9.2466e-07
10348.0, 8.1066e-07
10350.0, 6.6593e-07
10352.0, 1.2816e-06
10354.0, 8.2288e-07
10356.0, 7.0577e-07
10358.0, 8.412e-07
10360.0, 7.0731e-07
10362.0, 6.9365e-07
10364.0, 7.2128e-07
10366.0, 8.2784e-07
10368.0, 8.7146e-07
10370.0, 7.7098e-07
10372.0, 7.9018e-07
10374.0, 8.7281e-07
10376.0, 9.9679e-07
10378.0, 4.5907e-07
10380.0, 6.9163e-07
10382.0, 7.4103e-07
10384.0, 8.6985e-07
10386.0, 1.253e-06
10388.0, 1.2377e-06
10390.0, 8.7071e-07
10392.0, 7.4875e-07
10394.0, 1.0002e-06
10396.0, 8.175e-07
10398.0, 6.1863e-07
10400.0, 6.6384e-07
10402.0, 9.6454e-07
10404.0, 9.3038e-07
10406.0, 7.1178e-07
10408.0, 7.68e-07
10410.0, 5.7652e-07
10412.0, 1.0259e-06
10414.0, 8.0745e-07
10416.0, 7.9483e-07
10418.0, 8.1276e-07
10420.0, 1.0809e-06
10422.0, 1.0127e-06
10424.0, 7.3506e-07
10426.0, 1.0556e-06
10428.0, 8.6205e-07
10430.0, 7.267e-07
10432.0, 8.2967e-07
10434.0, 9.3932e-07
10436.0, 7.5461e-07
10438.0, 5.7833e-07
10440.0, 9.1256e-07
10442.0, 8.2625e-07
10444.0, 9.1268e-07
10446.0, 1.1643e-06
10448.0, 9.3814e-07
10450.0, 1.1082e-06
10452.0, 8.9402e-07
10454.0, 8.07e-07
10456.0, 7.6352e-07
10458.0, 8.4197e-07
10460.0, 9.2018e-07
10462.0, 8.679e-07
10464.0, 1.0678e-06
10466.0, 8.696e-07
10468.0, 7.9968e-07
10470.0, 7.0093e-07
10472.0, 7.2044e-07
10474.0, 1.2129e-06
10476.0, 7.4856e-07
10478.0, 7.6475e-07
10480.0, 8.2796e-07
10482.0, 8.4807e-07
10484.0, 3.0529e-07
10486.0, -2.976e-08
10488.0, -2.998e-08
10490.0, -2.732e-08
10492.0, -3.056e-08
10494.0, -3.054e-08
10496.0, -2.948e-08
10498.0, -2.762e-08
10500.0, -2.712e-08
10502.0, -3.193e-08
10504.0, -2.849e-08
10506.0, -2.738e-08
10508.0, -2.998e-08
10510.0, -2.585e-08
10513.0, -2.578e-08
10515.0, -2.986e-08
10517.0, -2.742e-08
10519.0, -2.59e-08
10521.0, -2.696e-08
10523.0, -2.923e-08
10525.0, -3.321e-08
10527.0, -2.955e-08
10529.0, -2.88e-08
10531.0, -3.017e-08
10533.0, -3.027e-08
10535.0, -3.262e-08
10537.0, -3.067e-08
10539.0, -3.316e-08
10541.0, -2.828e-08
10543.0, -2.735e-08
10545.0, -3.431e-08
10547.0, -3.519e-08
10549.0, -2.998e-08
10551.0, -3.201e-08
10553.0, -3.35e-08
10555.0, -3.451e-08
10557.0, -3.476e-08
10559.0, -3.229e-08
10561.0, -3.37e-08
10563.0, -3.217e-08
10565.0, -2.947e-08
10567.0, -3.338e-08
10569.0, -3.335e-08
10571.0, -3.457e-08
10573.0, -3.427e-08
10575.0, -3.277e-08
10577.0, -3e-08
10579.0, -3.188e-08
10581.0, -2.915e-08
10583.0, -3.21e-08
10585.0, -2.748e-08
10587.0, -3.003e-08
10589.0, -2.837e-08
10591.0, -2.772e-08
10593.0, -2.739e-08
10595.0, -3.131e-08
10597.0, -2.874e-08
10599.0, -2.818e-08
10601.0, -3.312e-08
10603.0, -3.107e-08
10605.0, -2.853e-08
10607.0, -2.68e-08
10609.0, -2.646e-08
10611.0, -3.063e-08
10613.0, -2.968e-08
10615.0, -3.441e-08
10617.0, -2.976e-08
10619.0, -3.118e-08
10621.0, -2.851e-08
10623.0, -3.633e-08
10625.0, -3.495e-08
10627.0, -3.311e-08
10629.0, -3.18e-08
10631.0, -3.169e-08
10633.0, -2.975e-08
10635.0, -3.052e-08
10637.0, -2.912e-08
10639.0, -2.906e-08
10641.0, -3.09e-08
10643.0, -2.934e-08
10645.0, -2.811e-08
10647.0, -3.093e-08
10649.0, -3.323e-08
10651.0, -3.295e-08
10653.0, -2.981e-08
10655.0, -3.151e-08
10657.0, -2.947e-08
10659.0, -3.112e-08
10661.0, -2.794e-08
10663.0, -3.023e-08
10665.0, -3.103e-08
10667.0, -3.229e-08
10669.0, -3.304e-08
10671.0, -3.225e-08
10673.0, -3.332e-08
10675.0, -2.8e-08
10677.0, -2.66e-08
10679.0, -2.801e-08
10681.0, -2.821e-08
10683.0, -3.208e-08
10685.0, -3.223e-08
10687.0, -3.245e-08
10689.0, -3.623e-08
10691.0, -3.111e-08
10693.0, -3.423e-08
10695.0, -3.132e-08
10697.0, -3.326e-08
10699.0, -3.371e-08
10701.0, -3.523e-08
10703.0, -3.521e-08
10705.0, -3.555e-08
10707.0, -3.645e-08
10709.0, -3.109e-08
10711.0, -3.225e-08
10713.0, -3.361e-08
10715.0, -2.906e-08
10717.0, -3.424e-08
10719.0, -3.455e-08
10721.0, -3.09e-08
10723.0, -3.257e-08
10725.0, -3.199e-08
10727.0, -3.04e-08
10729.0, -3.137e-08
10731.0, -3.249e-08
10733.0, -3.152e-08
10735.0, -3.395e-08
10737.0, -3.584e-08
10739.0, -3.5e-08
10741.0, -3.459e-08
10743.0, -3.483e-08
10745.0, -3.043e-08
10747.0, -3.155e-08
10749.0, -3.112e-08
10751.0, -2.596e-08
10753.0, -3.059e-08
10755.0, -2.716e-08
10757.0, -3.165e-08
10759.0, -2.998e-08
10761.0, -2.664e-08
10763.0, -2.931e-08
10765.0, -3.057e-08
10767.0, -3.22e-08
10769.0, -2.764e-08
10771.0, -2.659e-08
10773.0, -3.005e-08
10775.0, -3.461e-08
10777.0, -3.455e-08
10779.0, -3.19e-08
10781.0, -3.087e-08
10783.0, -3.244e-08
10785.0, -2.762e-08
10787.0, -2.876e-08
10789.0, -3.28e-08
10791.0, -2.995e-08
10793.0, -2.952e-08
10795.0, -3.236e-08
10797.0, -3.65e-08
10799.0, -3.307e-08
10801.0, -3.367e-08
10803.0, -3.448e-08
10805.0, -3.473e-08
10807.0, -2.765e-08
10809.0, -2.773e-08
10811.0, -2.812e-08
10813.0, -3.248e-08
10815.0, -3.193e-08
10817.0, -2.859e-08
10819.0, -2.844e-08
10821.0, -2.782e-08
10823.0, -3.242e-08
10825.0, -3.087e-08
10827.0, -3.069e-08
10829.0, -3.16e-08
10831.0, -3.133e-08
10833.0, -3.37e-08
10835.0, -3.178e-08
10837.0, -3.154e-08
10839.0, -3.307e-08
10841.0, -3.43e-08
10843.0, -3.439e-08
10845.0, -3.25e-08
10847.0, -3.371e-08
10849.0, -3.321e-08
10851.0, -3.528e-08
10853.0, -3.599e-08
10855.0, -3.418e-08
10857.0, -3.259e-08
10859.0, -3.072e-08
10861.0, -2.913e-08
10863.0, -3.613e-08
10865.0, -3.37e-08
10867.0, -3.28e-08
10869.0, -3.115e-08
10871.0, -3.272e-08
10873.0, -3.526e-08
10875.0, -3.497e-08
10877.0, -3.326e-08
10879.0, -3.554e-08
10881.0, -3.357e-08
10883.0, -3.389e-08
10885.0, -3.258e-08
10887.0, -3.312e-08
10889.0, -3.155e-08
10891.0, -3.243e-08
10893.0, -3.702e-08
10895.0, -3.859e-08
10897.0, -3.44e-08
10899.0, -2.844e-08
10901.0, -3.209e-08
10903.0, -3.143e-08
10905.0, -3.139e-08
10907.0, -3.015e-08
10909.0, -3.185e-08
10911.0, -3.271e-08
10913.0, -3.68e-08
10915.0, -3.238e-08
10917.0, -3.04e-08
10919.0, -3.198e-08
10921.0, -3.111e-08
10923.0, -3.29e-08
10925.0, -3.222e-08
10927.0, -3.334e-08
10929.0, -3.118e-08
10931.0, -3.231e-08
10933.0, -3.122e-08
10935.0, -3.433e-08
10937.0, -3.133e-08
10939.0, -3.199e-08
10941.0, -3.309e-08
10943.0, -3.383e-08
10945.0, -3.426e-08
10947.0, -3.405e-08
10949.0, -3.488e-08
10951.0, -3.324e-08
10953.0, -3.367e-08
10955.0, -3.504e-08
10957.0, -3.547e-08
10959.0, -3.491e-08
10961.0, -3.509e-08
10963.0, -3.392e-08
10965.0, -3.752e-08
10967.0, -3.139e-08
10969.0, -3.429e-08
10971.0, -3.166e-08
10973.0, -3.025e-08
10975.0, -3.456e-08
10977.0, -3.469e-08
10979.0, -3.506e-08
10981.0, -3.113e-08
10983.0, -3.583e-08
10985.0, -3.804e-08
10987.0, -3.323e-08
10989.0, -3.281e-08
10991.0, -3.023e-08
10993.0, -3.319e-08
10995.0, -3.034e-08
10997.0, -2.879e-08
10999.0, -3.164e-08
11001.0, -2.804e-08
11003.0, -3.33e-08
11005.0, -3.078e-08
11007.0, -3.319e-08
11009.0, -3.292e-08
