Time sep (ms?), Current (A)
0.0, -3.472e-08
2.002, -3.637e-08
4.004, -3.181e-08
6.006, -3.547e-08
8.008, -3.263e-08
10.01, -3.477e-08
12.012, -3.281e-08
14.014, -3.135e-08
16.016, -3.082e-08
18.018, -2.753e-08
20.02, -3.19e-08
22.022, -3.02e-08
24.024, -2.874e-08
26.026, -3.205e-08
28.028, -3.262e-08
30.03, -2.847e-08
32.032, -2.822e-08
34.034, -3.052e-08
36.036, -3.161e-08
38.038, -3.322e-08
40.04, -3.242e-08
42.042, -3.129e-08
44.044, -3.358e-08
46.046, -3.064e-08
48.048, -3.334e-08
50.05, -3.288e-08
52.052, -3.304e-08
54.054, -3.767e-08
56.056, -3.632e-08
58.058, -3.789e-08
60.06, -4.131e-08
62.062, -3.426e-08
64.064, -3.577e-08
66.066, -3.514e-08
68.068, -3.648e-08
70.07, -3.504e-08
72.072, -3.724e-08
74.074, -3.728e-08
76.076, -3.478e-08
78.078, -3.293e-08
80.08, -3.346e-08
82.082, -3.566e-08
84.084, -3.365e-08
86.086, -3.639e-08
88.088, -3.418e-08
90.09, -3.484e-08
92.092, -3.224e-08
94.094, -3.46e-08
96.096, -3.481e-08
98.098, -3.76e-08
100.1, -3.688e-08
102.1, -3.342e-08
104.1, -3.121e-08
106.11, -2.944e-08
108.11, -3.404e-08
110.11, -3.382e-08
112.11, -3.147e-08
114.11, -3.316e-08
116.12, -3.604e-08
118.12, -3.344e-08
120.12, -3.287e-08
122.12, -3.501e-08
124.12, -3.922e-08
126.13, -3.425e-08
128.13, -3.654e-08
130.13, -3.24e-08
132.13, -3.398e-08
134.13, -3.235e-08
136.14, -3.64e-08
138.14, -3.503e-08
140.14, -3.537e-08
142.14, -3.372e-08
144.14, -3.684e-08
146.15, -3.394e-08
148.15, -4.062e-08
150.15, -4.16e-08
152.15, -4.065e-08
154.15, -4.132e-08
156.16, -3.64e-08
158.16, -3.923e-08
160.16, -3.872e-08
162.16, -3.9e-08
164.16, -3.954e-08
166.17, -3.716e-08
168.17, -3.201e-08
170.17, -3.876e-08
172.17, -3.487e-08
174.17, -3.567e-08
176.18, -3.753e-08
178.18, -3.39e-08
180.18, -3.176e-08
182.18, -3.614e-08
184.18, -3.355e-08
186.19, -3.545e-08
188.19, -3.182e-08
190.19, -3.542e-08
192.19, -3.886e-08
194.19, -3.344e-08
196.2, -3.493e-08
198.2, -3.581e-08
200.2, -3.844e-08
202.2, -3.54e-08
204.2, -3.783e-08
206.21, -3.519e-08
208.21, -3.539e-08
210.21, -3.519e-08
212.21, -3.862e-08
214.21, -3.637e-08
216.22, -3.585e-08
218.22, -3.469e-08
220.22, -3.822e-08
222.22, -3.909e-08
224.22, -4.001e-08
226.23, -3.77e-08
228.23, -3.519e-08
230.23, -3.462e-08
232.23, -3.416e-08
234.23, -3.574e-08
236.24, -3.595e-08
238.24, -3.843e-08
240.24, -3.52e-08
242.24, -3.544e-08
244.24, -3.942e-08
246.25, -3.425e-08
248.25, -3.856e-08
250.25, -3.754e-08
252.25, -3.562e-08
254.25, -3.617e-08
256.26, -3.638e-08
258.26, -3.583e-08
260.26, -3.363e-08
262.26, -3.583e-08
264.26, -3.845e-08
266.27, -3.606e-08
268.27, -3.674e-08
270.27, -3.823e-08
272.27, -3.691e-08
274.27, -4.077e-08
276.28, -4.046e-08
278.28, -3.713e-08
280.28, -3.69e-08
282.28, -3.565e-08
284.28, -3.697e-08
286.29, -3.592e-08
288.29, -3.775e-08
290.29, -3.579e-08
292.29, -3.375e-08
294.29, -3.505e-08
296.3, -3.499e-08
298.3, -3.85e-08
300.3, -3.408e-08
302.3, -3.854e-08
304.3, -3.625e-08
306.31, -4.087e-08
308.31, -3.926e-08
310.31, -3.365e-08
312.31, -3.468e-08
314.31, -3.671e-08
316.32, -3.494e-08
318.32, -3.434e-08
320.32, -3.414e-08
322.32, -3.551e-08
324.32, -3.352e-08
326.33, -3.334e-08
328.33, -3.676e-08
330.33, -3.485e-08
332.33, -3.51e-08
334.33, -3.496e-08
336.34, -3.747e-08
338.34, -3.806e-08
340.34, -3.618e-08
342.34, -3.021e-08
344.34, -3.139e-08
346.35, -3.584e-08
348.35, -2.971e-08
350.35, -3.51e-08
352.35, -3.245e-08
354.35, -3.39e-08
356.36, -3.493e-08
358.36, -3.866e-08
360.36, -3.864e-08
362.36, -3.704e-08
364.36, -3.795e-08
366.37, -4.16e-08
368.37, -3.629e-08
370.37, -3.615e-08
372.37, -3.557e-08
374.37, -3.657e-08
376.38, -3.794e-08
378.38, -3.611e-08
380.38, -3.629e-08
382.38, -3.659e-08
384.38, -3.627e-08
386.39, -3.542e-08
388.39, -3.572e-08
390.39, -3.463e-08
392.39, -3.389e-08
394.39, -3.852e-08
396.4, -3.657e-08
398.4, -3.594e-08
400.4, -3.281e-08
402.4, -3.429e-08
404.4, -3.67e-08
406.41, -3.581e-08
408.41, -3.843e-08
410.41, -3.99e-08
412.41, -3.663e-08
414.41, -3.726e-08
416.42, -3.357e-08
418.42, -3.374e-08
420.42, -3.647e-08
422.42, -3.344e-08
424.42, -3.545e-08
426.43, -3.374e-08
428.43, -3.606e-08
430.43, -3.771e-08
432.43, -3.154e-08
434.43, -3.234e-08
436.44, -3.46e-08
438.44, -3.118e-08
440.44, -3.318e-08
442.44, -3.594e-08
444.44, -3.957e-08
446.45, -3.807e-08
448.45, -3.53e-08
450.45, -3.559e-08
452.45, -3.666e-08
454.45, -3.895e-08
456.46, -4.117e-08
458.46, -3.771e-08
460.46, -3.662e-08
462.46, -3.818e-08
464.46, -3.585e-08
466.47, -3.513e-08
468.47, -3.62e-08
470.47, -3.495e-08
472.47, -3.548e-08
474.47, -3.536e-08
476.48, -3.575e-08
478.48, -3.586e-08
480.48, -3.596e-08
482.48, -3.408e-08
484.48, -3.579e-08
486.49, -3.472e-08
488.49, -3.394e-08
490.49, -3.267e-08
492.49, -3.045e-08
494.49, -3.457e-08
496.5, -3.51e-08
498.5, -3.409e-08
500.5, -3.516e-08
502.5, -3.167e-08
504.5, -3.313e-08
506.51, -3.366e-08
508.51, -3.304e-08
510.51, -3.148e-08
512.51, -3.234e-08
514.51, -3.84e-08
516.52, -3.948e-08
518.52, -3.292e-08
520.52, -3.179e-08
522.52, -3.446e-08
524.52, -3.268e-08
526.53, -3.512e-08
528.53, -3.741e-08
530.53, -3.291e-08
532.53, -3.536e-08
534.53, -3.352e-08
536.54, -3.764e-08
538.54, -3.573e-08
540.54, -3.585e-08
542.54, -3.271e-08
544.54, -3.809e-08
546.55, -3.49e-08
548.55, -3.045e-08
550.55, -3.147e-08
552.55, -3.371e-08
554.55, -3.006e-08
556.56, -3.524e-08
558.56, -3.41e-08
560.56, -3.125e-08
562.56, -3.208e-08
564.56, -3.269e-08
566.57, -3.158e-08
568.57, -3.078e-08
570.57, -3.072e-08
572.57, -3.256e-08
574.57, -3.062e-08
576.58, -3.225e-08
578.58, -2.769e-08
580.58, -3.017e-08
582.58, -3.11e-08
584.58, -2.948e-08
586.59, -2.961e-08
588.59, -3.426e-08
590.59, -3.371e-08
592.59, -3.217e-08
594.59, -2.938e-08
596.6, -3.128e-08
598.6, -3.44e-08
600.6, -3.5e-08
602.6, -3.203e-08
604.6, -3.182e-08
606.61, -3.102e-08
608.61, -3.675e-08
610.61, -3.503e-08
612.61, -3.635e-08
614.61, -3.341e-08
616.62, -3.171e-08
618.62, -3.549e-08
620.62, -3.817e-08
622.62, -3.765e-08
624.62, -3.476e-08
626.63, -3.592e-08
628.63, -3.55e-08
630.63, -3.514e-08
632.63, -3.445e-08
634.63, -3.659e-08
636.64, -3.673e-08
638.64, -3.25e-08
640.64, -3.706e-08
642.64, -3.554e-08
644.64, -3.218e-08
646.65, -3.693e-08
648.65, -3.437e-08
650.65, -3.716e-08
652.65, -3.698e-08
654.65, -3.337e-08
656.66, -3.506e-08
658.66, -3.631e-08
660.66, -3.9e-08
662.66, -3.485e-08
664.66, -3.322e-08
666.67, -3.474e-08
668.67, -3.536e-08
670.67, -3.752e-08
672.67, -3.776e-08
674.67, -3.62e-08
676.68, -3.782e-08
678.68, -4.076e-08
680.68, -3.878e-08
682.68, -4.26e-08
684.68, -3.83e-08
686.69, -4.064e-08
688.69, -4e-08
690.69, -3.817e-08
692.69, -3.904e-08
694.69, -3.529e-08
696.7, -3.691e-08
698.7, -3.968e-08
700.7, -3.733e-08
702.7, -3.766e-08
704.7, -3.826e-08
706.71, -3.755e-08
708.71, -3.87e-08
710.71, -3.781e-08
712.71, -4.172e-08
714.71, -3.526e-08
716.72, -3.816e-08
718.72, -3.422e-08
720.72, -3.466e-08
722.72, -3.447e-08
724.72, -3.083e-08
726.73, -3.629e-08
728.73, -3.692e-08
730.73, -3.327e-08
732.73, -3.374e-08
734.73, -3.469e-08
736.74, -3.96e-08
738.74, -3.553e-08
740.74, -3.855e-08
742.74, -3.366e-08
744.74, -3.347e-08
746.75, -3.309e-08
748.75, -3.256e-08
750.75, -3.483e-08
752.75, -3.542e-08
754.75, -3.018e-08
756.76, -3.359e-08
758.76, -3.083e-08
760.76, -3.117e-08
762.76, -3.033e-08
764.76, -3.516e-08
766.77, -3.183e-08
768.77, -3.586e-08
770.77, -3.464e-08
772.77, -3.676e-08
774.77, -3.583e-08
776.78, -3.148e-08
778.78, -3.386e-08
780.78, -3.453e-08
782.78, -3.499e-08
784.78, -3.54e-08
786.79, -3.184e-08
788.79, -3.281e-08
790.79, -3.434e-08
792.79, -3.026e-08
794.79, -3.853e-08
796.8, -3.609e-08
798.8, -3.847e-08
800.8, -3.372e-08
802.8, -3.489e-08
804.8, -3.449e-08
806.81, -3.317e-08
808.81, -3.106e-08
810.81, -3.645e-08
812.81, -3.389e-08
814.81, -3.472e-08
816.82, -3.282e-08
818.82, -3.638e-08
820.82, -3.152e-08
822.82, -3.407e-08
824.82, -3.506e-08
826.83, -3.209e-08
828.83, -3.453e-08
830.83, -3.431e-08
832.83, -3.143e-08
834.83, -3.619e-08
836.84, -3.312e-08
838.84, -3.465e-08
840.84, -3.665e-08
842.84, -3.661e-08
844.84, -3.726e-08
846.85, -3.367e-08
848.85, -3.775e-08
850.85, -3.516e-08
852.85, -3.115e-08
854.85, -3.592e-08
856.86, -3.484e-08
858.86, -4.005e-08
860.86, -3.635e-08
862.86, -3.443e-08
864.86, -3.606e-08
866.87, -3.639e-08
868.87, -3.858e-08
870.87, -3.408e-08
872.87, -3.194e-08
874.87, -3.126e-08
876.88, -3.541e-08
878.88, -3.843e-08
880.88, -3.839e-08
882.88, -3.561e-08
884.88, -3.54e-08
886.89, -3.512e-08
888.89, -3.514e-08
890.89, -3.267e-08
892.89, -3.662e-08
894.89, -3.369e-08
896.9, -3.517e-08
898.9, -3.819e-08
900.9, -3.291e-08
902.9, -3.36e-08
904.9, -3.134e-08
906.91, -3.362e-08
908.91, -3.31e-08
910.91, -3.382e-08
912.91, -3.251e-08
914.91, -3.277e-08
916.92, -2.773e-08
918.92, -3.07e-08
920.92, -3.478e-08
922.92, -3.177e-08
924.92, -3.213e-08
926.93, -3.565e-08
928.93, -3.535e-08
930.93, -3.369e-08
932.93, -3.512e-08
934.93, -3.579e-08
936.94, -3.602e-08
938.94, -3.622e-08
940.94, -3.575e-08
942.94, -3.556e-08
944.94, -3.583e-08
946.95, -3.816e-08
948.95, -4.101e-08
950.95, -3.799e-08
952.95, -3.87e-08
954.95, -3.786e-08
956.96, -3.856e-08
958.96, -3.74e-08
960.96, -3.858e-08
962.96, -3.709e-08
964.96, -3.682e-08
966.97, -4.051e-08
968.97, -4.034e-08
970.97, -3.842e-08
972.97, -3.635e-08
974.97, -3.285e-08
976.98, -3.53e-08
978.98, -3.752e-08
980.98, -3.317e-08
982.98, -3.347e-08
984.98, -3.555e-08
986.99, -3.689e-08
988.99, -3.361e-08
990.99, -3.176e-08
992.99, -2.98e-08
994.99, -3.335e-08
997.0, -3.56e-08
999.0, -3.457e-08
1001.0, -3.315e-08
1003.0, -3.25e-08
1005.0, -3.255e-08
1007.0, -3.435e-08
1009.0, -2.912e-08
1011.0, -3.061e-08
1013.0, -3.247e-08
1015.0, -3.181e-08
1017.0, -3.324e-08
1019.0, -3.26e-08
1021.0, -3.434e-08
1023.0, -2.972e-08
1025.0, -3.009e-08
1027.0, -3.296e-08
1029.0, -3.417e-08
1031.0, -2.988e-08
1033.0, -3.48e-08
1035.0, -3.35e-08
1037.0, -2.881e-08
1039.0, -3.246e-08
1041.0, -3.415e-08
1043.0, -3.034e-08
1045.0, -3.261e-08
1047.0, -3.409e-08
1049.0, -3.207e-08
1051.0, -3.132e-08
1053.1, -3.145e-08
1055.1, -3.602e-08
1057.1, -3.487e-08
1059.1, -3.785e-08
1061.1, -3.355e-08
1063.1, -3.547e-08
1065.1, -3.522e-08
1067.1, -3.324e-08
1069.1, -3.557e-08
1071.1, -3.455e-08
1073.1, -3.229e-08
1075.1, -3.49e-08
1077.1, -3.491e-08
1079.1, -3.105e-08
1081.1, -3.438e-08
1083.1, -3.244e-08
1085.1, -3.725e-08
1087.1, -3.617e-08
1089.1, -3.355e-08
1091.1, -3.157e-08
1093.1, -3.35e-08
1095.1, -3.292e-08
1097.1, -3.622e-08
1099.1, -3.217e-08
1101.1, -3.626e-08
1103.1, -3.149e-08
1105.1, -3.031e-08
1107.1, -3.169e-08
1109.1, -3.256e-08
1111.1, -3.272e-08
1113.1, -3.153e-08
1115.1, -3.011e-08
1117.1, -3.153e-08
1119.1, -3.102e-08
1121.1, -3.263e-08
1123.1, -2.612e-08
1125.1, -3.149e-08
1127.1, -3.188e-08
1129.1, -3.372e-08
1131.1, -3.12e-08
1133.1, -3.513e-08
1135.1, -3.455e-08
1137.1, -3.668e-08
1139.1, -3.203e-08
1141.1, -3.638e-08
1143.1, -3.289e-08
1145.1, -3.606e-08
1147.1, -3.309e-08
1149.1, -3.539e-08
1151.1, -3.716e-08
1153.2, -3.387e-08
1155.2, -3.424e-08
1157.2, -3.511e-08
1159.2, -3.638e-08
1161.2, -3.085e-08
1163.2, -3.127e-08
1165.2, -3.114e-08
1167.2, -3.37e-08
1169.2, -3.531e-08
1171.2, -3.481e-08
1173.2, -3.304e-08
1175.2, -3.57e-08
1177.2, -3.551e-08
1179.2, -3.271e-08
1181.2, -3.181e-08
1183.2, -3.305e-08
1185.2, -3.371e-08
1187.2, -3.763e-08
1189.2, -3.234e-08
1191.2, -3.079e-08
1193.2, -3.619e-08
1195.2, -3.752e-08
1197.2, -3.71e-08
1199.2, -3.526e-08
1201.2, -3.476e-08
1203.2, -3.27e-08
1205.2, -3.23e-08
1207.2, -3.517e-08
1209.2, -3.136e-08
1211.2, -3.564e-08
1213.2, -3.371e-08
1215.2, -3.512e-08
1217.2, -3.333e-08
1219.2, -3.572e-08
1221.2, -3.4e-08
1223.2, -3.267e-08
1225.2, -3.323e-08
1227.2, -3.948e-08
1229.2, -3.888e-08
1231.2, -3.517e-08
1233.2, -3.795e-08
1235.2, -3.588e-08
1237.2, -3.247e-08
1239.2, -3.354e-08
1241.2, -3.264e-08
1243.2, -3.585e-08
1245.2, -3.258e-08
1247.2, -3.635e-08
1249.2, -3.708e-08
1251.2, -3.179e-08
1253.3, -3.21e-08
1255.3, -3.498e-08
1257.3, -3.345e-08
1259.3, -3.163e-08
1261.3, -3.058e-08
1263.3, -2.917e-08
1265.3, -3.29e-08
1267.3, -3.392e-08
1269.3, -3.455e-08
1271.3, -3.311e-08
1273.3, -3.32e-08
1275.3, -3.218e-08
1277.3, -3.456e-08
1279.3, -3.538e-08
1281.3, -3.39e-08
1283.3, -3.845e-08
1285.3, -3.972e-08
1287.3, -3.758e-08
1289.3, -3.812e-08
1291.3, -3.504e-08
1293.3, -3.344e-08
1295.3, -3.443e-08
1297.3, -3.338e-08
1299.3, -3.439e-08
1301.3, -3.688e-08
1303.3, -3.46e-08
1305.3, -3.648e-08
1307.3, -3.585e-08
1309.3, -3.485e-08
1311.3, -3.65e-08
1313.3, -3.286e-08
1315.3, -3.595e-08
1317.3, -3.675e-08
1319.3, -3.92e-08
1321.3, -3.51e-08
1323.3, -3.873e-08
1325.3, -3.38e-08
1327.3, -3.371e-08
1329.3, -3.85e-08
1331.3, -3.963e-08
1333.3, -3.496e-08
1335.3, -3.524e-08
1337.3, -3.637e-08
1339.3, -3.696e-08
1341.3, -3.956e-08
1343.3, -3.845e-08
1345.3, -3.75e-08
1347.3, -3.984e-08
1349.3, -3.643e-08
1351.3, -3.358e-08
1353.4, -3.341e-08
1355.4, -3.578e-08
1357.4, -3.626e-08
1359.4, -3.475e-08
1361.4, -3.745e-08
1363.4, -3.694e-08
1365.4, -3.772e-08
1367.4, -3.598e-08
1369.4, -3.598e-08
1371.4, -3.417e-08
1373.4, -3.827e-08
1375.4, -3.495e-08
1377.4, -3.676e-08
1379.4, -3.842e-08
1381.4, -3.893e-08
1383.4, -3.631e-08
1385.4, -3.847e-08
1387.4, -4.042e-08
1389.4, -3.994e-08
1391.4, -4.029e-08
1393.4, -4.024e-08
1395.4, -3.705e-08
1397.4, -3.681e-08
1399.4, -3.543e-08
1401.4, -3.756e-08
1403.4, -3.743e-08
1405.4, -3.594e-08
1407.4, -4.237e-08
1409.4, -3.799e-08
1411.4, -3.828e-08
1413.4, -3.928e-08
1415.4, -3.501e-08
1417.4, -3.833e-08
1419.4, -3.554e-08
1421.4, -3.829e-08
1423.4, -3.422e-08
1425.4, -3.85e-08
1427.4, -3.83e-08
1429.4, -3.795e-08
1431.4, -3.502e-08
1433.4, -3.863e-08
1435.4, -3.412e-08
1437.4, -3.573e-08
1439.4, -3.558e-08
1441.4, -3.625e-08
1443.4, -3.494e-08
1445.4, -3.652e-08
1447.4, -3.681e-08
1449.4, -3.519e-08
1451.4, -3.648e-08
1453.5, -3.427e-08
1455.5, -3.511e-08
1457.5, -3.485e-08
1459.5, -3.243e-08
1461.5, -3.752e-08
1463.5, -3.54e-08
1465.5, -3.491e-08
1467.5, -3.149e-08
1469.5, -3.281e-08
1471.5, -3.076e-08
1473.5, -3.454e-08
1475.5, -3.261e-08
1477.5, -3.331e-08
1479.5, -2.983e-08
1481.5, -3.2e-08
1483.5, -3.298e-08
1485.5, -3.389e-08
1487.5, -3.499e-08
1489.5, -2.909e-08
1491.5, -3.338e-08
1493.5, -2.863e-08
1495.5, -3.701e-08
1497.5, -3.769e-08
1499.5, -3.292e-08
1501.5, -3.749e-08
1503.5, -3.394e-08
1505.5, -3.404e-08
1507.5, -3.583e-08
1509.5, -3.578e-08
1511.5, -3.375e-08
1513.5, -2.921e-08
1515.5, -3.188e-08
1517.5, -3.116e-08
1519.5, -3.451e-08
1521.5, -3.497e-08
1523.5, -3.236e-08
1525.5, -3.582e-08
1527.5, -3.593e-08
1529.5, -3.077e-08
1531.5, -3.202e-08
1533.5, -3.429e-08
1535.5, -3.466e-08
1537.5, -3.253e-08
1539.5, -2.875e-08
1541.5, -3.06e-08
1543.5, -3.335e-08
1545.5, -3.564e-08
1547.5, -3.215e-08
1549.5, -2.91e-08
1551.5, -3.345e-08
1553.6, -2.971e-08
1555.6, -2.806e-08
1557.6, -2.787e-08
1559.6, -2.904e-08
1561.6, -2.738e-08
1563.6, -2.938e-08
1565.6, -2.83e-08
1567.6, -3.195e-08
1569.6, -3.473e-08
1571.6, -3.525e-08
1573.6, -3.364e-08
1575.6, -3.315e-08
1577.6, -2.883e-08
1579.6, -3.487e-08
1581.6, -3.779e-08
1583.6, -2.977e-08
1585.6, -3.59e-08
1587.6, -3.672e-08
1589.6, -3.612e-08
1591.6, -3.174e-08
1593.6, -3.195e-08
1595.6, -3.161e-08
1597.6, -3.455e-08
1599.6, -3.445e-08
1601.6, -3.442e-08
1603.6, -3.503e-08
1605.6, -3.433e-08
1607.6, -3.434e-08
1609.6, -3.844e-08
1611.6, -3.419e-08
1613.6, -3.637e-08
1615.6, -3.092e-08
1617.6, -3.516e-08
1619.6, -3.333e-08
1621.6, -3.259e-08
1623.6, -3.032e-08
1625.6, -3e-08
1627.6, -3.398e-08
1629.6, -3.12e-08
1631.6, -2.955e-08
1633.6, -3.091e-08
1635.6, -3.07e-08
1637.6, -2.849e-08
1639.6, -2.934e-08
1641.6, -3.217e-08
1643.6, -3.118e-08
1645.6, -3.251e-08
1647.6, -3.091e-08
1649.6, -2.892e-08
1651.6, -2.891e-08
1653.7, -2.951e-08
1655.7, -3.163e-08
1657.7, -2.725e-08
1659.7, -2.894e-08
1661.7, -3.093e-08
1663.7, -3.326e-08
1665.7, -3.237e-08
1667.7, -2.797e-08
1669.7, -3.241e-08
1671.7, -2.917e-08
1673.7, -3.326e-08
1675.7, -3.201e-08
1677.7, -3.291e-08
1679.7, -3.528e-08
1681.7, -3.026e-08
1683.7, -3.502e-08
1685.7, -3.001e-08
1687.7, -3.552e-08
1689.7, -3.271e-08
1691.7, -3.172e-08
1693.7, -3.243e-08
1695.7, -3.217e-08
1697.7, -3.057e-08
1699.7, -3.231e-08
1701.7, -3.534e-08
1703.7, -3.629e-08
1705.7, -3.35e-08
1707.7, -3.458e-08
1709.7, -3.516e-08
1711.7, -3.343e-08
1713.7, -3.088e-08
1715.7, -3.449e-08
1717.7, -3.344e-08
1719.7, -3.304e-08
1721.7, -3.299e-08
1723.7, -3.34e-08
1725.7, -3.316e-08
1727.7, -3.443e-08
1729.7, -3.547e-08
1731.7, -3.089e-08
1733.7, -3.506e-08
1735.7, -3.253e-08
1737.7, -3.339e-08
1739.7, -3.526e-08
1741.7, -3.374e-08
1743.7, -3.317e-08
1745.7, -3.319e-08
1747.7, -3.569e-08
1749.7, -3.099e-08
1751.7, -3.372e-08
1753.8, -3.152e-08
1755.8, -3.444e-08
1757.8, -3.595e-08
1759.8, -3.249e-08
1761.8, -3.092e-08
1763.8, -3.357e-08
1765.8, -3.223e-08
1767.8, -3.51e-08
1769.8, -3.856e-08
1771.8, -3.272e-08
1773.8, -3.06e-08
1775.8, -3.066e-08
1777.8, -3.536e-08
1779.8, -3.33e-08
1781.8, -3.37e-08
1783.8, -3.331e-08
1785.8, -3.487e-08
1787.8, -3.687e-08
1789.8, -3.449e-08
1791.8, -3.381e-08
1793.8, -3.434e-08
1795.8, -3.403e-08
1797.8, -3.565e-08
1799.8, -3.297e-08
1801.8, -3.725e-08
1803.8, -3.32e-08
1805.8, -3.485e-08
1807.8, -3.738e-08
1809.8, -3.696e-08
1811.8, -3.52e-08
1813.8, -3.512e-08
1815.8, -3.624e-08
1817.8, -3.765e-08
1819.8, -3.612e-08
1821.8, -3.314e-08
1823.8, -3.447e-08
1825.8, -3.585e-08
1827.8, -3.382e-08
1829.8, -3.504e-08
1831.8, -3.02e-08
1833.8, -3.364e-08
1835.8, -2.994e-08
1837.8, -3.405e-08
1839.8, -3.437e-08
1841.8, -3.738e-08
1843.8, -3.396e-08
1845.8, -3.184e-08
1847.8, -3.652e-08
1849.8, -3.727e-08
1851.8, -3.501e-08
1853.9, -3.517e-08
1855.9, -3.721e-08
1857.9, -3.951e-08
1859.9, -3.836e-08
1861.9, -3.58e-08
1863.9, -3.152e-08
1865.9, -3.644e-08
1867.9, -3.615e-08
1869.9, -3.797e-08
1871.9, -3.594e-08
1873.9, -3.867e-08
1875.9, -3.685e-08
1877.9, -3.521e-08
1879.9, -3.987e-08
1881.9, -3.402e-08
1883.9, -3.806e-08
1885.9, -3.939e-08
1887.9, -3.609e-08
1889.9, -3.345e-08
1891.9, -3.338e-08
1893.9, -3.291e-08
1895.9, -3.548e-08
1897.9, -3.638e-08
1899.9, -3.838e-08
1901.9, -3.978e-08
1903.9, -4.037e-08
1905.9, -3.785e-08
1907.9, -3.854e-08
1909.9, -3.973e-08
1911.9, -3.991e-08
1913.9, -3.865e-08
1915.9, -3.688e-08
1917.9, -3.721e-08
1919.9, -3.474e-08
1921.9, -3.809e-08
1923.9, -3.744e-08
1925.9, -3.537e-08
1927.9, -4.051e-08
1929.9, -4.028e-08
1931.9, -3.944e-08
1933.9, -3.935e-08
1935.9, -3.647e-08
1937.9, -3.835e-08
1939.9, -3.684e-08
1941.9, -3.722e-08
1943.9, -3.88e-08
1945.9, -3.567e-08
1947.9, -3.511e-08
1949.9, -3.824e-08
1951.9, -3.611e-08
1954.0, -3.412e-08
1956.0, -3.528e-08
1958.0, -3.358e-08
1960.0, -3.896e-08
1962.0, -3.948e-08
1964.0, -3.865e-08
1966.0, -3.561e-08
1968.0, -3.486e-08
1970.0, -3.254e-08
1972.0, -3.598e-08
1974.0, -3.581e-08
1976.0, -3.792e-08
1978.0, -3.503e-08
1980.0, -3.295e-08
1982.0, -3.557e-08
1984.0, -3.665e-08
1986.0, -3.852e-08
1988.0, -3.41e-08
1990.0, -3.767e-08
1992.0, -3.504e-08
1994.0, -3.699e-08
1996.0, -3.522e-08
1998.0, -3.759e-08
2000.0, -3.841e-08
2002.0, -3.943e-08
2004.0, -4.014e-08
2006.0, -3.903e-08
2008.0, -3.977e-08
2010.0, -4.039e-08
2012.0, -4.09e-08
2014.0, -3.357e-08
2016.0, 7.9282e-07
2018.0, 1.0929e-06
2020.0, 9.221e-07
2022.0, 1.0653e-06
2024.0, 1.1368e-06
2026.0, 9.9019e-07
2028.0, 1.0625e-06
2030.0, 9.8777e-07
2032.0, 1.0807e-06
2034.0, 1.3699e-06
2036.0, 1.0859e-06
2038.0, 9.2872e-07
2040.0, 1.2163e-06
2042.0, 1.3613e-06
2044.0, 1.3623e-06
2046.0, 1.5508e-06
2048.0, 1.499e-06
2050.0, 1.2463e-06
2052.0, 8.0205e-07
2054.1, 1.1498e-06
2056.1, 1.1409e-06
2058.1, 1.1315e-06
2060.1, 1.1884e-06
2062.1, 1.4573e-06
2064.1, 1.286e-06
2066.1, 1.2068e-06
2068.1, 1.4349e-06
2070.1, 1.2273e-06
2072.1, 1.2347e-06
2074.1, 1.7278e-06
2076.1, 1.0502e-06
2078.1, 1.3643e-06
2080.1, 1.4371e-06
2082.1, 1.3583e-06
2084.1, 1.53e-06
2086.1, 1.2116e-06
2088.1, 1.4274e-06
2090.1, 1.2696e-06
2092.1, 1.2932e-06
2094.1, 1.1893e-06
2096.1, 1.6327e-06
2098.1, 1.4293e-06
2100.1, 1.3664e-06
2102.1, 1.2592e-06
2104.1, 9.7986e-07
2106.1, 1.3926e-06
2108.1, 1.2494e-06
2110.1, 1.059e-06
2112.1, 1.1369e-06
2114.1, 1.3395e-06
2116.1, 1.2328e-06
2118.1, 1.6474e-06
2120.1, 1.9422e-06
2122.1, 1.4715e-06
2124.1, 1.6966e-06
2126.1, 1.1494e-06
2128.1, 1.5075e-06
2130.1, 1.4159e-06
2132.1, 9.1774e-07
2134.1, 1.5193e-06
2136.1, 1.152e-06
2138.1, 1.6397e-06
2140.1, 1.5997e-06
2142.1, 1.5191e-06
2144.1, 1.142e-06
2146.1, 1.632e-06
2148.1, 1.3656e-06
2150.1, 1.3962e-06
2152.1, 1.2321e-06
2154.2, 1.3641e-06
2156.2, 1.5948e-06
2158.2, 1.4482e-06
2160.2, 1.5017e-06
2162.2, 1.7255e-06
2164.2, 1.2569e-06
2166.2, 1.3444e-06
2168.2, 1.3389e-06
2170.2, 1.5043e-06
2172.2, 1.5169e-06
2174.2, 1.6198e-06
2176.2, 1.6786e-06
2178.2, 1.5588e-06
2180.2, 1.6976e-06
2182.2, 1.3533e-06
2184.2, 1.5541e-06
2186.2, 1.3611e-06
2188.2, 1.3167e-06
2190.2, 1.6389e-06
2192.2, 1.4586e-06
2194.2, 1.4343e-06
2196.2, 1.4829e-06
2198.2, 1.7309e-06
2200.2, 1.6471e-06
2202.2, 1.4901e-06
2204.2, 1.6934e-06
2206.2, 1.3541e-06
2208.2, 1.2806e-06
2210.2, 2.0557e-06
2212.2, 1.7253e-06
2214.2, 1.3211e-06
2216.2, 1.6993e-06
2218.2, 1.4288e-06
2220.2, 1.4482e-06
2222.2, 1.3199e-06
2224.2, 1.3985e-06
2226.2, 1.2389e-06
2228.2, 1.6692e-06
2230.2, 1.8328e-06
2232.2, 1.5565e-06
2234.2, 1.3812e-06
2236.2, 1.5598e-06
2238.2, 1.5048e-06
2240.2, 1.6902e-06
2242.2, 1.5046e-06
2244.2, 1.558e-06
2246.2, 1.6849e-06
2248.2, 1.8575e-06
2250.2, 1.6755e-06
2252.2, 1.0041e-06
2254.3, 1.3814e-06
2256.3, 1.3383e-06
2258.3, 1.2993e-06
2260.3, 1.303e-06
2262.3, 1.3048e-06
2264.3, 1.3582e-06
2266.3, 1.7518e-06
2268.3, 1.3223e-06
2270.3, 1.7576e-06
2272.3, 1.3801e-06
2274.3, 1.7642e-06
2276.3, 1.5214e-06
2278.3, 1.5337e-06
2280.3, 1.653e-06
2282.3, 1.2629e-06
2284.3, 1.3968e-06
2286.3, 1.4377e-06
2288.3, 1.4253e-06
2290.3, 1.4763e-06
2292.3, 1.7871e-06
2294.3, 1.4694e-06
2296.3, 1.6592e-06
2298.3, 1.4001e-06
2300.3, 1.252e-06
2302.3, 1.5627e-06
2304.3, 1.7173e-06
2306.3, 1.5153e-06
2308.3, 1.3694e-06
2310.3, 1.6276e-06
2312.3, 1.8348e-06
2314.3, 1.2383e-06
2316.3, 1.1167e-06
2318.3, 1.4077e-06
2320.3, 1.4299e-06
2322.3, 1.5181e-06
2324.3, 1.2702e-06
2326.3, 1.6299e-06
2328.3, 1.8517e-06
2330.3, 1.6487e-06
2332.3, 1.8823e-06
2334.3, 1.6986e-06
2336.3, 1.6279e-06
2338.3, 1.2801e-06
2340.3, 1.6315e-06
2342.3, 1.6952e-06
2344.3, 1.453e-06
2346.3, 1.6396e-06
2348.3, 1.143e-06
2350.3, 1.5879e-06
2352.3, 1.4166e-06
2354.4, 1.3264e-06
2356.4, 1.2019e-06
2358.4, 1.5564e-06
2360.4, 1.7715e-06
2362.4, 1.6949e-06
2364.4, 1.5245e-06
2366.4, 1.5211e-06
2368.4, 1.6183e-06
2370.4, 1.7638e-06
2372.4, 1.6292e-06
2374.4, 1.8959e-06
2376.4, 1.8184e-06
2378.4, 1.5368e-06
2380.4, 1.184e-06
2382.4, 1.3747e-06
2384.4, 1.415e-06
2386.4, 1.9097e-06
2388.4, 1.2618e-06
2390.4, 1.2344e-06
2392.4, 1.4982e-06
2394.4, 1.3809e-06
2396.4, 1.427e-06
2398.4, 1.6794e-06
2400.4, 1.6708e-06
2402.4, 1.7108e-06
2404.4, 1.8423e-06
2406.4, 1.4694e-06
2408.4, 1.7013e-06
2410.4, 1.6509e-06
2412.4, 1.6062e-06
2414.4, 1.5264e-06
2416.4, 1.7009e-06
2418.4, 1.5806e-06
2420.4, 1.7935e-06
2422.4, 1.6071e-06
2424.4, 1.5413e-06
2426.4, 1.5874e-06
2428.4, 1.198e-06
2430.4, 1.2887e-06
2432.4, 1.7552e-06
2434.4, 1.3708e-06
2436.4, 1.5041e-06
2438.4, 1.3276e-06
2440.4, 1.434e-06
2442.4, 1.6638e-06
2444.4, 1.6394e-06
2446.4, 1.6245e-06
2448.4, 1.5489e-06
2450.4, 1.6592e-06
2452.4, 1.1983e-06
2454.5, 1.3599e-06
2456.5, 1.8278e-06
2458.5, 1.4772e-06
2460.5, 1.4534e-06
2462.5, 1.3317e-06
2464.5, 1.612e-06
2466.5, 1.9935e-06
2468.5, 1.7791e-06
2470.5, 1.3681e-06
2472.5, 1.4878e-06
2474.5, 1.7385e-06
2476.5, 1.5531e-06
2478.5, 1.5907e-06
2480.5, 1.6101e-06
2482.5, 1.2962e-06
2484.5, 1.5985e-06
2486.5, 1.4328e-06
2488.5, 1.1825e-06
2490.5, 1.6891e-06
2492.5, 1.6321e-06
2494.5, 1.5832e-06
2496.5, 1.5503e-06
2498.5, 1.5873e-06
2500.5, 1.6786e-06
2502.5, 1.9083e-06
2504.5, 1.7623e-06
2506.5, 1.708e-06
2508.5, 1.6258e-06
2510.5, 1.3081e-06
2512.5, 1.7842e-06
2514.5, 1.5222e-06
2516.5, 1.4583e-06
2518.5, 1.6259e-06
2520.5, 1.7612e-06
2522.5, 1.6309e-06
2524.5, 1.6892e-06
2526.5, 1.0787e-06
2528.5, 1.7791e-06
2530.5, 1.861e-06
2532.5, 1.5941e-06
2534.5, 1.3904e-06
2536.5, 1.512e-06
2538.5, 1.2929e-06
2540.5, 1.7902e-06
2542.5, 2.0791e-06
2544.5, 1.554e-06
2546.5, 1.8927e-06
2548.5, 1.463e-06
2550.5, 1.4061e-06
2552.5, 1.7429e-06
2554.6, 1.6632e-06
2556.6, 1.5233e-06
2558.6, 1.6952e-06
2560.6, 1.4143e-06
2562.6, 1.4324e-06
2564.6, 1.3794e-06
2566.6, 1.4322e-06
2568.6, 1.5586e-06
2570.6, 1.7101e-06
2572.6, 1.1788e-06
2574.6, 1.7867e-06
2576.6, 1.4191e-06
2578.6, 1.5756e-06
2580.6, 1.1277e-06
2582.6, 1.8173e-06
2584.6, 1.7488e-06
2586.6, 1.4931e-06
2588.6, 1.6425e-06
2590.6, 1.4787e-06
2592.6, 1.8583e-06
2594.6, 1.702e-06
2596.6, 1.6239e-06
2598.6, 1.8842e-06
2600.6, 1.6776e-06
2602.6, 1.4714e-06
2604.6, 1.6222e-06
2606.6, 1.4744e-06
2608.6, 1.7535e-06
2610.6, 1.6635e-06
2612.6, 1.8301e-06
2614.6, 1.7123e-06
2616.6, 1.9058e-06
2618.6, 1.7066e-06
2620.6, 1.4587e-06
2622.6, 1.8998e-06
2624.6, 1.5736e-06
2626.6, 1.3748e-06
2628.6, 1.7949e-06
2630.6, 1.4523e-06
2632.6, 1.5598e-06
2634.6, 1.5941e-06
2636.6, 1.5424e-06
2638.6, 1.7179e-06
2640.6, 1.488e-06
2642.6, 1.7513e-06
2644.6, 1.8619e-06
2646.6, 1.5859e-06
2648.6, 1.8853e-06
2650.6, 1.6216e-06
2652.6, 1.7759e-06
2654.7, 1.6071e-06
2656.7, 1.9122e-06
2658.7, 1.5237e-06
2660.7, 1.4452e-06
2662.7, 1.6081e-06
2664.7, 1.486e-06
2666.7, 1.7206e-06
2668.7, 1.4276e-06
2670.7, 1.6809e-06
2672.7, 1.5179e-06
2674.7, 1.5363e-06
2676.7, 1.7143e-06
2678.7, 1.5121e-06
2680.7, 1.5901e-06
2682.7, 1.3905e-06
2684.7, 1.7542e-06
2686.7, 1.6197e-06
2688.7, 1.7559e-06
2690.7, 1.7305e-06
2692.7, 1.5432e-06
2694.7, 1.4839e-06
2696.7, 1.6884e-06
2698.7, 1.7809e-06
2700.7, 1.8207e-06
2702.7, 1.6719e-06
2704.7, 1.6689e-06
2706.7, 1.5784e-06
2708.7, 1.8562e-06
2710.7, 1.4049e-06
2712.7, 1.6618e-06
2714.7, 1.5735e-06
2716.7, 1.5813e-06
2718.7, 1.1993e-06
2720.7, 1.7899e-06
2722.7, 1.6392e-06
2724.7, 2.0186e-06
2726.7, 1.7026e-06
2728.7, 1.9168e-06
2730.7, 1.7269e-06
2732.7, 1.5148e-06
2734.7, 1.5261e-06
2736.7, 1.755e-06
2738.7, 1.8473e-06
2740.7, 1.7616e-06
2742.7, 1.6272e-06
2744.7, 1.4662e-06
2746.7, 1.4753e-06
2748.7, 1.7919e-06
2750.7, 1.7859e-06
2752.7, 1.5485e-06
2754.8, 1.3664e-06
2756.8, 1.6474e-06
2758.8, 1.5479e-06
2760.8, 1.9132e-06
2762.8, 2.0268e-06
2764.8, 1.6499e-06
2766.8, 1.6316e-06
2768.8, 1.373e-06
2770.8, 1.2079e-06
2772.8, 1.3745e-06
2774.8, 1.3523e-06
2776.8, 1.4709e-06
2778.8, 1.7177e-06
2780.8, 1.5221e-06
2782.8, 1.767e-06
2784.8, 1.6312e-06
2786.8, 1.5498e-06
2788.8, 1.2853e-06
2790.8, 1.8699e-06
2792.8, 1.3896e-06
2794.8, 1.5945e-06
2796.8, 1.7853e-06
2798.8, 1.6777e-06
2800.8, 1.6142e-06
2802.8, 1.8851e-06
2804.8, 1.8573e-06
2806.8, 1.781e-06
2808.8, 1.9928e-06
2810.8, 1.7723e-06
2812.8, 1.7929e-06
2814.8, 1.7434e-06
2816.8, 1.7618e-06
2818.8, 1.7191e-06
2820.8, 1.8315e-06
2822.8, 1.5502e-06
2824.8, 1.5596e-06
2826.8, 1.6558e-06
2828.8, 1.6512e-06
2830.8, 1.7932e-06
2832.8, 1.6712e-06
2834.8, 1.049e-06
2836.8, 1.4915e-06
2838.8, 2.0604e-06
2840.8, 2.0148e-06
2842.8, 1.428e-06
2844.8, 1.7445e-06
2846.8, 1.4845e-06
2848.8, 1.714e-06
2850.8, 1.1412e-06
2852.8, 1.7588e-06
2854.9, 1.5986e-06
2856.9, 2.024e-06
2858.9, 1.4906e-06
2860.9, 1.6218e-06
2862.9, 1.5818e-06
2864.9, 1.733e-06
2866.9, 1.7337e-06
2868.9, 1.7289e-06
2870.9, 2.0419e-06
2872.9, 1.7944e-06
2874.9, 1.7497e-06
2876.9, 1.902e-06
2878.9, 1.8343e-06
2880.9, 1.993e-06
2882.9, 1.6176e-06
2884.9, 1.9534e-06
2886.9, 1.7853e-06
2888.9, 1.326e-06
2890.9, 1.7392e-06
2892.9, 1.6456e-06
2894.9, 1.7639e-06
2896.9, 1.4566e-06
2898.9, 1.4592e-06
2900.9, 1.4926e-06
2902.9, 1.7425e-06
2904.9, 1.5385e-06
2906.9, 1.6447e-06
2908.9, 1.6819e-06
2910.9, 1.6927e-06
2912.9, 1.5643e-06
2914.9, 1.4027e-06
2916.9, 1.5422e-06
2918.9, 1.7781e-06
2920.9, 1.6796e-06
2922.9, 1.535e-06
2924.9, 1.4789e-06
2926.9, 1.5408e-06
2928.9, 1.5696e-06
2930.9, 1.7258e-06
2932.9, 1.6664e-06
2934.9, 1.4936e-06
2936.9, 1.4672e-06
2938.9, 1.7968e-06
2940.9, 2e-06
2942.9, 1.4277e-06
2944.9, 1.4829e-06
2946.9, 1.5148e-06
2948.9, 1.4826e-06
2950.9, 1.4618e-06
2952.9, 1.5331e-06
2955.0, 1.7243e-06
2957.0, 1.412e-06
2959.0, 1.4214e-06
2961.0, 1.5396e-06
2963.0, 1.7426e-06
2965.0, 1.6161e-06
2967.0, 1.6689e-06
2969.0, 1.6271e-06
2971.0, 1.775e-06
2973.0, 1.783e-06
2975.0, 1.6945e-06
2977.0, 1.8338e-06
2979.0, 1.7674e-06
2981.0, 1.802e-06
2983.0, 1.5098e-06
2985.0, 1.4743e-06
2987.0, 1.7817e-06
2989.0, 2.0889e-06
2991.0, 1.7492e-06
2993.0, 1.5132e-06
2995.0, 1.7522e-06
2997.0, 1.3949e-06
2999.0, 1.3474e-06
3001.0, 1.4297e-06
3003.0, 1.9766e-06
3005.0, 1.3549e-06
3007.0, 1.6409e-06
3009.0, 1.5175e-06
3011.0, 1.7138e-06
3013.0, 1.5427e-06
3015.0, 1.9387e-06
3017.0, 4.9225e-07
3019.0, -3.186e-08
3021.0, -3.201e-08
3023.0, -3.146e-08
3025.0, -2.606e-08
3027.0, -3.063e-08
3029.0, -3.055e-08
3031.0, -3.431e-08
3033.0, -2.99e-08
3035.0, -3.523e-08
3037.0, -3.082e-08
3039.0, -3.097e-08
3041.0, -3.189e-08
3043.0, -3.452e-08
3045.0, -3.279e-08
3047.0, -3.116e-08
3049.0, -3.205e-08
3051.0, -3.366e-08
3053.0, -3.183e-08
3055.1, -3.281e-08
3057.1, -2.998e-08
3059.1, -2.936e-08
3061.1, -3.243e-08
3063.1, -3.124e-08
3065.1, -2.955e-08
3067.1, -3.138e-08
3069.1, -3.063e-08
3071.1, -3.34e-08
3073.1, -3.297e-08
3075.1, -3.503e-08
3077.1, -3.692e-08
3079.1, -3.477e-08
3081.1, -3.007e-08
3083.1, -3.272e-08
3085.1, -3.282e-08
3087.1, -3.207e-08
3089.1, -3.206e-08
3091.1, -3.294e-08
3093.1, -3.181e-08
3095.1, -3.883e-08
3097.1, -3.5e-08
3099.1, -3.313e-08
3101.1, -3.526e-08
3103.1, -3.412e-08
3105.1, -3.241e-08
3107.1, -3.287e-08
3109.1, -3.278e-08
3111.1, -3.283e-08
3113.1, -3.202e-08
3115.1, -3.298e-08
3117.1, -3.35e-08
3119.1, -3.399e-08
3121.1, -3.531e-08
3123.1, -3.572e-08
3125.1, -3.259e-08
3127.1, -3.261e-08
3129.1, -3.626e-08
3131.1, -3.34e-08
3133.1, -3.43e-08
3135.1, -3.697e-08
3137.1, -3.765e-08
3139.1, -3.642e-08
3141.1, -3.56e-08
3143.1, -3.257e-08
3145.1, -3.244e-08
3147.1, -3.021e-08
3149.1, -3.355e-08
3151.1, -3.095e-08
3153.1, -3.013e-08
3155.2, -3.131e-08
3157.2, -3.278e-08
3159.2, -3.177e-08
3161.2, -3.237e-08
3163.2, -2.907e-08
3165.2, -3.062e-08
3167.2, -3.238e-08
3169.2, -2.946e-08
3171.2, -2.954e-08
3173.2, -3.278e-08
3175.2, -2.982e-08
3177.2, -3.408e-08
3179.2, -3.153e-08
3181.2, -3.096e-08
3183.2, -3.32e-08
3185.2, -3.347e-08
3187.2, -3.637e-08
3189.2, -3.759e-08
3191.2, -3.766e-08
3193.2, -3.225e-08
3195.2, -3.527e-08
3197.2, -3.852e-08
3199.2, -3.51e-08
3201.2, -3.487e-08
3203.2, -3.428e-08
3205.2, -3.472e-08
3207.2, -3.465e-08
3209.2, -3.311e-08
3211.2, -3.409e-08
3213.2, -3.444e-08
3215.2, -3.408e-08
3217.2, -3.37e-08
3219.2, -3.235e-08
3221.2, -3.309e-08
3223.2, -3.684e-08
3225.2, -3.526e-08
3227.2, -3.335e-08
3229.2, -3.312e-08
3231.2, -3.376e-08
3233.2, -3.148e-08
3235.2, -3.355e-08
3237.2, -3.365e-08
3239.2, -3.788e-08
3241.2, -3.53e-08
3243.2, -3.565e-08
3245.2, -3.521e-08
3247.2, -3.398e-08
3249.2, -3.62e-08
3251.2, -3.342e-08
3253.2, -3.227e-08
3255.3, -3.33e-08
3257.3, -3.221e-08
3259.3, -2.898e-08
3261.3, -2.989e-08
3263.3, -3.184e-08
3265.3, -3.317e-08
3267.3, -3.708e-08
3269.3, -3.37e-08
3271.3, -3.732e-08
3273.3, -4.072e-08
3275.3, -3.632e-08
3277.3, -3.569e-08
3279.3, -3.472e-08
3281.3, -3.63e-08
3283.3, -3.416e-08
3285.3, -3.194e-08
3287.3, -3.619e-08
3289.3, -3.431e-08
3291.3, -3.264e-08
3293.3, -3.385e-08
3295.3, -3.282e-08
3297.3, -3.267e-08
3299.3, -3.642e-08
3301.3, -3.376e-08
3303.3, -3.256e-08
3305.3, -3.602e-08
3307.3, -3.249e-08
3309.3, -3.28e-08
3311.3, -3.453e-08
3313.3, -3.136e-08
3315.3, -3.274e-08
3317.3, -3.232e-08
3319.3, -3.038e-08
3321.3, -2.989e-08
3323.3, -3.683e-08
3325.3, -2.901e-08
3327.3, -3.297e-08
3329.3, -3.059e-08
3331.3, -2.987e-08
3333.3, -3.467e-08
3335.3, -2.948e-08
3337.3, -3.239e-08
3339.3, -3.534e-08
3341.3, -2.96e-08
3343.3, -2.652e-08
3345.3, -2.728e-08
3347.3, -2.751e-08
3349.3, -3.045e-08
3351.3, -2.818e-08
3353.3, -2.903e-08
3355.4, -2.928e-08
3357.4, -3.376e-08
3359.4, -3.123e-08
3361.4, -3.171e-08
3363.4, -3.284e-08
3365.4, -3.171e-08
3367.4, -3.202e-08
3369.4, -2.911e-08
3371.4, -3.357e-08
3373.4, -2.927e-08
3375.4, -3.663e-08
3377.4, -3.616e-08
3379.4, -3.762e-08
3381.4, -3.374e-08
3383.4, -3.288e-08
3385.4, -3.016e-08
3387.4, -3.127e-08
3389.4, -3.404e-08
3391.4, -3.242e-08
3393.4, -3.43e-08
3395.4, -2.897e-08
3397.4, -2.844e-08
3399.4, -2.826e-08
3401.4, -3.34e-08
3403.4, -2.935e-08
3405.4, -3.018e-08
3407.4, -2.963e-08
3409.4, -3.034e-08
3411.4, -3.27e-08
3413.4, -3.179e-08
3415.4, -3.298e-08
3417.4, -3.305e-08
3419.4, -3.483e-08
3421.4, -3.421e-08
3423.4, -3.374e-08
3425.4, -3.275e-08
3427.4, -2.809e-08
3429.4, -3.614e-08
3431.4, -3.402e-08
3433.4, -3.421e-08
3435.4, -3.401e-08
3437.4, -3.664e-08
3439.4, -3.793e-08
3441.4, -3.571e-08
3443.4, -3.433e-08
3445.4, -3.551e-08
3447.4, -3.385e-08
3449.4, -3.784e-08
3451.4, -3.845e-08
3453.4, -3.801e-08
3455.5, -3.716e-08
3457.5, -3.708e-08
3459.5, -4.136e-08
3461.5, -3.873e-08
3463.5, -4.083e-08
3465.5, -3.659e-08
3467.5, -3.728e-08
3469.5, -3.887e-08
3471.5, -3.67e-08
3473.5, -3.654e-08
3475.5, -3.358e-08
3477.5, -3.551e-08
3479.5, -3.809e-08
3481.5, -3.876e-08
3483.5, -3.369e-08
3485.5, -3.52e-08
3487.5, -3.625e-08
3489.5, -3.53e-08
3491.5, -3.63e-08
3493.5, -3.462e-08
3495.5, -3.627e-08
3497.5, -3.215e-08
3499.5, -3.503e-08
3501.5, -3.454e-08
3503.5, -3.432e-08
3505.5, -3.47e-08
3507.5, -3.352e-08
3509.5, -3.253e-08
3511.5, -3.466e-08
3513.5, -3.267e-08
3515.5, -3.397e-08
3517.5, -3.926e-08
3519.5, -3.244e-08
3521.5, -3.274e-08
3523.5, -3.511e-08
3525.5, -3.301e-08
3527.5, -3.418e-08
3529.5, -3.859e-08
3531.5, -3.621e-08
3533.5, -3.416e-08
3535.5, -3.684e-08
3537.5, -3.763e-08
3539.5, -3.609e-08
3541.5, -3.265e-08
3543.5, -3.074e-08
3545.5, -3.471e-08
3547.5, -3.732e-08
3549.5, -3.306e-08
3551.5, -3.479e-08
3553.5, -3.504e-08
3555.6, -3.344e-08
3557.6, -3.384e-08
3559.6, -3.889e-08
3561.6, -3.441e-08
3563.6, -3.432e-08
3565.6, -3.714e-08
3567.6, -3.427e-08
3569.6, -3.382e-08
3571.6, -2.873e-08
3573.6, -3.14e-08
3575.6, -3.388e-08
3577.6, -3.241e-08
3579.6, -3.324e-08
3581.6, -3.424e-08
3583.6, -3.111e-08
3585.6, -3.273e-08
3587.6, -2.859e-08
3589.6, -3.051e-08
3591.6, -3.715e-08
3593.6, -3.324e-08
3595.6, -3.228e-08
3597.6, -3.145e-08
3599.6, -3.185e-08
3601.6, -3.21e-08
3603.6, -3.074e-08
3605.6, -3.005e-08
3607.6, -3.34e-08
3609.6, -3.483e-08
3611.6, -3.95e-08
3613.6, -3.65e-08
3615.6, -3.698e-08
3617.6, -3.654e-08
3619.6, -3.25e-08
3621.6, -3.526e-08
3623.6, -3.56e-08
3625.6, -3.388e-08
3627.6, -3.54e-08
3629.6, -3.578e-08
3631.6, -3.426e-08
3633.6, -3.332e-08
3635.6, -3.331e-08
3637.6, -3.562e-08
3639.6, -3.455e-08
3641.6, -2.942e-08
3643.6, -3.268e-08
3645.6, -3.415e-08
3647.6, -3.397e-08
3649.6, -4.156e-08
3651.6, -3.439e-08
3653.6, -3.807e-08
3655.7, -3.696e-08
3657.7, -3.709e-08
3659.7, -3.853e-08
3661.7, -3.758e-08
3663.7, -3.494e-08
3665.7, -3.698e-08
3667.7, -3.57e-08
3669.7, -3.665e-08
3671.7, -3.779e-08
3673.7, -3.711e-08
3675.7, -3.434e-08
3677.7, -3.817e-08
3679.7, -3.947e-08
3681.7, -3.989e-08
3683.7, -3.956e-08
3685.7, -3.751e-08
3687.7, -3.92e-08
3689.7, -4.034e-08
3691.7, -4e-08
3693.7, -3.991e-08
3695.7, -3.938e-08
3697.7, -4.34e-08
3699.7, -3.652e-08
3701.7, -3.657e-08
3703.7, -3.298e-08
3705.7, -3.229e-08
3707.7, -3.955e-08
3709.7, -3.553e-08
3711.7, -3.421e-08
3713.7, -3.359e-08
3715.7, -3.765e-08
3717.7, -3.853e-08
3719.7, -3.644e-08
3721.7, -3.939e-08
3723.7, -3.589e-08
3725.7, -3.744e-08
3727.7, -3.802e-08
3729.7, -3.6e-08
3731.7, -3.927e-08
3733.7, -3.836e-08
3735.7, -4.21e-08
3737.7, -3.844e-08
3739.7, -3.641e-08
3741.7, -3.803e-08
3743.7, -3.836e-08
3745.7, -3.495e-08
3747.7, -4.443e-08
3749.7, -4.177e-08
3751.7, -4.014e-08
3753.7, -3.916e-08
3755.8, -3.778e-08
3757.8, -4.179e-08
3759.8, -4.021e-08
3761.8, -3.793e-08
3763.8, -3.877e-08
3765.8, -3.898e-08
3767.8, -4.04e-08
3769.8, -4.261e-08
3771.8, -4.198e-08
3773.8, -4.083e-08
3775.8, -3.888e-08
3777.8, -4.039e-08
3779.8, -4.278e-08
3781.8, -4.104e-08
3783.8, -4.064e-08
3785.8, -4.232e-08
3787.8, -4.166e-08
3789.8, -3.65e-08
3791.8, -4.172e-08
3793.8, -3.717e-08
3795.8, -3.722e-08
3797.8, -4.026e-08
3799.8, -4.057e-08
3801.8, -3.718e-08
3803.8, -3.589e-08
3805.8, -3.95e-08
3807.8, -3.7e-08
3809.8, -3.693e-08
3811.8, -3.548e-08
3813.8, -3.37e-08
3815.8, -3.473e-08
3817.8, -3.58e-08
3819.8, -3.469e-08
3821.8, -3.771e-08
3823.8, -3.419e-08
3825.8, -3.466e-08
3827.8, -3.612e-08
3829.8, -3.813e-08
3831.8, -3.763e-08
3833.8, -3.446e-08
3835.8, -3.494e-08
3837.8, -3.683e-08
3839.8, -3.859e-08
3841.8, -3.735e-08
3843.8, -3.585e-08
3845.8, -3.783e-08
3847.8, -3.544e-08
3849.8, -3.28e-08
3851.8, -3.315e-08
3853.8, -3.601e-08
3855.9, -3.51e-08
3857.9, -3.413e-08
3859.9, -3.537e-08
3861.9, -3.693e-08
3863.9, -3.539e-08
3865.9, -3.543e-08
3867.9, -3.61e-08
3869.9, -3.414e-08
3871.9, -3.703e-08
3873.9, -3.583e-08
3875.9, -3.44e-08
3877.9, -3.588e-08
3879.9, -3.51e-08
3881.9, -3.067e-08
3883.9, -2.961e-08
3885.9, -3.517e-08
3887.9, -3.774e-08
3889.9, -3.642e-08
3891.9, -3.767e-08
3893.9, -3.579e-08
3895.9, -3.963e-08
3897.9, -3.511e-08
3899.9, -3.46e-08
3901.9, -3.714e-08
3903.9, -3.343e-08
3905.9, -3.574e-08
3907.9, -3.825e-08
3909.9, -3.558e-08
3911.9, -3.955e-08
3913.9, -3.68e-08
3915.9, -3.899e-08
3917.9, -3.693e-08
3919.9, -3.963e-08
3921.9, -3.565e-08
3923.9, -3.715e-08
3925.9, -3.518e-08
3927.9, -3.742e-08
3929.9, -3.985e-08
3931.9, -4.061e-08
3933.9, -4.015e-08
3935.9, -3.514e-08
3937.9, -3.65e-08
3939.9, -3.713e-08
3941.9, -3.778e-08
3943.9, -3.504e-08
3945.9, -3.565e-08
3947.9, -3.795e-08
3949.9, -3.53e-08
3951.9, -3.637e-08
3953.9, -4.098e-08
3956.0, -3.913e-08
3958.0, -4.014e-08
3960.0, -3.829e-08
3962.0, -3.736e-08
3964.0, -3.521e-08
3966.0, -3.767e-08
3968.0, -3.899e-08
3970.0, -3.861e-08
3972.0, -3.907e-08
3974.0, -3.695e-08
3976.0, -3.831e-08
3978.0, -4.024e-08
3980.0, -4.086e-08
3982.0, -3.755e-08
3984.0, -4.212e-08
3986.0, -4.051e-08
3988.0, -3.87e-08
3990.0, -3.869e-08
3992.0, -3.863e-08
3994.0, -4.016e-08
3996.0, -4.093e-08
3998.0, -3.796e-08
4000.0, -4.249e-08
4002.0, -3.839e-08
4004.0, -3.43e-08
4006.0, -3.811e-08
4008.0, -3.764e-08
4010.0, -3.512e-08
4012.0, -3.931e-08
4014.0, -3.624e-08
4016.0, -3.859e-08
4018.0, -4.078e-08
4020.0, -3.753e-08
4022.0, -3.49e-08
4024.0, -3.553e-08
4026.0, -3.68e-08
4028.0, -3.865e-08
4030.0, -3.781e-08
4032.0, -3.804e-08
4034.0, -3.507e-08
4036.0, -3.281e-08
4038.0, -3.191e-08
4040.0, -3.604e-08
4042.0, -3.497e-08
4044.0, -3.373e-08
4046.0, -3.604e-08
4048.0, -3.657e-08
4050.0, -3.512e-08
4052.0, -3.601e-08
4054.0, -3.567e-08
4056.1, -3.72e-08
4058.1, -3.84e-08
4060.1, -3.754e-08
4062.1, -3.629e-08
4064.1, -3.555e-08
4066.1, -3.734e-08
4068.1, -4.097e-08
4070.1, -4.368e-08
4072.1, -4.293e-08
4074.1, -3.706e-08
4076.1, -3.622e-08
4078.1, -3.659e-08
4080.1, -3.547e-08
4082.1, -3.825e-08
4084.1, -3.867e-08
4086.1, -3.906e-08
4088.1, -4.171e-08
4090.1, -4.273e-08
4092.1, -4.098e-08
4094.1, -4.411e-08
4096.1, -4.27e-08
4098.1, -4.26e-08
4100.1, -3.78e-08
4102.1, -3.635e-08
4104.1, -3.568e-08
4106.1, -3.913e-08
4108.1, -4.002e-08
4110.1, 8.2858e-07
4112.1, 1.0135e-06
4114.1, 1.0906e-06
4116.1, 1.3166e-06
4118.1, 1.4769e-06
4120.1, 9.9803e-07
4122.1, 1.1746e-06
4124.1, 1.4082e-06
4126.1, 1.3141e-06
4128.1, 1.5634e-06
4130.1, 1.4905e-06
4132.1, 1.4513e-06
4134.1, 1.6764e-06
4136.1, 1.0111e-06
4138.1, 9.6491e-07
4140.1, 1.3852e-06
4142.1, 1.0088e-06
4144.1, 1.3708e-06
4146.1, 1.1434e-06
4148.1, 1.31e-06
4150.1, 1.568e-06
4152.1, 1.1004e-06
4154.1, 1.375e-06
4156.2, 1.4966e-06
4158.2, 1.3612e-06
4160.2, 1.5569e-06
4162.2, 1.2042e-06
4164.2, 1.5133e-06
4166.2, 1.669e-06
4168.2, 1.0388e-06
4170.2, 1.7301e-06
4172.2, 1.4419e-06
4174.2, 1.2138e-06
4176.2, 1.1477e-06
4178.2, 1.3491e-06
4180.2, 1.5103e-06
4182.2, 1.1385e-06
4184.2, 1.2167e-06
4186.2, 1.4453e-06
4188.2, 1.5987e-06
4190.2, 1.3762e-06
4192.2, 1.2681e-06
4194.2, 1.3748e-06
4196.2, 1.2994e-06
4198.2, 1.1187e-06
4200.2, 9.447e-07
4202.2, 1.6511e-06
4204.2, 1.1987e-06
4206.2, 1.5474e-06
4208.2, 1.4732e-06
4210.2, 1.5718e-06
4212.2, 1.0972e-06
4214.2, 1.2709e-06
4216.2, 1.4782e-06
4218.2, 1.4693e-06
4220.2, 1.7624e-06
4222.2, 1.349e-06
4224.2, 1.2294e-06
4226.2, 1.6811e-06
4228.2, 1.4552e-06
4230.2, 1.6284e-06
4232.2, 1.2624e-06
4234.2, 1.4813e-06
4236.2, 1.3122e-06
4238.2, 1.3475e-06
4240.2, 1.4246e-06
4242.2, 1.407e-06
4244.2, 1.6812e-06
4246.2, 1.1238e-06
4248.2, 1.3571e-06
4250.2, 1.6048e-06
4252.2, 1.6121e-06
4254.2, 1.3698e-06
4256.3, 1.4553e-06
4258.3, 1.3855e-06
4260.3, 1.2765e-06
4262.3, 1.4103e-06
4264.3, 1.207e-06
4266.3, 1.7814e-06
4268.3, 1.2917e-06
4270.3, 1.7229e-06
4272.3, 1.563e-06
4274.3, 1.3315e-06
4276.3, 1.6256e-06
4278.3, 1.395e-06
4280.3, 1.2671e-06
4282.3, 1.606e-06
4284.3, 1.5169e-06
4286.3, 1.3275e-06
4288.3, 1.4786e-06
4290.3, 1.731e-06
4292.3, 1.569e-06
4294.3, 1.8144e-06
4296.3, 2.1344e-06
4298.3, 1.8775e-06
4300.3, 1.5401e-06
4302.3, 1.7733e-06
4304.3, 1.6097e-06
4306.3, 1.3644e-06
4308.3, 1.4529e-06
4310.3, 1.6379e-06
4312.3, 1.4099e-06
4314.3, 1.9734e-06
4316.3, 1.5808e-06
4318.3, 1.7463e-06
4320.3, 1.6445e-06
4322.3, 1.6114e-06
4324.3, 1.4763e-06
4326.3, 1.4232e-06
4328.3, 1.2983e-06
4330.3, 1.7072e-06
4332.3, 2.0151e-06
4334.3, 1.6471e-06
4336.3, 1.8296e-06
4338.3, 1.5797e-06
4340.3, 1.7191e-06
4342.3, 1.3104e-06
4344.3, 1.5157e-06
4346.3, 1.293e-06
4348.3, 1.4873e-06
4350.3, 1.4024e-06
4352.3, 1.6514e-06
4354.3, 1.3134e-06
4356.4, 1.6656e-06
4358.4, 1.5547e-06
4360.4, 1.6819e-06
4362.4, 1.6952e-06
4364.4, 2.2403e-06
4366.4, 1.5326e-06
4368.4, 1.6646e-06
4370.4, 1.9311e-06
4372.4, 1.5824e-06
4374.4, 1.5166e-06
4376.4, 1.5458e-06
4378.4, 1.458e-06
4380.4, 1.5821e-06
4382.4, 1.8387e-06
4384.4, 1.4252e-06
4386.4, 1.6273e-06
4388.4, 1.6308e-06
4390.4, 1.6465e-06
4392.4, 9.8327e-07
4394.4, 1.5721e-06
4396.4, 2.0901e-06
4398.4, 1.506e-06
4400.4, 1.5831e-06
4402.4, 1.3484e-06
4404.4, 1.4621e-06
4406.4, 1.6112e-06
4408.4, 1.896e-06
4410.4, 1.5287e-06
4412.4, 1.535e-06
4414.4, 1.5476e-06
4416.4, 1.5072e-06
4418.4, 1.9105e-06
4420.4, 1.658e-06
4422.4, 1.3607e-06
4424.4, 1.3514e-06
4426.4, 1.6644e-06
4428.4, 1.3326e-06
4430.4, 1.6065e-06
4432.4, 1.8092e-06
4434.4, 1.6556e-06
4436.4, 1.5719e-06
4438.4, 1.4731e-06
4440.4, 1.4749e-06
4442.4, 1.4882e-06
4444.4, 1.7342e-06
4446.4, 1.7286e-06
4448.4, 1.0974e-06
4450.4, 1.721e-06
4452.4, 1.7284e-06
4454.4, 1.4505e-06
4456.5, 1.7794e-06
4458.5, 1.6692e-06
4460.5, 1.5229e-06
4462.5, 1.4484e-06
4464.5, 1.6003e-06
4466.5, 1.4535e-06
4468.5, 1.3975e-06
4470.5, 1.931e-06
4472.5, 1.9708e-06
4474.5, 1.5912e-06
4476.5, 1.864e-06
4478.5, 2.1353e-06
4480.5, 1.8716e-06
4482.5, 1.363e-06
4484.5, 1.733e-06
4486.5, 1.4896e-06
4488.5, 1.3984e-06
4490.5, 1.4753e-06
4492.5, 1.4945e-06
4494.5, 1.6017e-06
4496.5, 1.4708e-06
4498.5, 1.528e-06
4500.5, 1.6805e-06
4502.5, 1.5408e-06
4504.5, 1.401e-06
4506.5, 1.3694e-06
4508.5, 1.4931e-06
4510.5, 1.5789e-06
4512.5, 1.7059e-06
4514.5, 1.5349e-06
4516.5, 1.2722e-06
4518.5, 1.5718e-06
4520.5, 1.9139e-06
4522.5, 1.455e-06
4524.5, 1.4364e-06
4526.5, 1.7166e-06
4528.5, 1.7141e-06
4530.5, 1.8103e-06
4532.5, 1.5533e-06
4534.5, 1.5749e-06
4536.5, 1.5862e-06
4538.5, 1.7768e-06
4540.5, 1.7291e-06
4542.5, 1.3896e-06
4544.5, 1.7697e-06
4546.5, 1.5866e-06
4548.5, 1.5664e-06
4550.5, 1.3752e-06
4552.5, 1.7697e-06
4554.5, 1.4453e-06
4556.6, 1.5158e-06
4558.6, 1.9789e-06
4560.6, 1.9542e-06
4562.6, 1.5246e-06
4564.6, 1.7123e-06
4566.6, 1.6335e-06
4568.6, 1.7455e-06
4570.6, 1.9042e-06
4572.6, 1.772e-06
4574.6, 1.5117e-06
4576.6, 1.8385e-06
4578.6, 1.5357e-06
4580.6, 1.8571e-06
4582.6, 1.6537e-06
4584.6, 1.4022e-06
4586.6, 1.5895e-06
4588.6, 1.6569e-06
4590.6, 1.558e-06
4592.6, 1.4382e-06
4594.6, 1.495e-06
4596.6, 1.7714e-06
4598.6, 1.758e-06
4600.6, 1.6567e-06
4602.6, 1.6549e-06
4604.6, 1.7899e-06
4606.6, 1.6875e-06
4608.6, 1.598e-06
4610.6, 1.6386e-06
4612.6, 1.6392e-06
4614.6, 1.4927e-06
4616.6, 1.6695e-06
4618.6, 1.8232e-06
4620.6, 2.0137e-06
4622.6, 1.7064e-06
4624.6, 1.62e-06
4626.6, 1.744e-06
4628.6, 1.7832e-06
4630.6, 1.8005e-06
4632.6, 1.5714e-06
4634.6, 1.2506e-06
4636.6, 1.6063e-06
4638.6, 1.4059e-06
4640.6, 1.643e-06
4642.6, 1.545e-06
4644.6, 1.5133e-06
4646.6, 1.2798e-06
4648.6, 1.5361e-06
4650.6, 1.8448e-06
4652.6, 1.9238e-06
4654.6, 1.6625e-06
4656.7, 2.05e-06
4658.7, 1.6051e-06
4660.7, 1.7209e-06
4662.7, 1.7526e-06
4664.7, 1.8599e-06
4666.7, 1.741e-06
4668.7, 1.896e-06
4670.7, 1.8876e-06
4672.7, 1.9395e-06
4674.7, 1.9433e-06
4676.7, 1.5535e-06
4678.7, 1.693e-06
4680.7, 1.9479e-06
4682.7, 1.6494e-06
4684.7, 1.5709e-06
4686.7, 2.1267e-06
4688.7, 1.5115e-06
4690.7, 1.4423e-06
4692.7, 1.4843e-06
4694.7, 1.4275e-06
4696.7, 1.5731e-06
4698.7, 1.9334e-06
4700.7, 1.6045e-06
4702.7, 1.569e-06
4704.7, 1.6298e-06
4706.7, 1.99e-06
4708.7, 1.5046e-06
4710.7, 1.5466e-06
4712.7, 1.8917e-06
4714.7, 1.5497e-06
4716.7, 1.9676e-06
4718.7, 1.9062e-06
4720.7, 1.6486e-06
4722.7, 1.7223e-06
4724.7, 1.7918e-06
4726.7, 1.7759e-06
4728.7, 1.6925e-06
4730.7, 1.4284e-06
4732.7, 1.877e-06
4734.7, 1.5975e-06
4736.7, 1.6521e-06
4738.7, 1.5353e-06
4740.7, 1.5816e-06
4742.7, 1.6553e-06
4744.7, 1.7474e-06
4746.7, 1.6862e-06
4748.7, 2.0399e-06
4750.7, 2.158e-06
4752.7, 2.0543e-06
4754.7, 1.8446e-06
4756.8, 1.386e-06
4758.8, 1.4687e-06
4760.8, 1.8269e-06
4762.8, 1.4948e-06
4764.8, 1.9536e-06
4766.8, 2.0102e-06
4768.8, 1.6694e-06
4770.8, 1.351e-06
4772.8, 1.5435e-06
4774.8, 1.7945e-06
4776.8, 1.4753e-06
4778.8, 1.8492e-06
4780.8, 1.9415e-06
4782.8, 1.7477e-06
4784.8, 1.5295e-06
4786.8, 1.6385e-06
4788.8, 1.9213e-06
4790.8, 1.3472e-06
4792.8, 1.2647e-06
4794.8, 1.875e-06
4796.8, 1.4819e-06
4798.8, 1.896e-06
4800.8, 1.6815e-06
4802.8, 1.1264e-06
4804.8, 1.6121e-06
4806.8, 1.7954e-06
4808.8, 1.9487e-06
4810.8, 1.3695e-06
4812.8, 1.6173e-06
4814.8, 1.8095e-06
4816.8, 1.6536e-06
4818.8, 1.4548e-06
4820.8, 1.8297e-06
4822.8, 1.7439e-06
4824.8, 1.7672e-06
4826.8, 1.5534e-06
4828.8, 1.4821e-06
4830.8, 1.7927e-06
4832.8, 1.5571e-06
4834.8, 1.9615e-06
4836.8, 1.6287e-06
4838.8, 1.9859e-06
4840.8, 1.7082e-06
4842.8, 2.084e-06
4844.8, 1.664e-06
4846.8, 1.6657e-06
4848.8, 1.9062e-06
4850.8, 1.741e-06
4852.8, 1.5818e-06
4854.8, 1.9363e-06
4856.9, 1.7145e-06
4858.9, 1.5921e-06
4860.9, 1.5559e-06
4862.9, 1.9775e-06
4864.9, 1.598e-06
4866.9, 2.022e-06
4868.9, 1.5423e-06
4870.9, 1.7015e-06
4872.9, 2.0282e-06
4874.9, 1.9536e-06
4876.9, 1.8384e-06
4878.9, 1.581e-06
4880.9, 1.794e-06
4882.9, 1.7919e-06
4884.9, 1.6368e-06
4886.9, 1.4247e-06
4888.9, 2.028e-06
4890.9, 1.7125e-06
4892.9, 1.7488e-06
4894.9, 1.8354e-06
4896.9, 1.7592e-06
4898.9, 1.6201e-06
4900.9, 1.6968e-06
4902.9, 1.5312e-06
4904.9, 1.5344e-06
4906.9, 1.429e-06
4908.9, 1.9972e-06
4910.9, 1.7622e-06
4912.9, 1.843e-06
4914.9, 1.591e-06
4916.9, 1.8405e-06
4918.9, 1.5754e-06
4920.9, 1.8202e-06
4922.9, 1.5893e-06
4924.9, 1.9772e-06
4926.9, 1.6576e-06
4928.9, 1.7249e-06
4930.9, 1.7136e-06
4932.9, 1.4534e-06
4934.9, 1.9927e-06
4936.9, 1.2655e-06
4938.9, 2.1197e-06
4940.9, 1.7126e-06
4942.9, 1.5793e-06
4944.9, 1.4586e-06
4946.9, 1.6569e-06
4948.9, 1.7425e-06
4950.9, 1.663e-06
4952.9, 1.6022e-06
4954.9, 1.8629e-06
4957.0, 1.4148e-06
4959.0, 1.6214e-06
4961.0, 1.851e-06
4963.0, 1.6575e-06
4965.0, 1.773e-06
4967.0, 1.2776e-06
4969.0, 1.6895e-06
4971.0, 1.6655e-06
4973.0, 2.1364e-06
4975.0, 1.6025e-06
4977.0, 1.4014e-06
4979.0, 1.6026e-06
4981.0, 1.7126e-06
4983.0, 2.0598e-06
4985.0, 1.7715e-06
4987.0, 1.5193e-06
4989.0, 1.5251e-06
4991.0, 1.8758e-06
4993.0, 1.7659e-06
4995.0, 1.7277e-06
4997.0, 1.656e-06
4999.0, 1.8038e-06
5001.0, 1.7495e-06
5003.0, 1.4776e-06
5005.0, 1.5511e-06
5007.0, 1.6603e-06
5009.0, 1.3629e-06
5011.0, 1.8883e-06
5013.0, 1.8757e-06
5015.0, 2.1289e-06
5017.0, 1.6034e-06
5019.0, 1.8241e-06
5021.0, 1.7042e-06
5023.0, 1.6157e-06
5025.0, 1.4949e-06
5027.0, 1.8871e-06
5029.0, 1.9862e-06
5031.0, 1.8462e-06
5033.0, 1.3032e-06
5035.0, 1.9081e-06
5037.0, 1.6314e-06
5039.0, 1.6256e-06
5041.0, 1.4468e-06
5043.0, 1.9502e-06
5045.0, 1.6761e-06
5047.0, 1.7745e-06
5049.0, 2.1048e-06
5051.0, 1.6632e-06
5053.0, 1.8625e-06
5055.0, 1.7557e-06
5057.1, 1.7841e-06
5059.1, 1.9509e-06
5061.1, 1.8495e-06
5063.1, 1.3948e-06
5065.1, 1.7867e-06
5067.1, 1.7116e-06
5069.1, 1.4838e-06
5071.1, 1.7462e-06
5073.1, 1.6048e-06
5075.1, 1.4859e-06
5077.1, 1.3037e-06
5079.1, 1.8612e-06
5081.1, 1.3121e-06
5083.1, 1.6033e-06
5085.1, 2.1528e-06
5087.1, 1.5118e-06
5089.1, 1.7697e-06
5091.1, 1.8356e-06
5093.1, 2.2414e-06
5095.1, 1.6476e-06
5097.1, 1.7731e-06
5099.1, 1.2596e-06
5101.1, 1.9049e-06
5103.1, 1.4541e-06
5105.1, 1.6579e-06
5107.1, 1.3655e-06
5109.1, 2.066e-06
5111.1, 8.6735e-07
5113.1, -2.564e-08
5115.1, -2.992e-08
5117.1, -2.839e-08
5119.1, -2.676e-08
5121.1, -3.057e-08
5123.1, -2.833e-08
5125.1, -2.963e-08
5127.1, -3.189e-08
5129.1, -2.956e-08
5131.1, -3.119e-08
5133.1, -3.158e-08
5135.1, -2.762e-08
5137.1, -3.179e-08
5139.1, -3.229e-08
5141.1, -3.361e-08
5143.1, -3.191e-08
5145.1, -3.344e-08
5147.1, -3.397e-08
5149.1, -3.479e-08
5151.1, -3.75e-08
5153.1, -3.544e-08
5155.1, -3.174e-08
5157.2, -3.267e-08
5159.2, -3.193e-08
5161.2, -3.263e-08
5163.2, -3.478e-08
5165.2, -3.624e-08
5167.2, -3.687e-08
5169.2, -3.4e-08
5171.2, -3.239e-08
5173.2, -3.334e-08
5175.2, -3.261e-08
5177.2, -3.464e-08
5179.2, -3.361e-08
5181.2, -3.166e-08
5183.2, -2.825e-08
5185.2, -3.086e-08
5187.2, -3.273e-08
5189.2, -3.463e-08
5191.2, -3.245e-08
5193.2, -3.378e-08
5195.2, -3.428e-08
5197.2, -3.285e-08
5199.2, -3.225e-08
5201.2, -3.147e-08
5203.2, -3.302e-08
5205.2, -3.335e-08
5207.2, -3.196e-08
5209.2, -3.288e-08
5211.2, -3.465e-08
5213.2, -3.474e-08
5215.2, -3.599e-08
5217.2, -3.54e-08
5219.2, -3.471e-08
5221.2, -3.512e-08
5223.2, -3.089e-08
5225.2, -3.231e-08
5227.2, -3.423e-08
5229.2, -3.452e-08
5231.2, -3.409e-08
5233.2, -3.798e-08
5235.2, -3.336e-08
5237.2, -3.281e-08
5239.2, -3.063e-08
5241.2, -2.976e-08
5243.2, -2.857e-08
5245.2, -3.305e-08
5247.2, -3.467e-08
5249.2, -3.196e-08
5251.2, -3.317e-08
5253.2, -3.316e-08
5255.2, -3.492e-08
5257.3, -3.707e-08
5259.3, -3.327e-08
5261.3, -3.086e-08
5263.3, -2.956e-08
5265.3, -3.438e-08
5267.3, -3.301e-08
5269.3, -3.202e-08
5271.3, -3.488e-08
5273.3, -3.108e-08
5275.3, -3.033e-08
5277.3, -3.072e-08
5279.3, -3.42e-08
5281.3, -3.497e-08
5283.3, -3.468e-08
5285.3, -3.63e-08
5287.3, -3.414e-08
5289.3, -3.508e-08
5291.3, -3.39e-08
5293.3, -3.835e-08
5295.3, -3.491e-08
5297.3, -3.475e-08
5299.3, -3.328e-08
5301.3, -3.527e-08
5303.3, -3.362e-08
5305.3, -3.427e-08
5307.3, -3.352e-08
5309.3, -3.677e-08
5311.3, -3.634e-08
5313.3, -3.765e-08
5315.3, -3.368e-08
5317.3, -3.586e-08
5319.3, -3.513e-08
5321.3, -3.446e-08
5323.3, -3.703e-08
5325.3, -3.326e-08
5327.3, -3.788e-08
5329.3, -3.367e-08
5331.3, -3.434e-08
5333.3, -3.406e-08
5335.3, -3.286e-08
5337.3, -3.22e-08
5339.3, -3.525e-08
5341.3, -3.264e-08
5343.3, -3.756e-08
5345.3, -3.692e-08
5347.3, -3.694e-08
5349.3, -3.395e-08
5351.3, -3.302e-08
5353.3, -3.344e-08
5355.3, -3.251e-08
5357.4, -3.391e-08
5359.4, -3.097e-08
5361.4, -3.228e-08
5363.4, -3.176e-08
5365.4, -3.187e-08
5367.4, -3.388e-08
5369.4, -3.344e-08
5371.4, -3.205e-08
5373.4, -3.485e-08
5375.4, -3.405e-08
5377.4, -3.512e-08
5379.4, -3.393e-08
5381.4, -3.398e-08
5383.4, -3.238e-08
5385.4, -3.136e-08
5387.4, -2.913e-08
5389.4, -3.284e-08
5391.4, -3.625e-08
5393.4, -3.043e-08
5395.4, -3.666e-08
5397.4, -3.749e-08
5399.4, -3.228e-08
5401.4, -3.55e-08
5403.4, -3.804e-08
5405.4, -3.643e-08
5407.4, -3.716e-08
5409.4, -3.555e-08
5411.4, -3.844e-08
5413.4, -3.588e-08
5415.4, -3.586e-08
5417.4, -3.789e-08
5419.4, -3.825e-08
5421.4, -3.716e-08
5423.4, -3.712e-08
5425.4, -3.667e-08
5427.4, -3.99e-08
5429.4, -3.856e-08
5431.4, -3.428e-08
5433.4, -3.731e-08
5435.4, -3.833e-08
5437.4, -3.712e-08
5439.4, -4.023e-08
5441.4, -3.805e-08
5443.4, -3.845e-08
5445.4, -4.027e-08
5447.4, -3.604e-08
5449.4, -3.986e-08
5451.4, -4.164e-08
5453.4, -3.898e-08
5455.4, -4.032e-08
5457.5, -4.064e-08
5459.5, -4.294e-08
5461.5, -3.943e-08
5463.5, -3.951e-08
5465.5, -4.113e-08
5467.5, -4.201e-08
5469.5, -3.478e-08
5471.5, -4.031e-08
5473.5, -3.937e-08
5475.5, -4.07e-08
5477.5, -3.892e-08
5479.5, -4.091e-08
5481.5, -3.761e-08
5483.5, -3.587e-08
5485.5, -3.597e-08
5487.5, -3.885e-08
5489.5, -3.313e-08
5491.5, -3.81e-08
5493.5, -3.2e-08
5495.5, -3.319e-08
5497.5, -3.116e-08
5499.5, -3.226e-08
5501.5, -3.198e-08
5503.5, -3.188e-08
5505.5, -3.444e-08
5507.5, -3.164e-08
5509.5, -3.103e-08
5511.5, -3.363e-08
5513.5, -3.066e-08
5515.5, -3.278e-08
5517.5, -3.072e-08
5519.5, -2.998e-08
5521.5, -3.133e-08
5523.5, -3.051e-08
5525.5, -3.427e-08
5527.5, -3.091e-08
5529.5, -3.088e-08
5531.5, -3.402e-08
5533.5, -3.621e-08
5535.5, -3.302e-08
5537.5, -3.049e-08
5539.5, -3.226e-08
5541.5, -3.138e-08
5543.5, -3.027e-08
5545.5, -3.348e-08
5547.5, -3.351e-08
5549.5, -3.045e-08
5551.5, -3.219e-08
5553.5, -3.37e-08
5555.5, -3.286e-08
5557.6, -3.363e-08
5559.6, -3.407e-08
5561.6, -3.424e-08
5563.6, -3.386e-08
5565.6, -3.281e-08
5567.6, -2.9e-08
5569.6, -3.177e-08
5571.6, -3.398e-08
5573.6, -3.427e-08
5575.6, -3.499e-08
5577.6, -3.349e-08
5579.6, -3.442e-08
5581.6, -3.407e-08
5583.6, -3.607e-08
5585.6, -3.657e-08
5587.6, -3.872e-08
5589.6, -4.078e-08
5591.6, -3.669e-08
5593.6, -3.504e-08
5595.6, -3.388e-08
5597.6, -3.641e-08
5599.6, -3.249e-08
5601.6, -3.648e-08
5603.6, -3.465e-08
5605.6, -3.853e-08
5607.6, -3.474e-08
5609.6, -3.614e-08
5611.6, -3.676e-08
5613.6, -3.577e-08
5615.6, -3.523e-08
5617.6, -3.186e-08
5619.6, -3.444e-08
5621.6, -3.291e-08
5623.6, -3.497e-08
5625.6, -3.598e-08
5627.6, -3.577e-08
5629.6, -3.555e-08
5631.6, -3.24e-08
5633.6, -3.598e-08
5635.6, -3.675e-08
5637.6, -3.918e-08
5639.6, -3.832e-08
5641.6, -3.753e-08
5643.6, -3.373e-08
5645.6, -3.599e-08
5647.6, -3.239e-08
5649.6, -3.486e-08
5651.6, -3.694e-08
5653.6, -3.385e-08
5655.6, -3.663e-08
5657.7, -3.472e-08
5659.7, -3.461e-08
5661.7, -3.378e-08
5663.7, -3.177e-08
5665.7, -3.066e-08
5667.7, -3.549e-08
5669.7, -3.683e-08
5671.7, -3.656e-08
5673.7, -3.48e-08
5675.7, -3.683e-08
5677.7, -3.464e-08
5679.7, -3.707e-08
5681.7, -3.399e-08
5683.7, -3.538e-08
5685.7, -3.528e-08
5687.7, -3.747e-08
5689.7, -3.659e-08
5691.7, -3.726e-08
5693.7, -3.571e-08
5695.7, -3.149e-08
5697.7, -3.237e-08
5699.7, -3.437e-08
5701.7, -3.271e-08
5703.7, -3.202e-08
5705.7, -3.205e-08
5707.7, -3.562e-08
5709.7, -3.369e-08
5711.7, -3.411e-08
5713.7, -3.135e-08
5715.7, -3.61e-08
5717.7, -3.85e-08
5719.7, -3.513e-08
5721.7, -3.464e-08
5723.7, -3.869e-08
5725.7, -3.281e-08
5727.7, -3.718e-08
5729.7, -3.54e-08
5731.7, -3.545e-08
5733.7, -3.253e-08
5735.7, -3.184e-08
5737.7, -3.123e-08
5739.7, -3.119e-08
5741.7, -3.444e-08
5743.7, -3.332e-08
5745.7, -3.451e-08
5747.7, -3.33e-08
5749.7, -3.54e-08
5751.7, -3.304e-08
5753.7, -2.959e-08
5755.7, -3.252e-08
5757.8, -3.658e-08
5759.8, -3.389e-08
5761.8, -3.394e-08
5763.8, -3.381e-08
5765.8, -3.27e-08
5767.8, -3.268e-08
5769.8, -3.29e-08
5771.8, -3.695e-08
5773.8, -3.162e-08
5775.8, -3.684e-08
5777.8, -3.669e-08
5779.8, -3.602e-08
5781.8, -3.273e-08
5783.8, -3.242e-08
5785.8, -3.536e-08
5787.8, -2.974e-08
5789.8, -3.435e-08
5791.8, -3.59e-08
5793.8, -3.317e-08
5795.8, -3.76e-08
5797.8, -3.722e-08
5799.8, -3.395e-08
5801.8, -3.088e-08
5803.8, -3.14e-08
5805.8, -3.264e-08
5807.8, -3.61e-08
5809.8, -3.373e-08
5811.8, -3.28e-08
5813.8, -3.594e-08
5815.8, -3e-08
5817.8, -3.519e-08
5819.8, -3.041e-08
5821.8, -3.367e-08
5823.8, -3.408e-08
5825.8, -3.749e-08
5827.8, -3.364e-08
5829.8, -3.444e-08
5831.8, -3.63e-08
5833.8, -3.367e-08
5835.8, -3.036e-08
5837.8, -3.263e-08
5839.8, -3.023e-08
5841.8, -3.254e-08
5843.8, -2.847e-08
5845.8, -3.377e-08
5847.8, -3.545e-08
5849.8, -3.496e-08
5851.8, -3.706e-08
5853.8, -2.848e-08
5855.8, -3.421e-08
5857.9, -3.419e-08
5859.9, -3.513e-08
5861.9, -3.425e-08
5863.9, -3.35e-08
5865.9, -3.619e-08
5867.9, -3.492e-08
5869.9, -3.821e-08
5871.9, -4.135e-08
5873.9, -3.909e-08
5875.9, -3.887e-08
5877.9, -3.943e-08
5879.9, -4.022e-08
5881.9, -3.646e-08
5883.9, -3.92e-08
5885.9, -3.424e-08
5887.9, -3.728e-08
5889.9, -3.314e-08
5891.9, -3.437e-08
5893.9, -3.249e-08
5895.9, -3.66e-08
5897.9, -3.658e-08
5899.9, -3.869e-08
5901.9, -3.885e-08
5903.9, -4.098e-08
5905.9, -4.46e-08
5907.9, -4.169e-08
5909.9, -3.969e-08
5911.9, -3.548e-08
5913.9, -3.872e-08
5915.9, -4.01e-08
5917.9, -3.975e-08
5919.9, -3.935e-08
5921.9, -4e-08
5923.9, -3.809e-08
5925.9, -3.646e-08
5927.9, -3.804e-08
5929.9, -3.996e-08
5931.9, -3.958e-08
5933.9, -3.851e-08
5935.9, -3.425e-08
5937.9, -3.578e-08
5939.9, -3.225e-08
5941.9, -3.489e-08
5943.9, -3.873e-08
5945.9, -4.127e-08
5947.9, -3.702e-08
5949.9, -3.627e-08
5951.9, -3.944e-08
5953.9, -3.888e-08
5955.9, -3.716e-08
5958.0, -3.807e-08
5960.0, -3.866e-08
5962.0, -3.478e-08
5964.0, -4.192e-08
5966.0, -3.977e-08
5968.0, -3.877e-08
5970.0, -3.782e-08
5972.0, -3.86e-08
5974.0, -3.741e-08
5976.0, -4.001e-08
5978.0, -4.041e-08
5980.0, -4.147e-08
5982.0, -3.737e-08
5984.0, -3.631e-08
5986.0, -3.307e-08
5988.0, -3.362e-08
5990.0, -3.33e-08
5992.0, -3.478e-08
5994.0, -3.521e-08
5996.0, -3.475e-08
5998.0, -3.567e-08
6000.0, -3.455e-08
6002.0, -3.664e-08
6004.0, -3.615e-08
6006.0, -3.244e-08
6008.0, -3.732e-08
6010.0, -3.668e-08
6012.0, -3.392e-08
6014.0, -3.122e-08
6016.0, -3.421e-08
6018.0, -3.437e-08
6020.0, -3.257e-08
6022.0, -4.01e-08
6024.0, -3.332e-08
6026.0, -3.627e-08
6028.0, -3.719e-08
6030.0, -3.687e-08
6032.0, -3.629e-08
6034.0, -3.808e-08
6036.0, -3.806e-08
6038.0, -3.782e-08
6040.0, -3.525e-08
6042.0, -3.734e-08
6044.0, -3.504e-08
6046.0, -3.506e-08
6048.0, -3.598e-08
6050.0, -3.587e-08
6052.0, -3.266e-08
6054.0, -3.459e-08
6056.0, -3.922e-08
6058.1, -3.88e-08
6060.1, -3.835e-08
6062.1, -3.605e-08
6064.1, -3.772e-08
6066.1, -3.89e-08
6068.1, -4.031e-08
6070.1, -4.086e-08
6072.1, -4.428e-08
6074.1, -3.883e-08
6076.1, -3.905e-08
6078.1, -3.883e-08
6080.1, -4.072e-08
6082.1, -4.081e-08
6084.1, -3.392e-08
6086.1, -3.515e-08
6088.1, -3.75e-08
6090.1, -3.816e-08
6092.1, -4.146e-08
6094.1, -3.994e-08
6096.1, -4.122e-08
6098.1, -4.123e-08
6100.1, -4.192e-08
6102.1, -4.041e-08
6104.1, -3.686e-08
6106.1, -3.559e-08
6108.1, -3.68e-08
6110.1, -3.683e-08
6112.1, -3.548e-08
6114.1, -3.796e-08
6116.1, -3.615e-08
6118.1, -4.056e-08
6120.1, -3.864e-08
6122.1, -3.498e-08
6124.1, -4.253e-08
6126.1, -3.759e-08
6128.1, -3.965e-08
6130.1, -3.991e-08
6132.1, -3.642e-08
6134.1, -3.591e-08
6136.1, -3.704e-08
6138.1, -3.771e-08
6140.1, -4.013e-08
6142.1, -3.808e-08
6144.1, -4.079e-08
6146.1, -3.779e-08
6148.1, -4.141e-08
6150.1, -4.101e-08
6152.1, -4.172e-08
6154.1, -3.854e-08
6156.1, -3.919e-08
6158.2, -3.838e-08
6160.2, -3.75e-08
6162.2, -3.786e-08
6164.2, -3.694e-08
6166.2, -4.425e-08
6168.2, -4.11e-08
6170.2, -4.16e-08
6172.2, -3.923e-08
6174.2, -3.913e-08
6176.2, -4.13e-08
6178.2, -4.021e-08
6180.2, -4.346e-08
6182.2, -3.778e-08
6184.2, -4.173e-08
6186.2, -4.184e-08
6188.2, -4.048e-08
6190.2, -4.196e-08
6192.2, -4.054e-08
6194.2, -4.264e-08
6196.2, -4.116e-08
6198.2, -4.272e-08
6200.2, -4.773e-08
6202.2, -4.019e-08
6204.2, -4.052e-08
6206.2, 6.7144e-07
6208.2, 1.1916e-06
6210.2, 1.2915e-06
6212.2, 1.4358e-06
6214.2, 1.2276e-06
6216.2, 1.2387e-06
6218.2, 6.9514e-07
6220.2, 1.568e-06
6222.2, 1.3211e-06
6224.2, 1.3176e-06
6226.2, 1.1652e-06
6228.2, 1.5673e-06
6230.2, 1.1053e-06
6232.2, 1.0701e-06
6234.2, 1.3243e-06
6236.2, 1.3194e-06
6238.2, 1.3292e-06
6240.2, 1.1716e-06
6242.2, 1.1576e-06
6244.2, 1.4695e-06
6246.2, 1.1368e-06
6248.2, 1.5571e-06
6250.2, 1.4884e-06
6252.2, 1.2288e-06
6254.2, 1.3877e-06
6256.2, 1.4259e-06
6258.3, 1.2794e-06
6260.3, 1.3936e-06
6262.3, 1.5718e-06
6264.3, 1.3086e-06
6266.3, 9.0268e-07
6268.3, 1.2762e-06
6270.3, 1.8062e-06
6272.3, 1.4463e-06
6274.3, 9.9781e-07
6276.3, 1.388e-06
6278.3, 1.4615e-06
6280.3, 1.359e-06
6282.3, 1.2951e-06
6284.3, 1.5373e-06
6286.3, 1.2819e-06
6288.3, 1.1485e-06
6290.3, 1.399e-06
6292.3, 1.4687e-06
6294.3, 1.5098e-06
6296.3, 1.2328e-06
6298.3, 1.6772e-06
6300.3, 1.2273e-06
6302.3, 1.7573e-06
6304.3, 1.6894e-06
6306.3, 9.6214e-07
6308.3, 1.2956e-06
6310.3, 1.8441e-06
6312.3, 1.3628e-06
6314.3, 1.4525e-06
6316.3, 1.5551e-06
6318.3, 1.5495e-06
6320.3, 1.9905e-06
6322.3, 1.4778e-06
6324.3, 1.4137e-06
6326.3, 1.5461e-06
6328.3, 1.4632e-06
6330.3, 1.4925e-06
6332.3, 1.3343e-06
6334.3, 1.8963e-06
6336.3, 1.4514e-06
6338.3, 1.4632e-06
6340.3, 1.379e-06
6342.3, 1.214e-06
6344.3, 1.3171e-06
6346.3, 1.7076e-06
6348.3, 1.2911e-06
6350.3, 1.733e-06
6352.3, 1.7436e-06
6354.3, 1.3918e-06
6356.3, 1.214e-06
6358.4, 1.0999e-06
6360.4, 1.2912e-06
6362.4, 1.7078e-06
6364.4, 1.7438e-06
6366.4, 1.3829e-06
6368.4, 1.3045e-06
6370.4, 1.3346e-06
6372.4, 1.3171e-06
6374.4, 1.5391e-06
6376.4, 1.6152e-06
6378.4, 1.2125e-06
6380.4, 1.1991e-06
6382.4, 1.5656e-06
6384.4, 1.2594e-06
6386.4, 1.5794e-06
6388.4, 1.4047e-06
6390.4, 1.345e-06
6392.4, 1.4609e-06
6394.4, 1.5976e-06
6396.4, 1.4203e-06
6398.4, 1.5744e-06
6400.4, 1.6064e-06
6402.4, 1.253e-06
6404.4, 1.6918e-06
6406.4, 1.636e-06
6408.4, 1.5896e-06
6410.4, 1.3568e-06
6412.4, 1.5181e-06
6414.4, 1.4937e-06
6416.4, 1.5684e-06
6418.4, 1.7443e-06
6420.4, 1.1419e-06
6422.4, 1.5641e-06
6424.4, 1.7619e-06
6426.4, 1.6047e-06
6428.4, 1.5957e-06
6430.4, 1.5069e-06
6432.4, 1.288e-06
6434.4, 1.424e-06
6436.4, 1.9192e-06
6438.4, 1.5999e-06
6440.4, 1.5369e-06
6442.4, 1.6933e-06
6444.4, 2.0085e-06
6446.4, 1.3822e-06
6448.4, 1.3964e-06
6450.4, 1.6281e-06
6452.4, 1.3783e-06
6454.4, 1.7442e-06
6456.4, 1.7747e-06
6458.5, 1.6569e-06
6460.5, 1.7631e-06
6462.5, 1.8603e-06
6464.5, 1.5805e-06
6466.5, 1.5577e-06
6468.5, 1.5395e-06
6470.5, 1.211e-06
6472.5, 1.8353e-06
6474.5, 1.5513e-06
6476.5, 1.5274e-06
6478.5, 1.5053e-06
6480.5, 1.5373e-06
6482.5, 1.422e-06
6484.5, 1.636e-06
6486.5, 1.4909e-06
6488.5, 1.6607e-06
6490.5, 1.3274e-06
6492.5, 1.8364e-06
6494.5, 1.3248e-06
6496.5, 1.5924e-06
6498.5, 1.4276e-06
6500.5, 1.5661e-06
6502.5, 1.3806e-06
6504.5, 1.5922e-06
6506.5, 1.5832e-06
6508.5, 1.4288e-06
6510.5, 1.5558e-06
6512.5, 1.3593e-06
6514.5, 1.4839e-06
6516.5, 1.1012e-06
6518.5, 1.7254e-06
6520.5, 1.4983e-06
6522.5, 1.3157e-06
6524.5, 1.6408e-06
6526.5, 1.6975e-06
6528.5, 1.6045e-06
6530.5, 2.1333e-06
6532.5, 1.3326e-06
6534.5, 1.7241e-06
6536.5, 1.9359e-06
6538.5, 2.0955e-06
6540.5, 1.8416e-06
6542.5, 1.8196e-06
6544.5, 1.6958e-06
6546.5, 1.7908e-06
6548.5, 1.6636e-06
6550.5, 1.3661e-06
6552.5, 1.442e-06
6554.5, 1.7465e-06
6556.5, 1.5913e-06
6558.6, 1.3704e-06
6560.6, 1.584e-06
6562.6, 1.6516e-06
6564.6, 1.6418e-06
6566.6, 1.4514e-06
6568.6, 1.4421e-06
6570.6, 1.6523e-06
6572.6, 1.7342e-06
6574.6, 1.5658e-06
6576.6, 1.5572e-06
6578.6, 1.7195e-06
6580.6, 1.4272e-06
6582.6, 1.706e-06
6584.6, 1.3658e-06
6586.6, 1.6776e-06
6588.6, 1.7173e-06
6590.6, 2.088e-06
6592.6, 1.5537e-06
6594.6, 1.4111e-06
6596.6, 1.6677e-06
6598.6, 1.8743e-06
6600.6, 1.6596e-06
6602.6, 1.5495e-06
6604.6, 1.8757e-06
6606.6, 1.8225e-06
6608.6, 1.5432e-06
6610.6, 1.5398e-06
6612.6, 1.8335e-06
6614.6, 1.4869e-06
6616.6, 1.7473e-06
6618.6, 1.5808e-06
6620.6, 1.5599e-06
6622.6, 1.2644e-06
6624.6, 1.6471e-06
6626.6, 1.4003e-06
6628.6, 1.5455e-06
6630.6, 1.338e-06
6632.6, 1.6402e-06
6634.6, 1.4911e-06
6636.6, 1.7206e-06
6638.6, 1.8398e-06
6640.6, 1.3424e-06
6642.6, 1.4338e-06
6644.6, 1.4628e-06
6646.6, 1.6035e-06
6648.6, 1.8164e-06
6650.6, 1.5574e-06
6652.6, 1.7325e-06
6654.6, 1.5324e-06
6656.6, 1.2937e-06
6658.7, 1.7099e-06
6660.7, 1.4973e-06
6662.7, 1.9426e-06
6664.7, 1.3686e-06
6666.7, 1.3859e-06
6668.7, 1.3642e-06
6670.7, 1.5554e-06
6672.7, 1.424e-06
6674.7, 1.477e-06
6676.7, 1.6753e-06
6678.7, 1.4836e-06
6680.7, 1.6431e-06
6682.7, 1.5204e-06
6684.7, 1.8219e-06
6686.7, 1.4563e-06
6688.7, 1.6527e-06
6690.7, 1.6631e-06
6692.7, 1.9042e-06
6694.7, 1.5435e-06
6696.7, 1.4711e-06
6698.7, 1.6725e-06
6700.7, 1.5802e-06
6702.7, 1.2882e-06
6704.7, 1.4593e-06
6706.7, 2.0048e-06
6708.7, 1.9871e-06
6710.7, 1.8002e-06
6712.7, 1.5825e-06
6714.7, 1.6201e-06
6716.7, 1.598e-06
6718.7, 1.7207e-06
6720.7, 1.5873e-06
6722.7, 1.6729e-06
6724.7, 1.7387e-06
6726.7, 1.4402e-06
6728.7, 2.2553e-06
6730.7, 1.6434e-06
6732.7, 1.6321e-06
6734.7, 1.8161e-06
6736.7, 1.9451e-06
6738.7, 1.5906e-06
6740.7, 1.5074e-06
6742.7, 2.0275e-06
6744.7, 1.6339e-06
6746.7, 1.5893e-06
6748.7, 1.8143e-06
6750.7, 1.6641e-06
6752.7, 1.6486e-06
6754.7, 1.5247e-06
6756.7, 1.4833e-06
6758.8, 1.6382e-06
6760.8, 1.3261e-06
6762.8, 1.8241e-06
6764.8, 1.6398e-06
6766.8, 1.4121e-06
6768.8, 1.8414e-06
6770.8, 1.9972e-06
6772.8, 1.5113e-06
6774.8, 1.4775e-06
6776.8, 1.5443e-06
6778.8, 2.0063e-06
6780.8, 1.6416e-06
6782.8, 1.576e-06
6784.8, 1.672e-06
6786.8, 1.5105e-06
6788.8, 1.5422e-06
6790.8, 1.6132e-06
6792.8, 1.4634e-06
6794.8, 1.992e-06
6796.8, 1.5423e-06
6798.8, 1.7206e-06
6800.8, 1.7931e-06
6802.8, 1.5186e-06
6804.8, 1.8744e-06
6806.8, 1.3524e-06
6808.8, 1.4714e-06
6810.8, 1.4601e-06
6812.8, 1.4561e-06
6814.8, 1.8145e-06
6816.8, 1.6477e-06
6818.8, 2.0776e-06
6820.8, 1.6574e-06
6822.8, 1.4404e-06
6824.8, 1.9018e-06
6826.8, 1.5972e-06
6828.8, 1.5322e-06
6830.8, 1.5326e-06
6832.8, 1.9002e-06
6834.8, 1.6397e-06
6836.8, 1.3917e-06
6838.8, 1.2705e-06
6840.8, 1.5012e-06
6842.8, 1.6813e-06
6844.8, 1.448e-06
6846.8, 1.5697e-06
6848.8, 1.8902e-06
6850.8, 1.7991e-06
6852.8, 1.5296e-06
6854.8, 1.4399e-06
6856.8, 1.4573e-06
6858.9, 1.8267e-06
6860.9, 1.9329e-06
6862.9, 1.5744e-06
6864.9, 1.6196e-06
6866.9, 1.3682e-06
6868.9, 1.9747e-06
6870.9, 1.6197e-06
6872.9, 1.5653e-06
6874.9, 1.567e-06
6876.9, 1.7493e-06
6878.9, 1.7723e-06
6880.9, 1.725e-06
6882.9, 1.6411e-06
6884.9, 1.9769e-06
6886.9, 1.4537e-06
6888.9, 1.8085e-06
6890.9, 1.5171e-06
6892.9, 1.4054e-06
6894.9, 2.0779e-06
6896.9, 1.4954e-06
6898.9, 1.6648e-06
6900.9, 2.0983e-06
6902.9, 1.7383e-06
6904.9, 1.4017e-06
6906.9, 1.7424e-06
6908.9, 1.6711e-06
6910.9, 1.7246e-06
6912.9, 1.4544e-06
6914.9, 1.8206e-06
6916.9, 1.6213e-06
6918.9, 1.9174e-06
6920.9, 1.4702e-06
6922.9, 1.8784e-06
6924.9, 1.682e-06
6926.9, 1.7164e-06
6928.9, 1.5051e-06
6930.9, 1.3643e-06
6932.9, 1.4677e-06
6934.9, 1.4327e-06
6936.9, 1.7525e-06
6938.9, 1.832e-06
6940.9, 1.6133e-06
6942.9, 1.4976e-06
6944.9, 1.509e-06
6946.9, 1.3891e-06
6948.9, 1.5571e-06
6950.9, 1.4057e-06
6952.9, 1.4924e-06
6954.9, 1.737e-06
6956.9, 1.4292e-06
6959.0, 1.4233e-06
6961.0, 1.4612e-06
6963.0, 1.7566e-06
6965.0, 1.7886e-06
6967.0, 1.5611e-06
6969.0, 1.7891e-06
6971.0, 1.7748e-06
6973.0, 1.7461e-06
6975.0, 1.7544e-06
6977.0, 1.9233e-06
6979.0, 1.6908e-06
6981.0, 1.4304e-06
6983.0, 1.8157e-06
6985.0, 1.497e-06
6987.0, 1.5701e-06
6989.0, 1.8841e-06
6991.0, 1.5005e-06
6993.0, 1.509e-06
6995.0, 1.6337e-06
6997.0, 2.036e-06
6999.0, 1.757e-06
7001.0, 1.505e-06
7003.0, 1.514e-06
7005.0, 1.6726e-06
7007.0, 1.9925e-06
7009.0, 1.6843e-06
7011.0, 1.5774e-06
7013.0, 1.5861e-06
7015.0, 1.6783e-06
7017.0, 1.6351e-06
7019.0, 1.6994e-06
7021.0, 1.6755e-06
7023.0, 1.3317e-06
7025.0, 2.0973e-06
7027.0, 1.61e-06
7029.0, 1.8559e-06
7031.0, 1.6812e-06
7033.0, 1.7077e-06
7035.0, 1.4822e-06
7037.0, 1.4104e-06
7039.0, 1.7686e-06
7041.0, 1.8042e-06
7043.0, 1.8626e-06
7045.0, 1.6813e-06
7047.0, 1.3796e-06
7049.0, 1.8905e-06
7051.0, 1.5658e-06
7053.0, 1.9505e-06
7055.0, 1.5195e-06
7057.0, 1.6173e-06
7059.1, 1.4505e-06
7061.1, 1.681e-06
7063.1, 1.8011e-06
7065.1, 1.6927e-06
7067.1, 1.7907e-06
7069.1, 1.9966e-06
7071.1, 1.6936e-06
7073.1, 2.0024e-06
7075.1, 1.8646e-06
7077.1, 1.4525e-06
7079.1, 1.603e-06
7081.1, 1.6659e-06
7083.1, 1.8133e-06
7085.1, 1.7939e-06
7087.1, 1.8903e-06
7089.1, 1.6946e-06
7091.1, 1.888e-06
7093.1, 1.9565e-06
7095.1, 1.5192e-06
7097.1, 1.6487e-06
7099.1, 2.0477e-06
7101.1, 1.7011e-06
7103.1, 1.7917e-06
7105.1, 1.6428e-06
7107.1, 2.0559e-06
7109.1, 1.6698e-06
7111.1, 1.6271e-06
7113.1, 1.371e-06
7115.1, 2.0244e-06
7117.1, 1.3661e-06
7119.1, 1.8703e-06
7121.1, 1.7691e-06
7123.1, 1.407e-06
7125.1, 1.6732e-06
7127.1, 1.6273e-06
7129.1, 2.0068e-06
7131.1, 2.1663e-06
7133.1, 1.8246e-06
7135.1, 1.9514e-06
7137.1, 1.925e-06
7139.1, 1.9643e-06
7141.1, 1.8893e-06
7143.1, 1.4992e-06
7145.1, 1.6112e-06
7147.1, 1.6108e-06
7149.1, 1.7913e-06
7151.1, 1.4853e-06
7153.1, 1.5608e-06
7155.1, 1.2989e-06
7157.1, 1.8395e-06
7159.2, 1.5537e-06
7161.2, 1.4934e-06
7163.2, 1.8823e-06
7165.2, 1.7815e-06
7167.2, 1.8295e-06
7169.2, 1.4184e-06
7171.2, 1.7132e-06
7173.2, 1.8699e-06
7175.2, 1.9809e-06
7177.2, 1.5141e-06
7179.2, 1.5587e-06
7181.2, 1.7548e-06
7183.2, 1.7294e-06
7185.2, 1.2695e-06
7187.2, 1.548e-06
7189.2, 1.9534e-06
7191.2, 1.6626e-06
7193.2, 1.7778e-06
7195.2, 1.8848e-06
7197.2, 1.7639e-06
7199.2, 1.7671e-06
7201.2, 1.2386e-06
7203.2, 1.6541e-06
7205.2, 1.768e-06
7207.2, 8.7354e-07
7209.2, -3.424e-08
7211.2, -3.779e-08
7213.2, -3.915e-08
7215.2, -3.266e-08
7217.2, -3.536e-08
7219.2, -3.498e-08
7221.2, -3.444e-08
7223.2, -3.399e-08
7225.2, -3.25e-08
7227.2, -3.661e-08
7229.2, -3.692e-08
7231.2, -3.875e-08
7233.2, -3.654e-08
7235.2, -3.909e-08
7237.2, -3.761e-08
7239.2, -4.025e-08
7241.2, -3.532e-08
7243.2, -3.349e-08
7245.2, -3.407e-08
7247.2, -3.517e-08
7249.2, -3.459e-08
7251.2, -3.761e-08
7253.2, -3.315e-08
7255.2, -3.788e-08
7257.2, -3.801e-08
7259.3, -3.735e-08
7261.3, -3.707e-08
7263.3, -3.702e-08
7265.3, -3.904e-08
7267.3, -4.032e-08
7269.3, -3.791e-08
7271.3, -4.063e-08
7273.3, -3.752e-08
7275.3, -3.797e-08
7277.3, -3.789e-08
7279.3, -4.103e-08
7281.3, -4.422e-08
7283.3, -3.983e-08
7285.3, -3.792e-08
7287.3, -4.106e-08
7289.3, -4.348e-08
7291.3, -3.994e-08
7293.3, -3.978e-08
7295.3, -3.81e-08
7297.3, -3.966e-08
7299.3, -4.028e-08
7301.3, -3.677e-08
7303.3, -3.859e-08
7305.3, -3.761e-08
7307.3, -3.63e-08
7309.3, -4.248e-08
7311.3, -3.891e-08
7313.3, -3.46e-08
7315.3, -3.897e-08
7317.3, -3.973e-08
7319.3, -3.861e-08
7321.3, -3.713e-08
7323.3, -3.917e-08
7325.3, -4.031e-08
7327.3, -4.118e-08
7329.3, -4.174e-08
7331.3, -3.964e-08
7333.3, -3.951e-08
7335.3, -3.913e-08
7337.3, -4.06e-08
7339.3, -4.314e-08
7341.3, -4.332e-08
7343.3, -3.912e-08
7345.3, -3.725e-08
7347.3, -4.05e-08
7349.3, -3.89e-08
7351.3, -4.344e-08
7353.3, -4.235e-08
7355.3, -4.185e-08
7357.3, -4.25e-08
7359.4, -4.343e-08
7361.4, -3.833e-08
7363.4, -4.14e-08
7365.4, -3.859e-08
7367.4, -4.155e-08
7369.4, -3.897e-08
7371.4, -3.898e-08
7373.4, -3.621e-08
7375.4, -3.887e-08
7377.4, -3.658e-08
7379.4, -4.098e-08
7381.4, -3.959e-08
7383.4, -3.868e-08
7385.4, -4.046e-08
7387.4, -3.692e-08
7389.4, -3.756e-08
7391.4, -3.912e-08
7393.4, -3.676e-08
7395.4, -3.967e-08
7397.4, -3.809e-08
7399.4, -3.99e-08
7401.4, -3.666e-08
7403.4, -4.212e-08
7405.4, -3.944e-08
7407.4, -4.092e-08
7409.4, -3.66e-08
7411.4, -3.933e-08
7413.4, -4.046e-08
7415.4, -3.992e-08
7417.4, -4.105e-08
7419.4, -4.107e-08
7421.4, -4.083e-08
7423.4, -3.977e-08
7425.4, -3.782e-08
7427.4, -3.738e-08
7429.4, -3.366e-08
7431.4, -3.409e-08
7433.4, -3.617e-08
7435.4, -3.7e-08
7437.4, -3.553e-08
7439.4, -3.381e-08
7441.4, -3.675e-08
7443.4, -3.589e-08
7445.4, -3.634e-08
7447.4, -3.633e-08
7449.4, -3.682e-08
7451.4, -3.567e-08
7453.4, -3.857e-08
7455.4, -3.933e-08
7457.4, -3.401e-08
7459.5, -3.384e-08
7461.5, -3.848e-08
7463.5, -3.924e-08
7465.5, -4.033e-08
7467.5, -3.905e-08
7469.5, -4.284e-08
7471.5, -4.294e-08
7473.5, -4.148e-08
7475.5, -4.195e-08
7477.5, -4.465e-08
7479.5, -3.849e-08
7481.5, -3.862e-08
7483.5, -3.532e-08
7485.5, -3.903e-08
7487.5, -3.743e-08
7489.5, -4.043e-08
7491.5, -4.108e-08
7493.5, -3.662e-08
7495.5, -3.758e-08
7497.5, -3.701e-08
7499.5, -3.724e-08
7501.5, -3.828e-08
7503.5, -3.663e-08
7505.5, -3.868e-08
7507.5, -3.93e-08
7509.5, -3.604e-08
7511.5, -4.016e-08
7513.5, -3.776e-08
7515.5, -3.415e-08
7517.5, -3.59e-08
7519.5, -3.682e-08
7521.5, -3.429e-08
7523.5, -3.465e-08
7525.5, -3.819e-08
7527.5, -3.695e-08
7529.5, -3.664e-08
7531.5, -3.592e-08
7533.5, -3.497e-08
7535.5, -3.862e-08
7537.5, -3.561e-08
7539.5, -3.612e-08
7541.5, -3.278e-08
7543.5, -3.421e-08
7545.5, -3.759e-08
7547.5, -3.364e-08
7549.5, -3.446e-08
7551.5, -3.603e-08
7553.5, -3.512e-08
7555.5, -3.299e-08
7557.5, -3.435e-08
7559.6, -3.658e-08
7561.6, -3.312e-08
7563.6, -3.289e-08
7565.6, -3.444e-08
7567.6, -4.003e-08
7569.6, -3.498e-08
7571.6, -3.571e-08
7573.6, -3.672e-08
7575.6, -3.768e-08
7577.6, -4.009e-08
7579.6, -3.405e-08
7581.6, -3.595e-08
7583.6, -3.486e-08
7585.6, -3.516e-08
7587.6, -3.452e-08
7589.6, -3.802e-08
7591.6, -3.711e-08
7593.6, -3.357e-08
7595.6, -4.08e-08
7597.6, -3.968e-08
7599.6, -3.784e-08
7601.6, -3.824e-08
7603.6, -3.478e-08
7605.6, -3.795e-08
7607.6, -3.567e-08
7609.6, -4.016e-08
7611.6, -3.774e-08
7613.6, -3.815e-08
7615.6, -3.502e-08
7617.6, -3.888e-08
7619.6, -3.946e-08
7621.6, -3.885e-08
7623.6, -3.824e-08
7625.6, -3.885e-08
7627.6, -4.163e-08
7629.6, -4.303e-08
7631.6, -4.005e-08
7633.6, -3.795e-08
7635.6, -3.553e-08
7637.6, -3.697e-08
7639.6, -4.095e-08
7641.6, -3.726e-08
7643.6, -3.871e-08
7645.6, -3.796e-08
7647.6, -4.257e-08
7649.6, -4.127e-08
7651.6, -4.109e-08
7653.6, -3.825e-08
7655.6, -4.01e-08
7657.6, -3.73e-08
7659.7, -4.02e-08
7661.7, -3.885e-08
7663.7, -3.926e-08
7665.7, -4.122e-08
7667.7, -4.369e-08
7669.7, -4.288e-08
7671.7, -3.966e-08
7673.7, -3.942e-08
7675.7, -3.809e-08
7677.7, -3.798e-08
7679.7, -3.943e-08
7681.7, -3.566e-08
7683.7, -3.946e-08
7685.7, -3.941e-08
7687.7, -3.823e-08
7689.7, -3.672e-08
7691.7, -3.465e-08
7693.7, -3.351e-08
7695.7, -3.375e-08
7697.7, -3.341e-08
7699.7, -3.407e-08
7701.7, -3.311e-08
7703.7, -3.779e-08
7705.7, -3.502e-08
7707.7, -3.289e-08
7709.7, -3.91e-08
7711.7, -3.668e-08
7713.7, -3.695e-08
7715.7, -3.574e-08
7717.7, -3.478e-08
7719.7, -3.688e-08
7721.7, -4.1e-08
7723.7, -3.476e-08
7725.7, -4.215e-08
7727.7, -4.09e-08
7729.7, -3.999e-08
7731.7, -3.954e-08
7733.7, -3.634e-08
7735.7, -3.312e-08
7737.7, -3.4e-08
7739.7, -3.079e-08
7741.7, -3.185e-08
7743.7, -3.529e-08
7745.7, -3.339e-08
7747.7, -3.132e-08
7749.7, -3.415e-08
7751.7, -3.338e-08
7753.7, -3.612e-08
7755.7, -3.519e-08
7757.7, -3.878e-08
7759.8, -3.906e-08
7761.8, -3.668e-08
7763.8, -3.404e-08
7765.8, -3.854e-08
7767.8, -3.588e-08
7769.8, -3.928e-08
7771.8, -4.064e-08
7773.8, -4.012e-08
7775.8, -3.487e-08
7777.8, -3.458e-08
7779.8, -3.423e-08
7781.8, -3.417e-08
7783.8, -3.38e-08
7785.8, -4.059e-08
7787.8, -4.128e-08
7789.8, -4.072e-08
7791.8, -3.707e-08
7793.8, -3.789e-08
7795.8, -3.82e-08
7797.8, -4.089e-08
7799.8, -4.044e-08
7801.8, -4.003e-08
7803.8, -3.976e-08
7805.8, -4.26e-08
7807.8, -4.139e-08
7809.8, -4.31e-08
7811.8, -4.005e-08
7813.8, -3.962e-08
7815.8, -4.043e-08
7817.8, -4.019e-08
7819.8, -3.97e-08
7821.8, -4.17e-08
7823.8, -3.82e-08
7825.8, -3.797e-08
7827.8, -3.98e-08
7829.8, -4.116e-08
7831.8, -3.83e-08
7833.8, -3.727e-08
7835.8, -4.128e-08
7837.8, -4.087e-08
7839.8, -4.17e-08
7841.8, -4.273e-08
7843.8, -4.209e-08
7845.8, -3.54e-08
7847.8, -3.702e-08
7849.8, -4.004e-08
7851.8, -3.806e-08
7853.8, -3.756e-08
7855.8, -3.59e-08
7857.8, -3.863e-08
7859.9, -3.87e-08
7861.9, -3.52e-08
7863.9, -3.725e-08
7865.9, -4.23e-08
7867.9, -3.618e-08
7869.9, -3.943e-08
7871.9, -4.122e-08
7873.9, -3.583e-08
7875.9, -3.699e-08
7877.9, -3.92e-08
7879.9, -4.127e-08
7881.9, -3.925e-08
7883.9, -3.677e-08
7885.9, -3.812e-08
7887.9, -3.937e-08
7889.9, -3.769e-08
7891.9, -3.518e-08
7893.9, -3.857e-08
7895.9, -3.249e-08
7897.9, -3.58e-08
7899.9, -3.948e-08
7901.9, -3.719e-08
7903.9, -3.492e-08
7905.9, -3.771e-08
7907.9, -3.75e-08
7909.9, -3.321e-08
7911.9, -3.305e-08
7913.9, -3.589e-08
7915.9, -3.442e-08
7917.9, -3.395e-08
7919.9, -3.589e-08
7921.9, -3.273e-08
7923.9, -3.31e-08
7925.9, -3.719e-08
7927.9, -3.761e-08
7929.9, -3.678e-08
7931.9, -3.581e-08
7933.9, -3.287e-08
7935.9, -3.268e-08
7937.9, -4.005e-08
7939.9, -4.051e-08
7941.9, -3.524e-08
7943.9, -4.09e-08
7945.9, -3.936e-08
7947.9, -3.814e-08
7949.9, -3.309e-08
7951.9, -3.698e-08
7953.9, -3.504e-08
7955.9, -3.536e-08
7957.9, -3.632e-08
7960.0, -3.782e-08
7962.0, -3.546e-08
7964.0, -3.863e-08
7966.0, -4.024e-08
7968.0, -3.885e-08
7970.0, -3.488e-08
7972.0, -3.45e-08
7974.0, -3.588e-08
7976.0, -3.834e-08
7978.0, -3.626e-08
7980.0, -3.538e-08
7982.0, -3.321e-08
7984.0, -3.852e-08
7986.0, -3.775e-08
7988.0, -3.882e-08
7990.0, -3.518e-08
7992.0, -3.291e-08
7994.0, -3.454e-08
7996.0, -3.324e-08
7998.0, -3.904e-08
8000.0, -3.446e-08
8002.0, -3.328e-08
8004.0, -3.284e-08
8006.0, -3.428e-08
8008.0, -3.424e-08
8010.0, -3.619e-08
8012.0, -3.464e-08
8014.0, -3.597e-08
8016.0, -3.25e-08
8018.0, -3.55e-08
8020.0, -3.464e-08
8022.0, -3.38e-08
8024.0, -3.356e-08
8026.0, -3.472e-08
8028.0, -3.527e-08
8030.0, -3.37e-08
8032.0, -3.494e-08
8034.0, -3.204e-08
8036.0, -3.594e-08
8038.0, -3.513e-08
8040.0, -3.757e-08
8042.0, -3.548e-08
8044.0, -3.919e-08
8046.0, -4.153e-08
8048.0, -3.613e-08
8050.0, -3.656e-08
8052.0, -3.632e-08
8054.0, -3.632e-08
8056.0, -3.79e-08
8058.0, -3.585e-08
8060.1, -3.743e-08
8062.1, -3.417e-08
8064.1, -3.373e-08
8066.1, -3.406e-08
8068.1, -3.592e-08
8070.1, -3.623e-08
8072.1, -3.264e-08
8074.1, -3.162e-08
8076.1, -3.022e-08
8078.1, -3.437e-08
8080.1, -3.355e-08
8082.1, -3.725e-08
8084.1, -3.776e-08
8086.1, -3.74e-08
8088.1, -3.508e-08
8090.1, -3.507e-08
8092.1, -3.819e-08
8094.1, -3.491e-08
8096.1, -3.595e-08
8098.1, -3.779e-08
8100.1, -3.753e-08
8102.1, -3.588e-08
8104.1, -3.871e-08
8106.1, -3.811e-08
8108.1, -3.448e-08
8110.1, -3.46e-08
8112.1, -3.339e-08
8114.1, -3.158e-08
8116.1, -3.167e-08
8118.1, -3.393e-08
8120.1, -3.163e-08
8122.1, -3.64e-08
8124.1, -3.372e-08
8126.1, -3.276e-08
8128.1, -3.5e-08
8130.1, -3.467e-08
8132.1, -3.337e-08
8134.1, -3.155e-08
8136.1, -3.173e-08
8138.1, -3.671e-08
8140.1, -3.403e-08
8142.1, -3.371e-08
8144.1, -3.539e-08
8146.1, -3.526e-08
8148.1, -3.634e-08
8150.1, -3.751e-08
8152.1, -3.208e-08
8154.1, -3.336e-08
8156.1, -3.346e-08
8158.1, -3.428e-08
8160.2, -3.4e-08
8162.2, -3.464e-08
8164.2, -3.599e-08
8166.2, -3.455e-08
8168.2, -3.495e-08
8170.2, -3.324e-08
8172.2, -3.472e-08
8174.2, -4.044e-08
8176.2, -3.763e-08
8178.2, -3.488e-08
8180.2, -3.451e-08
8182.2, -3.604e-08
8184.2, -3.272e-08
8186.2, -3.63e-08
8188.2, -3.59e-08
8190.2, -3.395e-08
8192.2, -2.978e-08
8194.2, -3.422e-08
8196.2, -3.376e-08
8198.2, -3.519e-08
8200.2, -3.566e-08
8202.2, -3.669e-08
8204.2, -3.283e-08
8206.2, -3.135e-08
8208.2, -3.243e-08
8210.2, -3.377e-08
8212.2, -3.543e-08
8214.2, -3.578e-08
8216.2, -3.145e-08
8218.2, -3.471e-08
8220.2, -3.375e-08
8222.2, -3.518e-08
8224.2, -3.541e-08
8226.2, -3.298e-08
8228.2, -3.483e-08
8230.2, -3.897e-08
8232.2, -3.546e-08
8234.2, -3.463e-08
8236.2, -3.313e-08
8238.2, -3.504e-08
8240.2, -3.393e-08
8242.2, -3.4e-08
8244.2, -3.166e-08
8246.2, -3.064e-08
8248.2, -3.484e-08
8250.2, -3.334e-08
8252.2, -3.297e-08
8254.2, -3.418e-08
8256.2, -3.439e-08
8258.2, -3.241e-08
8260.3, -3.452e-08
8262.3, -3.686e-08
8264.3, -3.614e-08
8266.3, -3.733e-08
8268.3, -3.743e-08
8270.3, -3.554e-08
8272.3, -3.8e-08
8274.3, -3.808e-08
8276.3, -3.416e-08
8278.3, -3.818e-08
8280.3, -3.536e-08
8282.3, -3.547e-08
8284.3, -3.776e-08
8286.3, -3.682e-08
8288.3, -3.786e-08
8290.3, -3.941e-08
8292.3, -3.725e-08
8294.3, -3.759e-08
8296.3, -3.53e-08
8298.3, -3.648e-08
8300.3, -3.607e-08
8302.3, -3.337e-08
8304.3, -3.437e-08
8306.3, -3.347e-08
8308.3, -3.747e-08
8310.3, -3.817e-08
8312.3, -3.517e-08
8314.3, -3.594e-08
8316.3, -3.322e-08
8318.3, -3.781e-08
8320.3, -3.834e-08
8322.3, -3.286e-08
8324.3, -3.721e-08
8326.3, -3.899e-08
8328.3, -3.835e-08
8330.3, -3.664e-08
8332.3, -3.673e-08
8334.3, -3.717e-08
8336.3, -3.854e-08
8338.3, -3.304e-08
8340.3, -3.523e-08
8342.3, -3.877e-08
8344.3, -3.469e-08
8346.3, -3.619e-08
8348.3, -3.739e-08
8350.3, -3.935e-08
8352.3, -3.5e-08
8354.3, -3.595e-08
8356.3, -3.583e-08
8358.3, -3.512e-08
8360.4, -3.672e-08
8362.4, -3.354e-08
8364.4, -3.567e-08
8366.4, -3.475e-08
8368.4, -3.429e-08
8370.4, -3.384e-08
8372.4, -3.728e-08
8374.4, -3.245e-08
8376.4, -3.547e-08
8378.4, -3.903e-08
8380.4, -3.944e-08
8382.4, -3.394e-08
8384.4, -3.746e-08
8386.4, -3.488e-08
8388.4, -3.725e-08
8390.4, -3.451e-08
8392.4, -3.585e-08
8394.4, -3.423e-08
8396.4, -3.579e-08
8398.4, -3.6e-08
8400.4, -3.631e-08
8402.4, -3.534e-08
8404.4, -3.804e-08
8406.4, -3.54e-08
8408.4, -3.664e-08
8410.4, -3.6e-08
8412.4, -4.094e-08
8414.4, -3.474e-08
8416.4, -3.444e-08
8418.4, -3.542e-08
8420.4, -3.362e-08
8422.4, -3.423e-08
8424.4, -3.086e-08
8426.4, -2.818e-08
8428.4, -3.429e-08
8430.4, -3.543e-08
8432.4, -3.502e-08
8434.4, -3.364e-08
8436.4, -3.189e-08
8438.4, -3.077e-08
8440.4, -3.322e-08
8442.4, -3.619e-08
8444.4, -3.101e-08
8446.4, -3.289e-08
8448.4, -3.521e-08
8450.4, -3.726e-08
8452.4, -3.293e-08
8454.4, -3.325e-08
8456.4, -3.465e-08
8458.4, -3.664e-08
8460.5, -3.797e-08
8462.5, -3.738e-08
8464.5, -3.475e-08
8466.5, -3.618e-08
8468.5, -3.802e-08
8470.5, -3.321e-08
8472.5, -3.444e-08
8474.5, -3.507e-08
8476.5, -3.991e-08
8478.5, -3.472e-08
8480.5, -3.454e-08
8482.5, -3.377e-08
8484.5, 7.6021e-07
8486.5, 1.0508e-06
8488.5, 1.1104e-06
8490.5, 9.3663e-07
8492.5, 1.2007e-06
8494.5, 1.1326e-06
8496.5, 1.1894e-06
8498.5, 1.6844e-06
8500.5, 1.0978e-06
8502.5, 1.4053e-06
8504.5, 1.1601e-06
8506.5, 1.4005e-06
8508.5, 1.3665e-06
8510.5, 1.3471e-06
8512.5, 1.1974e-06
8514.5, 1.0978e-06
8516.5, 1.5061e-06
8518.5, 1.1878e-06
8520.5, 1.3168e-06
8522.5, 1.1804e-06
8524.5, 1.1186e-06
8526.5, 1.2448e-06
8528.5, 1.1379e-06
8530.5, 1.0039e-06
8532.5, 1.473e-06
8534.5, 1.2804e-06
8536.5, 1.5258e-06
8538.5, 1.0127e-06
8540.5, 1.2455e-06
8542.5, 1.1055e-06
8544.5, 1.7648e-06
8546.5, 1.203e-06
8548.5, 1.3103e-06
8550.5, 1.6123e-06
8552.5, 1.2159e-06
8554.5, 1.4693e-06
8556.5, 1.2341e-06
8558.5, 1.1828e-06
8560.6, 1.8103e-06
8562.6, 1.4458e-06
8564.6, 1.2193e-06
8566.6, 1.0538e-06
8568.6, 1.3749e-06
8570.6, 1.271e-06
8572.6, 1.3206e-06
8574.6, 1.4382e-06
8576.6, 1.5001e-06
8578.6, 1.5412e-06
8580.6, 1.2589e-06
8582.6, 1.3388e-06
8584.6, 1.2978e-06
8586.6, 1.5087e-06
8588.6, 1.4158e-06
8590.6, 1.1032e-06
8592.6, 1.388e-06
8594.6, 1.3419e-06
8596.6, 1.3196e-06
8598.6, 1.807e-06
8600.6, 1.6153e-06
8602.6, 1.3331e-06
8604.6, 1.6674e-06
8606.6, 1.1886e-06
8608.6, 1.1689e-06
8610.6, 1.7165e-06
8612.6, 1.7335e-06
8614.6, 1.4131e-06
8616.6, 1.6195e-06
8618.6, 1.3968e-06
8620.6, 1.4057e-06
8622.6, 1.5849e-06
8624.6, 1.4501e-06
8626.6, 1.2193e-06
8628.6, 1.2196e-06
8630.6, 1.7349e-06
8632.6, 1.7927e-06
8634.6, 1.2603e-06
8636.6, 1.4112e-06
8638.6, 1.675e-06
8640.6, 1.3732e-06
8642.6, 1.3022e-06
8644.6, 1.1407e-06
8646.6, 1.6901e-06
8648.6, 1.1728e-06
8650.6, 1.3669e-06
8652.6, 1.5703e-06
8654.6, 1.5439e-06
8656.6, 1.4221e-06
8658.6, 2.0799e-06
8660.7, 1.4763e-06
8662.7, 1.1396e-06
8664.7, 1.3896e-06
8666.7, 1.6829e-06
8668.7, 1.3189e-06
8670.7, 1.6455e-06
8672.7, 1.2261e-06
8674.7, 1.2823e-06
8676.7, 1.8666e-06
8678.7, 1.6856e-06
8680.7, 1.2692e-06
8682.7, 1.5684e-06
8684.7, 1.4523e-06
8686.7, 1.4862e-06
8688.7, 1.7016e-06
8690.7, 1.8652e-06
8692.7, 1.1253e-06
8694.7, 1.3894e-06
8696.7, 1.3728e-06
8698.7, 1.3934e-06
8700.7, 1.759e-06
8702.7, 1.3785e-06
8704.7, 1.5554e-06
8706.7, 1.6647e-06
8708.7, 1.9918e-06
8710.7, 1.8414e-06
8712.7, 1.4394e-06
8714.7, 1.5385e-06
8716.7, 1.9175e-06
8718.7, 1.2817e-06
8720.7, 1.4333e-06
8722.7, 1.5401e-06
8724.7, 1.7658e-06
8726.7, 1.4211e-06
8728.7, 1.383e-06
8730.7, 1.6052e-06
8732.7, 1.7063e-06
8734.7, 1.4075e-06
8736.7, 1.4614e-06
8738.7, 1.5958e-06
8740.7, 1.5606e-06
8742.7, 1.9498e-06
8744.7, 1.6619e-06
8746.7, 1.339e-06
8748.7, 1.8377e-06
8750.7, 1.5675e-06
8752.7, 1.2469e-06
8754.7, 1.5306e-06
8756.7, 1.3456e-06
8758.7, 1.5885e-06
8760.8, 1.4239e-06
8762.8, 1.4211e-06
8764.8, 1.3224e-06
8766.8, 1.7369e-06
8768.8, 1.7074e-06
8770.8, 1.7232e-06
8772.8, 1.6654e-06
8774.8, 1.3927e-06
8776.8, 1.4763e-06
8778.8, 1.364e-06
8780.8, 1.5318e-06
8782.8, 1.6714e-06
8784.8, 1.4496e-06
8786.8, 1.5607e-06
8788.8, 1.4563e-06
8790.8, 1.6503e-06
8792.8, 1.6558e-06
8794.8, 1.5612e-06
8796.8, 1.4562e-06
8798.8, 1.6207e-06
8800.8, 1.6832e-06
8802.8, 1.683e-06
8804.8, 1.5688e-06
8806.8, 1.5704e-06
8808.8, 1.5721e-06
8810.8, 1.855e-06
8812.8, 1.6277e-06
8814.8, 1.1551e-06
8816.8, 1.5375e-06
8818.8, 1.5358e-06
8820.8, 1.7157e-06
8822.8, 1.5882e-06
8824.8, 1.6883e-06
8826.8, 1.6048e-06
8828.8, 2.032e-06
8830.8, 1.5039e-06
8832.8, 1.4909e-06
8834.8, 1.5213e-06
8836.8, 1.5388e-06
8838.8, 1.2638e-06
8840.8, 1.6488e-06
8842.8, 1.267e-06
8844.8, 1.6266e-06
8846.8, 1.7451e-06
8848.8, 1.509e-06
8850.8, 1.5788e-06
8852.8, 1.5678e-06
8854.8, 1.5639e-06
8856.8, 1.2408e-06
8858.8, 1.4596e-06
8860.9, 1.46e-06
8862.9, 1.9764e-06
8864.9, 1.6563e-06
8866.9, 1.4025e-06
8868.9, 1.6083e-06
8870.9, 2.0248e-06
8872.9, 1.2417e-06
8874.9, 1.5759e-06
8876.9, 1.4671e-06
8878.9, 1.7666e-06
8880.9, 1.8246e-06
8882.9, 1.8035e-06
8884.9, 1.7374e-06
8886.9, 1.5474e-06
8888.9, 1.6035e-06
8890.9, 1.6074e-06
8892.9, 1.3757e-06
8894.9, 1.6911e-06
8896.9, 1.661e-06
8898.9, 1.8449e-06
8900.9, 1.6425e-06
8902.9, 1.7038e-06
8904.9, 1.6888e-06
8906.9, 1.5639e-06
8908.9, 1.1287e-06
8910.9, 1.187e-06
8912.9, 1.6263e-06
8914.9, 1.4e-06
8916.9, 1.3745e-06
8918.9, 1.731e-06
8920.9, 1.7285e-06
8922.9, 1.6106e-06
8924.9, 1.5318e-06
8926.9, 1.3363e-06
8928.9, 1.6985e-06
8930.9, 1.4531e-06
8932.9, 1.64e-06
8934.9, 1.6254e-06
8936.9, 1.6502e-06
8938.9, 1.556e-06
8940.9, 1.361e-06
8942.9, 1.7035e-06
8944.9, 1.5994e-06
8946.9, 1.6372e-06
8948.9, 2.0523e-06
8950.9, 1.2503e-06
8952.9, 2.0478e-06
8954.9, 1.6901e-06
8956.9, 1.4204e-06
8958.9, 1.6311e-06
8961.0, 1.7891e-06
8963.0, 1.5026e-06
8965.0, 1.8113e-06
8967.0, 1.2434e-06
8969.0, 1.5747e-06
8971.0, 1.6565e-06
8973.0, 1.4395e-06
8975.0, 1.4695e-06
8977.0, 1.7569e-06
8979.0, 1.7294e-06
8981.0, 2.0151e-06
8983.0, 1.7039e-06
8985.0, 1.4955e-06
8987.0, 1.5626e-06
8989.0, 1.7539e-06
8991.0, 1.5427e-06
8993.0, 2.2557e-06
8995.0, 1.6791e-06
8997.0, 1.6156e-06
8999.0, 1.6097e-06
9001.0, 1.6969e-06
9003.0, 1.5308e-06
9005.0, 1.7246e-06
9007.0, 1.5693e-06
9009.0, 1.4954e-06
9011.0, 1.6313e-06
9013.0, 1.9343e-06
9015.0, 1.7674e-06
9017.0, 1.7162e-06
9019.0, 1.3172e-06
9021.0, 1.4273e-06
9023.0, 1.4176e-06
9025.0, 1.2224e-06
9027.0, 1.6819e-06
9029.0, 1.4676e-06
9031.0, 1.6666e-06
9033.0, 1.2715e-06
9035.0, 1.2701e-06
9037.0, 1.6418e-06
9039.0, 1.7585e-06
9041.0, 1.745e-06
9043.0, 1.6476e-06
9045.0, 1.2455e-06
9047.0, 1.5145e-06
9049.0, 1.5474e-06
9051.0, 1.5427e-06
9053.0, 2.1065e-06
9055.0, 1.8637e-06
9057.0, 1.2727e-06
9059.0, 1.4304e-06
9061.1, 1.3786e-06
9063.1, 1.4792e-06
9065.1, 1.4041e-06
9067.1, 1.5251e-06
9069.1, 1.6388e-06
9071.1, 1.5124e-06
9073.1, 2.0361e-06
9075.1, 1.3578e-06
9077.1, 1.6686e-06
9079.1, 1.3265e-06
9081.1, 1.4203e-06
9083.1, 1.3217e-06
9085.1, 1.9508e-06
9087.1, 1.5864e-06
9089.1, 1.2852e-06
9091.1, 1.5538e-06
9093.1, 1.5268e-06
9095.1, 1.8836e-06
9097.1, 1.8704e-06
9099.1, 1.692e-06
9101.1, 1.5908e-06
9103.1, 1.6116e-06
9105.1, 1.6943e-06
9107.1, 1.7456e-06
9109.1, 1.5504e-06
9111.1, 1.6064e-06
9113.1, 1.6622e-06
9115.1, 1.741e-06
9117.1, 1.6394e-06
9119.1, 1.6698e-06
9121.1, 1.8212e-06
9123.1, 1.9055e-06
9125.1, 1.9803e-06
9127.1, 1.8682e-06
9129.1, 1.7979e-06
9131.1, 1.4776e-06
9133.1, 1.5817e-06
9135.1, 1.6124e-06
9137.1, 1.8487e-06
9139.1, 1.6171e-06
9141.1, 1.4593e-06
9143.1, 1.5046e-06
9145.1, 1.8993e-06
9147.1, 1.6965e-06
9149.1, 1.6564e-06
9151.1, 1.6331e-06
9153.1, 2.1466e-06
9155.1, 1.5823e-06
9157.1, 1.4339e-06
9159.1, 1.7032e-06
9161.2, 1.8178e-06
9163.2, 1.8419e-06
9165.2, 1.7459e-06
9167.2, 1.3681e-06
9169.2, 1.3102e-06
9171.2, 2.2172e-06
9173.2, 1.5402e-06
9175.2, 1.3916e-06
9177.2, 1.5605e-06
9179.2, 1.9788e-06
9181.2, 1.9996e-06
9183.2, 1.5534e-06
9185.2, 1.67e-06
9187.2, 1.4291e-06
9189.2, 1.5954e-06
9191.2, 1.7019e-06
9193.2, 1.5076e-06
9195.2, 1.4336e-06
9197.2, 1.2791e-06
9199.2, 1.7398e-06
9201.2, 1.7147e-06
9203.2, 1.3832e-06
9205.2, 1.7101e-06
9207.2, 1.5379e-06
9209.2, 1.6386e-06
9211.2, 1.8667e-06
9213.2, 1.1556e-06
9215.2, 1.8473e-06
9217.2, 1.8376e-06
9219.2, 1.3713e-06
9221.2, 1.6796e-06
9223.2, 1.8883e-06
9225.2, 1.3815e-06
9227.2, 1.6478e-06
9229.2, 1.3031e-06
9231.2, 1.5522e-06
9233.2, 1.5739e-06
9235.2, 1.6781e-06
9237.2, 1.1408e-06
9239.2, 1.8206e-06
9241.2, 1.8676e-06
9243.2, 1.9703e-06
9245.2, 1.5246e-06
9247.2, 1.5106e-06
9249.2, 1.5745e-06
9251.2, 1.6211e-06
9253.2, 1.9504e-06
9255.2, 1.8726e-06
9257.2, 1.8482e-06
9259.2, 1.5356e-06
9261.3, 1.57e-06
9263.3, 1.5831e-06
9265.3, 1.4437e-06
9267.3, 1.7171e-06
9269.3, 1.579e-06
9271.3, 1.5e-06
9273.3, 1.5131e-06
9275.3, 1.8549e-06
9277.3, 1.6401e-06
9279.3, 2.0308e-06
9281.3, 1.6543e-06
9283.3, 1.3192e-06
9285.3, 1.8146e-06
9287.3, 1.5351e-06
9289.3, 1.6305e-06
9291.3, 1.8247e-06
9293.3, 1.5664e-06
9295.3, 1.6913e-06
9297.3, 1.6207e-06
9299.3, 1.6601e-06
9301.3, 1.6548e-06
9303.3, 1.4625e-06
9305.3, 1.3972e-06
9307.3, 1.7085e-06
9309.3, 1.9386e-06
9311.3, 1.5387e-06
9313.3, 1.7322e-06
9315.3, 1.7354e-06
9317.3, 1.6362e-06
9319.3, 2.0839e-06
9321.3, 1.8681e-06
9323.3, 1.7753e-06
9325.3, 1.4194e-06
9327.3, 1.7497e-06
9329.3, 1.5872e-06
9331.3, 1.6104e-06
9333.3, 1.7586e-06
9335.3, 1.5803e-06
9337.3, 1.4471e-06
9339.3, 1.6394e-06
9341.3, 1.6252e-06
9343.3, 1.7052e-06
9345.3, 1.6345e-06
9347.3, 1.2718e-06
9349.3, 1.4027e-06
9351.3, 1.8134e-06
9353.3, 1.7969e-06
9355.3, 1.55e-06
9357.3, 1.5432e-06
9359.3, 1.9831e-06
9361.4, 1.6036e-06
9363.4, 1.7095e-06
9365.4, 1.8702e-06
9367.4, 1.8185e-06
9369.4, 1.62e-06
9371.4, 1.7291e-06
9373.4, 1.603e-06
9375.4, 1.6015e-06
9377.4, 2.077e-06
9379.4, 1.9992e-06
9381.4, 1.7237e-06
9383.4, 1.6116e-06
9385.4, 1.9695e-06
9387.4, 1.4432e-06
9389.4, 1.7909e-06
9391.4, 1.7501e-06
9393.4, 1.8149e-06
9395.4, 1.755e-06
9397.4, 1.5781e-06
9399.4, 1.5843e-06
9401.4, 1.5339e-06
9403.4, 1.4317e-06
9405.4, 1.2098e-06
9407.4, 1.6573e-06
9409.4, 1.7417e-06
9411.4, 1.4278e-06
9413.4, 1.3661e-06
9415.4, 1.9889e-06
9417.4, 1.707e-06
9419.4, 1.899e-06
9421.4, 1.7314e-06
9423.4, 2.043e-06
9425.4, 1.3399e-06
9427.4, 1.7253e-06
9429.4, 1.576e-06
9431.4, 1.7296e-06
9433.4, 2.1142e-06
9435.4, 1.61e-06
9437.4, 1.2302e-06
9439.4, 2.0052e-06
9441.4, 1.4805e-06
9443.4, 1.6859e-06
9445.4, 1.363e-06
9447.4, 1.7864e-06
9449.4, 1.613e-06
9451.4, 1.7936e-06
9453.4, 1.676e-06
9455.4, 1.541e-06
9457.4, 1.6175e-06
9459.4, 2.3147e-06
9461.5, 1.5954e-06
9463.5, 1.7731e-06
9465.5, 1.6317e-06
9467.5, 1.6634e-06
9469.5, 1.5367e-06
9471.5, 1.6824e-06
9473.5, 1.3648e-06
9475.5, 1.6869e-06
9477.5, 1.5204e-06
9479.5, 1.2672e-06
9481.5, 1.3492e-06
9483.5, 1.9403e-06
9485.5, 8.4384e-07
9487.5, -3.669e-08
9489.5, -3.598e-08
9491.5, -3.804e-08
9493.5, -3.641e-08
9495.5, -3.454e-08
9497.5, -3.542e-08
9499.5, -3.68e-08
9501.5, -3.277e-08
9503.5, -3.44e-08
9505.5, -3.205e-08
9507.5, -3.626e-08
9509.5, -3.737e-08
9511.5, -3.586e-08
9513.5, -3.437e-08
9515.5, -3.507e-08
9517.5, -3.482e-08
9519.5, -3.426e-08
9521.5, -3.606e-08
9523.5, -3.462e-08
9525.5, -3.337e-08
9527.5, -3.434e-08
9529.5, -3.618e-08
9531.5, -3.358e-08
9533.5, -3.424e-08
9535.5, -3.077e-08
9537.5, -3.763e-08
9539.5, -3.633e-08
9541.5, -3.865e-08
9543.5, -3.974e-08
9545.5, -4.01e-08
9547.5, -3.893e-08
9549.5, -3.905e-08
9551.5, -3.773e-08
9553.5, -3.97e-08
9555.5, -3.621e-08
9557.5, -3.861e-08
9559.5, -4.013e-08
9561.6, -4.132e-08
9563.6, -3.691e-08
9565.6, -3.807e-08
9567.6, -3.347e-08
9569.6, -3.759e-08
9571.6, -3.468e-08
9573.6, -3.223e-08
9575.6, -3.621e-08
9577.6, -3.217e-08
9579.6, -3.42e-08
9581.6, -3.47e-08
9583.6, -3.366e-08
9585.6, -3.462e-08
9587.6, -3.496e-08
9589.6, -3.709e-08
9591.6, -3.441e-08
9593.6, -3.222e-08
9595.6, -3.14e-08
9597.6, -3.52e-08
9599.6, -3.423e-08
9601.6, -3.594e-08
9603.6, -3.415e-08
9605.6, -4.091e-08
9607.6, -4.001e-08
9609.6, -3.853e-08
9611.6, -3.591e-08
9613.6, -3.592e-08
9615.6, -3.595e-08
9617.6, -4.076e-08
9619.6, -3.986e-08
9621.6, -3.833e-08
9623.6, -4.289e-08
9625.6, -3.882e-08
9627.6, -3.859e-08
9629.6, -3.902e-08
9631.6, -3.602e-08
9633.6, -3.432e-08
9635.6, -3.736e-08
9637.6, -3.315e-08
9639.6, -3.551e-08
9641.6, -3.791e-08
9643.6, -3.583e-08
9645.6, -3.282e-08
9647.6, -3.426e-08
9649.6, -3.891e-08
9651.6, -3.589e-08
9653.6, -3.929e-08
9655.6, -3.78e-08
9657.6, -4.1e-08
9659.6, -3.738e-08
9661.7, -3.902e-08
9663.7, -3.784e-08
9665.7, -3.747e-08
9667.7, -3.512e-08
9669.7, -3.865e-08
9671.7, -3.473e-08
9673.7, -3.488e-08
9675.7, -3.437e-08
9677.7, -3.841e-08
9679.7, -3.608e-08
9681.7, -4.096e-08
9683.7, -3.797e-08
9685.7, -3.531e-08
9687.7, -3.543e-08
9689.7, -3.603e-08
9691.7, -3.459e-08
9693.7, -3.976e-08
9695.7, -3.768e-08
9697.7, -3.349e-08
9699.7, -3.471e-08
9701.7, -3.894e-08
9703.7, -3.905e-08
9705.7, -3.438e-08
9707.7, -3.731e-08
9709.7, -3.887e-08
9711.7, -3.638e-08
9713.7, -3.393e-08
9715.7, -3.6e-08
9717.7, -3.239e-08
9719.7, -3.588e-08
9721.7, -3.886e-08
9723.7, -3.471e-08
9725.7, -3.577e-08
9727.7, -3.756e-08
9729.7, -3.533e-08
9731.7, -3.583e-08
9733.7, -3.685e-08
9735.7, -3.356e-08
9737.7, -3.55e-08
9739.7, -3.891e-08
9741.7, -3.907e-08
9743.7, -3.923e-08
9745.7, -3.269e-08
9747.7, -3.441e-08
9749.7, -3.495e-08
9751.7, -3.759e-08
9753.7, -3.85e-08
9755.7, -3.683e-08
9757.7, -3.858e-08
9759.7, -3.735e-08
9761.8, -3.685e-08
9763.8, -3.724e-08
9765.8, -3.851e-08
9767.8, -3.513e-08
9769.8, -3.436e-08
9771.8, -3.702e-08
9773.8, -3.506e-08
9775.8, -3.803e-08
9777.8, -3.573e-08
9779.8, -4.098e-08
9781.8, -3.72e-08
9783.8, -3.676e-08
9785.8, -4.084e-08
9787.8, -4.117e-08
9789.8, -3.957e-08
9791.8, -3.71e-08
9793.8, -3.629e-08
9795.8, -3.533e-08
9797.8, -3.777e-08
9799.8, -3.569e-08
9801.8, -3.797e-08
9803.8, -3.786e-08
9805.8, -3.498e-08
9807.8, -3.61e-08
9809.8, -3.287e-08
9811.8, -3.428e-08
9813.8, -3.61e-08
9815.8, -3.563e-08
9817.8, -3.122e-08
9819.8, -3.483e-08
9821.8, -3.453e-08
9823.8, -3.593e-08
9825.8, -3.387e-08
9827.8, -3.904e-08
9829.8, -3.753e-08
9831.8, -3.955e-08
9833.8, -4.167e-08
9835.8, -3.955e-08
9837.8, -3.667e-08
9839.8, -3.356e-08
9841.8, -3.512e-08
9843.8, -3.524e-08
9845.8, -3.501e-08
9847.8, -3.589e-08
9849.8, -3.37e-08
9851.8, -3.171e-08
9853.8, -3.495e-08
9855.8, -3.256e-08
9857.8, -3.277e-08
9859.8, -3.252e-08
9861.9, -3.319e-08
9863.9, -3.17e-08
9865.9, -3.337e-08
9867.9, -3.418e-08
9869.9, -3.121e-08
9871.9, -3.078e-08
9873.9, -3.641e-08
9875.9, -3.668e-08
9877.9, -4.176e-08
9879.9, -3.69e-08
9881.9, -3.17e-08
9883.9, -3.443e-08
9885.9, -3.538e-08
9887.9, -3.697e-08
9889.9, -3.866e-08
9891.9, -3.783e-08
9893.9, -3.847e-08
9895.9, -3.458e-08
9897.9, -3.265e-08
9899.9, -3.168e-08
9901.9, -3.218e-08
9903.9, -3.377e-08
9905.9, -3.1e-08
9907.9, -3.538e-08
9909.9, -3.783e-08
9911.9, -3.678e-08
9913.9, -3.624e-08
9915.9, -3.666e-08
9917.9, -3.39e-08
9919.9, -3.28e-08
9921.9, -3.575e-08
9923.9, -3.537e-08
9925.9, -3.356e-08
9927.9, -3.512e-08
9929.9, -3.395e-08
9931.9, -3.655e-08
9933.9, -3.582e-08
9935.9, -3.475e-08
9937.9, -3.669e-08
9939.9, -3.419e-08
9941.9, -3.519e-08
9943.9, -3.675e-08
9945.9, -3.333e-08
9947.9, -3.137e-08
9949.9, -2.898e-08
9951.9, -2.91e-08
9953.9, -2.926e-08
9955.9, -2.904e-08
9957.9, -3.208e-08
9959.9, -3.283e-08
9962.0, -3.166e-08
9964.0, -3.012e-08
9966.0, -3.255e-08
9968.0, -3.101e-08
9970.0, -3.443e-08
9972.0, -3.455e-08
9974.0, -3.317e-08
9976.0, -3.44e-08
9978.0, -3.844e-08
9980.0, -3.813e-08
9982.0, -3.692e-08
9984.0, -3.88e-08
9986.0, -3.485e-08
9988.0, -3.687e-08
9990.0, -3.69e-08
9992.0, -3.795e-08
9994.0, -3.894e-08
9996.0, -3.478e-08
9998.0, -3.673e-08
10000.0, -3.984e-08
10002.0, -3.654e-08
10004.0, -3.43e-08
10006.0, -3.711e-08
10008.0, -3.664e-08
10010.0, -3.597e-08
10012.0, -3.812e-08
10014.0, -4.148e-08
10016.0, -3.902e-08
10018.0, -4.006e-08
10020.0, -4.319e-08
10022.0, -3.994e-08
10024.0, -4.031e-08
10026.0, -3.793e-08
10028.0, -4.245e-08
10030.0, -3.979e-08
10032.0, -3.933e-08
10034.0, -3.77e-08
10036.0, -3.746e-08
10038.0, -3.831e-08
10040.0, -3.682e-08
10042.0, -3.57e-08
10044.0, -3.656e-08
10046.0, -3.651e-08
10048.0, -3.715e-08
10050.0, -3.476e-08
10052.0, -3.576e-08
10054.0, -3.694e-08
10056.0, -3.359e-08
10058.0, -3.999e-08
10060.0, -3.659e-08
10062.0, -3.866e-08
10064.0, -3.108e-08
10066.0, -3.455e-08
10068.0, -3.628e-08
10070.0, -3.513e-08
10072.0, -3.639e-08
10074.0, -3.454e-08
10076.0, -3.316e-08
10078.0, -3.207e-08
10080.0, -3.395e-08
10082.0, -3.695e-08
10084.0, -3.482e-08
10086.0, -3.064e-08
10088.0, -3.468e-08
10090.0, -3.154e-08
10092.0, -3.379e-08
10094.0, -3.298e-08
10096.0, -3.261e-08
10098.0, -2.962e-08
10100.0, -3.469e-08
10102.0, -3.545e-08
10104.0, -3.603e-08
10106.0, -3.091e-08
10108.0, -2.914e-08
10110.0, -3.37e-08
10112.0, -2.932e-08
10114.0, -3.229e-08
10116.0, -3.45e-08
10118.0, -3.348e-08
10120.0, -3.115e-08
10122.0, -3.341e-08
10124.0, -3.068e-08
10126.0, -3.318e-08
10128.0, -3.476e-08
10130.0, -3.381e-08
10132.0, -3.285e-08
10134.0, -2.906e-08
10136.0, -3.436e-08
10138.0, -3.255e-08
10140.0, -3.145e-08
10142.0, -3.215e-08
10144.0, -3.063e-08
10146.0, -3.201e-08
10148.0, -3.335e-08
10150.0, -3.431e-08
10152.0, -3.394e-08
10154.0, -3.058e-08
10156.0, -3.213e-08
10158.0, -3.37e-08
10160.0, -3.408e-08
10162.0, -3.176e-08
10164.0, -3.367e-08
10166.0, -3.376e-08
10168.0, -3.14e-08
10170.0, -3.201e-08
10172.0, -3.697e-08
10174.0, -3.155e-08
10176.0, -3.72e-08
10178.0, -3.637e-08
10180.0, -3.435e-08
10182.0, -3.507e-08
10184.0, -3.517e-08
10186.0, -3.376e-08
10188.0, -3.436e-08
10190.0, -3.57e-08
10192.0, -3.488e-08
10194.0, -3.233e-08
10196.0, -3.172e-08
10198.0, -3.226e-08
10200.0, -3.209e-08
10202.0, -3.291e-08
10204.0, -3.179e-08
10206.0, -3.035e-08
10208.0, -3.411e-08
10210.0, -3.534e-08
10212.0, -3.549e-08
10214.0, -3.269e-08
10216.0, -3.309e-08
10218.0, -3.339e-08
10220.0, -3.527e-08
10222.0, -3.559e-08
10224.0, -3.597e-08
10226.0, -3.363e-08
10228.0, -3.53e-08
10230.0, -3.54e-08
10232.0, -3.728e-08
10234.0, -3.629e-08
10236.0, -3.638e-08
10238.0, -3.626e-08
10240.0, -3.366e-08
10242.0, -3.603e-08
10244.0, -3.425e-08
10246.0, -3.23e-08
10248.0, -3.574e-08
10250.0, -3.636e-08
10252.0, -3.432e-08
10254.0, -3.833e-08
10256.0, -3.774e-08
10258.0, -3.804e-08
10260.0, -3.661e-08
10262.0, -3.64e-08
10264.0, -3.389e-08
10266.0, -3.762e-08
10268.0, -3.546e-08
10270.0, -4.002e-08
10272.0, -3.851e-08
10274.0, -3.485e-08
10276.0, -3.56e-08
10278.0, -3.735e-08
10280.0, -3.722e-08
10282.0, -3.69e-08
10284.0, -3.562e-08
10286.0, -3.279e-08
10288.0, -3.236e-08
10290.0, -3.421e-08
10292.0, -3.531e-08
10294.0, -3.434e-08
10296.0, -3.606e-08
10298.0, -3.456e-08
10300.0, -3.654e-08
10302.0, -3.652e-08
10304.0, -3.381e-08
10306.0, -3.466e-08
10308.0, -2.971e-08
10310.0, -3.296e-08
10312.0, -3.425e-08
10314.0, -3.278e-08
10316.0, -3.65e-08
10318.0, -3.395e-08
10320.0, -3.418e-08
10322.0, -3.571e-08
10324.0, -3.333e-08
10326.0, -3.278e-08
10328.0, -3.806e-08
10330.0, -3.317e-08
10332.0, -3.288e-08
10334.0, -3.104e-08
10336.0, -2.946e-08
10338.0, -3.192e-08
10340.0, -3.149e-08
10342.0, -2.994e-08
10344.0, -3.007e-08
10346.0, -3.47e-08
10348.0, -3.591e-08
10350.0, -3.569e-08
10352.0, -3.246e-08
10354.0, -3.409e-08
10356.0, -3.266e-08
10358.0, -3.433e-08
10360.0, -3.114e-08
10362.0, -3.487e-08
10364.0, -3.578e-08
10366.0, -3.566e-08
10368.0, -3.352e-08
10370.0, -3.283e-08
10372.0, -3.154e-08
10374.0, -3.271e-08
10376.0, -3.313e-08
10378.0, -3.547e-08
10380.0, -3.877e-08
10382.0, -3.309e-08
10384.0, -3.596e-08
10386.0, -3.29e-08
10388.0, -3.348e-08
10390.0, -3.573e-08
10392.0, -3.395e-08
10394.0, -3.602e-08
10396.0, -3.676e-08
10398.0, -3.952e-08
10400.0, -3.773e-08
10402.0, -3.813e-08
10404.0, -3.637e-08
10406.0, -3.606e-08
10408.0, -3.623e-08
10410.0, -3.926e-08
10412.0, -3.733e-08
10414.0, -3.786e-08
10416.0, -3.676e-08
10418.0, -3.921e-08
10420.0, -3.631e-08
10422.0, -3.823e-08
10424.0, -3.357e-08
10426.0, -3.478e-08
10428.0, -3.966e-08
10430.0, -3.705e-08
10432.0, -4.03e-08
10434.0, -4.164e-08
10436.0, -4.042e-08
10438.0, -4.347e-08
10440.0, -4.208e-08
10442.0, -3.85e-08
10444.0, -3.894e-08
10446.0, -3.594e-08
10448.0, -3.74e-08
10450.0, -3.788e-08
10452.0, -3.579e-08
10454.0, -3.493e-08
10456.0, -3.059e-08
10458.0, -3.652e-08
10460.0, -3.468e-08
10462.0, -3.656e-08
10464.0, -3.468e-08
10466.0, -3.39e-08
10468.0, -3.447e-08
10470.0, -3.548e-08
10472.0, -3.274e-08
10474.0, -3.416e-08
10476.0, -3.311e-08
10478.0, -3.683e-08
10480.0, -3.816e-08
10482.0, -3.466e-08
10484.0, -3.811e-08
10486.0, -3.51e-08
10488.0, -3.483e-08
10490.0, -3.575e-08
10492.0, -3.773e-08
10494.0, -3.533e-08
10496.0, -3.494e-08
10498.0, -3.639e-08
10500.0, -3.72e-08
10502.0, -3.329e-08
10504.0, -3.334e-08
10506.0, -3.594e-08
10508.0, -3.329e-08
10510.0, -3.908e-08
10513.0, -3.563e-08
10515.0, -3.651e-08
10517.0, -3.634e-08
10519.0, -3.39e-08
10521.0, -3.572e-08
10523.0, -3.234e-08
10525.0, -3.804e-08
10527.0, -3.602e-08
10529.0, -3.045e-08
10531.0, -3.471e-08
10533.0, -3.937e-08
10535.0, -3.709e-08
10537.0, -4.078e-08
10539.0, -3.597e-08
10541.0, -3.89e-08
10543.0, -4.093e-08
10545.0, -4.203e-08
10547.0, -3.96e-08
10549.0, -4.216e-08
10551.0, -3.901e-08
10553.0, -3.955e-08
10555.0, -3.872e-08
10557.0, -3.844e-08
10559.0, -3.816e-08
10561.0, -3.905e-08
10563.0, -3.843e-08
10565.0, -3.696e-08
10567.0, -3.84e-08
10569.0, -3.966e-08
10571.0, 7.8006e-07
10573.0, 1.3223e-06
10575.0, 1.049e-06
10577.0, 1.1229e-06
10579.0, 9.1085e-07
10581.0, 1.2897e-06
10583.0, 1.3802e-06
10585.0, 1.1032e-06
10587.0, 1.2507e-06
10589.0, 1.0807e-06
10591.0, 1.1612e-06
10593.0, 1.2653e-06
10595.0, 1.4765e-06
10597.0, 1.2059e-06
10599.0, 1.265e-06
10601.0, 1.3581e-06
10603.0, 1.2913e-06
10605.0, 1.4699e-06
10607.0, 1.198e-06
10609.0, 1.3056e-06
10611.0, 1.1581e-06
10613.0, 1.2876e-06
10615.0, 1.2598e-06
10617.0, 1.1455e-06
10619.0, 1.2442e-06
10621.0, 1.3045e-06
10623.0, 8.9256e-07
10625.0, 1.2785e-06
10627.0, 1.3945e-06
10629.0, 1.2784e-06
10631.0, 1.0749e-06
10633.0, 1.8512e-06
10635.0, 1.4213e-06
10637.0, 1.1457e-06
10639.0, 1.5898e-06
10641.0, 1.0666e-06
10643.0, 1.1499e-06
10645.0, 1.5607e-06
10647.0, 1.5462e-06
10649.0, 1.2911e-06
10651.0, 1.1478e-06
10653.0, 1.3689e-06
10655.0, 1.1908e-06
10657.0, 1.291e-06
10659.0, 1.2147e-06
10661.0, 1.5846e-06
10663.0, 1.7056e-06
10665.0, 1.2549e-06
10667.0, 1.1792e-06
10669.0, 1.7649e-06
10671.0, 1.213e-06
10673.0, 1.0657e-06
10675.0, 1.2908e-06
10677.0, 1.4482e-06
10679.0, 1.4816e-06
10681.0, 1.5805e-06
10683.0, 1.3634e-06
10685.0, 1.3614e-06
10687.0, 1.552e-06
10689.0, 1.2488e-06
10691.0, 1.889e-06
10693.0, 1.1542e-06
10695.0, 1.7486e-06
10697.0, 1.4102e-06
10699.0, 1.4588e-06
10701.0, 1.3773e-06
10703.0, 1.4282e-06
10705.0, 1.6852e-06
10707.0, 1.298e-06
10709.0, 1.6534e-06
10711.0, 1.8561e-06
10713.0, 1.0916e-06
10715.0, 1.4765e-06
10717.0, 1.5003e-06
10719.0, 1.7779e-06
10721.0, 1.1127e-06
10723.0, 1.3986e-06
10725.0, 1.2926e-06
10727.0, 1.6405e-06
10729.0, 1.6791e-06
10731.0, 1.7372e-06
10733.0, 1.3076e-06
10735.0, 1.5968e-06
10737.0, 1.5208e-06
10739.0, 1.6165e-06
10741.0, 1.3033e-06
10743.0, 1.6189e-06
10745.0, 1.3246e-06
10747.0, 1.464e-06
10749.0, 1.0803e-06
10751.0, 1.6756e-06
10753.0, 1.3626e-06
10755.0, 1.2223e-06
10757.0, 1.8467e-06
10759.0, 1.5612e-06
10761.0, 1.0721e-06
10763.0, 1.648e-06
10765.0, 1.4358e-06
10767.0, 1.6986e-06
10769.0, 1.6331e-06
10771.0, 1.5767e-06
10773.0, 1.4166e-06
10775.0, 1.3883e-06
10777.0, 1.6475e-06
10779.0, 1.4429e-06
10781.0, 1.5296e-06
10783.0, 1.7013e-06
10785.0, 1.677e-06
10787.0, 1.1977e-06
10789.0, 1.6349e-06
10791.0, 1.8134e-06
10793.0, 1.453e-06
10795.0, 1.6177e-06
10797.0, 1.4268e-06
10799.0, 1.4723e-06
10801.0, 1.5482e-06
10803.0, 1.4226e-06
10805.0, 1.2863e-06
10807.0, 1.3311e-06
10809.0, 1.3166e-06
10811.0, 1.4843e-06
10813.0, 1.4372e-06
10815.0, 1.2255e-06
10817.0, 1.4984e-06
10819.0, 1.5394e-06
10821.0, 1.2083e-06
10823.0, 1.6482e-06
10825.0, 1.6292e-06
10827.0, 1.5955e-06
10829.0, 1.3996e-06
10831.0, 1.7474e-06
10833.0, 1.5484e-06
10835.0, 1.2203e-06
10837.0, 1.3759e-06
10839.0, 1.4428e-06
10841.0, 1.3679e-06
10843.0, 1.6548e-06
10845.0, 1.6579e-06
10847.0, 1.55e-06
10849.0, 1.4311e-06
10851.0, 1.4211e-06
10853.0, 1.8374e-06
10855.0, 1.3465e-06
10857.0, 1.4494e-06
10859.0, 1.4433e-06
10861.0, 1.6053e-06
10863.0, 1.7903e-06
10865.0, 1.8907e-06
10867.0, 1.4117e-06
10869.0, 1.6535e-06
10871.0, 1.5207e-06
10873.0, 1.707e-06
10875.0, 1.6203e-06
10877.0, 1.9273e-06
10879.0, 1.517e-06
10881.0, 1.1771e-06
10883.0, 1.616e-06
10885.0, 1.2656e-06
10887.0, 1.633e-06
10889.0, 1.5632e-06
10891.0, 1.2906e-06
10893.0, 1.415e-06
10895.0, 1.8688e-06
10897.0, 1.5952e-06
10899.0, 1.5798e-06
10901.0, 1.3062e-06
10903.0, 1.4922e-06
10905.0, 1.6031e-06
10907.0, 1.4524e-06
10909.0, 1.3254e-06
10911.0, 1.3094e-06
10913.0, 1.4594e-06
10915.0, 1.6394e-06
10917.0, 1.4268e-06
10919.0, 1.7492e-06
10921.0, 1.7693e-06
10923.0, 1.6134e-06
10925.0, 1.1469e-06
10927.0, 1.3378e-06
10929.0, 1.7096e-06
10931.0, 1.5852e-06
10933.0, 1.2858e-06
10935.0, 1.6494e-06
10937.0, 1.9675e-06
10939.0, 1.2702e-06
10941.0, 1.6523e-06
10943.0, 1.2656e-06
10945.0, 1.6468e-06
10947.0, 1.6047e-06
10949.0, 1.7988e-06
10951.0, 1.7257e-06
10953.0, 1.3664e-06
10955.0, 1.5778e-06
10957.0, 1.4829e-06
10959.0, 1.6962e-06
10961.0, 1.6007e-06
10963.0, 1.427e-06
10965.0, 1.4977e-06
10967.0, 1.4746e-06
10969.0, 1.7056e-06
10971.0, 1.9331e-06
10973.0, 1.5433e-06
10975.0, 1.4801e-06
10977.0, 1.65e-06
10979.0, 1.4978e-06
10981.0, 1.6463e-06
10983.0, 1.9534e-06
10985.0, 1.6872e-06
10987.0, 1.771e-06
10989.0, 1.416e-06
10991.0, 1.5325e-06
10993.0, 1.4248e-06
10995.0, 1.6456e-06
10997.0, 1.9582e-06
10999.0, 1.5771e-06
11001.0, 1.5926e-06
11003.0, 1.8879e-06
11005.0, 1.3826e-06
11007.0, 1.7403e-06
11009.0, 1.8406e-06
