Time sep (ms?), Current (A)
0.0, -3.697e-08
2.002, -3.848e-08
4.004, -3.846e-08
6.006, -3.886e-08
8.008, -3.684e-08
10.01, -3.944e-08
12.012, -3.56e-08
14.014, -3.762e-08
16.016, -3.77e-08
18.018, -3.524e-08
20.02, -3.792e-08
22.022, -3.431e-08
24.024, -3.277e-08
26.026, -3.514e-08
28.028, -3.804e-08
30.03, -3.271e-08
32.032, -3.368e-08
34.034, -3.698e-08
36.036, -3.338e-08
38.038, -3.683e-08
40.04, -3.707e-08
42.042, -3.435e-08
44.044, -3.536e-08
46.046, -3.224e-08
48.048, -3.55e-08
50.05, -3.55e-08
52.052, -3.559e-08
54.054, -3.736e-08
56.056, -3.798e-08
58.058, -3.518e-08
60.06, -3.65e-08
62.062, -3.962e-08
64.064, -3.935e-08
66.066, -4.055e-08
68.068, -3.917e-08
70.07, -4.058e-08
72.072, -3.731e-08
74.074, -4.415e-08
76.076, -3.83e-08
78.078, -4.031e-08
80.08, -3.768e-08
82.082, -3.78e-08
84.084, -3.545e-08
86.086, -3.403e-08
88.088, -3.57e-08
90.09, -3.141e-08
92.092, -3.537e-08
94.094, -3.377e-08
96.096, -3.74e-08
98.098, -3.975e-08
100.1, -3.522e-08
102.1, -3.181e-08
104.1, -3.429e-08
106.11, -3.408e-08
108.11, -3.162e-08
110.11, -3.49e-08
112.11, -3.814e-08
114.11, -3.317e-08
116.12, -3.493e-08
118.12, -3.385e-08
120.12, -3.465e-08
122.12, -3.588e-08
124.12, -3.434e-08
126.13, -3.642e-08
128.13, -3.61e-08
130.13, -3.543e-08
132.13, -3.887e-08
134.13, -3.504e-08
136.14, -3.833e-08
138.14, -3.339e-08
140.14, -3.719e-08
142.14, -3.572e-08
144.14, -3.557e-08
146.15, -3.493e-08
148.15, -3.873e-08
150.15, -3.606e-08
152.15, -3.455e-08
154.15, -3.45e-08
156.16, -3.505e-08
158.16, -3.734e-08
160.16, -3.604e-08
162.16, -3.862e-08
164.16, -3.762e-08
166.17, -3.495e-08
168.17, -3.594e-08
170.17, -4.14e-08
172.17, -3.563e-08
174.17, -4.159e-08
176.18, -4.296e-08
178.18, -4.206e-08
180.18, -4.26e-08
182.18, -3.967e-08
184.18, -3.975e-08
186.19, -3.454e-08
188.19, -3.934e-08
190.19, -3.695e-08
192.19, -3.698e-08
194.19, -3.976e-08
196.2, -3.704e-08
198.2, -3.379e-08
200.2, -3.75e-08
202.2, -3.713e-08
204.2, -3.397e-08
206.21, -3.74e-08
208.21, -3.339e-08
210.21, -3.758e-08
212.21, -3.792e-08
214.21, -3.995e-08
216.22, -3.903e-08
218.22, -3.501e-08
220.22, -3.552e-08
222.22, -3.525e-08
224.22, -3.229e-08
226.23, -3.583e-08
228.23, -3.265e-08
230.23, -3.718e-08
232.23, -3.434e-08
234.23, -3.687e-08
236.24, -3.54e-08
238.24, -3.73e-08
240.24, -3.632e-08
242.24, -3.723e-08
244.24, -3.468e-08
246.25, -3.387e-08
248.25, -3.622e-08
250.25, -4.043e-08
252.25, -3.853e-08
254.25, -3.812e-08
256.26, -4.502e-08
258.26, -4.25e-08
260.26, -3.697e-08
262.26, -3.849e-08
264.26, -3.939e-08
266.27, -3.54e-08
268.27, -3.528e-08
270.27, -3.982e-08
272.27, -3.687e-08
274.27, -3.661e-08
276.28, -4.174e-08
278.28, -3.784e-08
280.28, -3.975e-08
282.28, -3.888e-08
284.28, -3.906e-08
286.29, -3.906e-08
288.29, -4.256e-08
290.29, -4.061e-08
292.29, -3.757e-08
294.29, -3.897e-08
296.3, -4.082e-08
298.3, -3.943e-08
300.3, -4.127e-08
302.3, -3.971e-08
304.3, -3.839e-08
306.31, -4.377e-08
308.31, -4.031e-08
310.31, -3.962e-08
312.31, -4.258e-08
314.31, -4.018e-08
316.32, -4.077e-08
318.32, -4.291e-08
320.32, -4.119e-08
322.32, -3.681e-08
324.32, -4.007e-08
326.33, -3.31e-08
328.33, -3.752e-08
330.33, -3.736e-08
332.33, -3.735e-08
334.33, -4.082e-08
336.34, -3.911e-08
338.34, -3.673e-08
340.34, -3.526e-08
342.34, -3.869e-08
344.34, -3.62e-08
346.35, -3.621e-08
348.35, -3.748e-08
350.35, -3.758e-08
352.35, -3.499e-08
354.35, -3.458e-08
356.36, -3.929e-08
358.36, -4.025e-08
360.36, -3.292e-08
362.36, -3.878e-08
364.36, -3.68e-08
366.37, -3.585e-08
368.37, -3.619e-08
370.37, -3.749e-08
372.37, -3.969e-08
374.37, -3.792e-08
376.38, -3.896e-08
378.38, -3.799e-08
380.38, -3.884e-08
382.38, -4.141e-08
384.38, -4.024e-08
386.39, -4.447e-08
388.39, -3.784e-08
390.39, -3.878e-08
392.39, -4.014e-08
394.39, -3.845e-08
396.4, -3.891e-08
398.4, -4.009e-08
400.4, -4.19e-08
402.4, -4.036e-08
404.4, -4.067e-08
406.41, -4.216e-08
408.41, -4.141e-08
410.41, -3.802e-08
412.41, -3.967e-08
414.41, -4.008e-08
416.42, -3.806e-08
418.42, -3.736e-08
420.42, -3.541e-08
422.42, -3.526e-08
424.42, -3.369e-08
426.43, -3.56e-08
428.43, -3.499e-08
430.43, -3.06e-08
432.43, -3.274e-08
434.43, -3.683e-08
436.44, -3.277e-08
438.44, -3.483e-08
440.44, -3.595e-08
442.44, -3.452e-08
444.44, -3.36e-08
446.45, -3.476e-08
448.45, -3.312e-08
450.45, -3.298e-08
452.45, -3.688e-08
454.45, -3.484e-08
456.46, -3.546e-08
458.46, -3.251e-08
460.46, -3.504e-08
462.46, -3.437e-08
464.46, -3.492e-08
466.47, -3.658e-08
468.47, -3.638e-08
470.47, -3.479e-08
472.47, -3.773e-08
474.47, -3.635e-08
476.48, -3.947e-08
478.48, -3.854e-08
480.48, -3.999e-08
482.48, -3.16e-08
484.48, -4.048e-08
486.49, -4.071e-08
488.49, -3.865e-08
490.49, -3.511e-08
492.49, -3.848e-08
494.49, -3.599e-08
496.5, -3.778e-08
498.5, -3.505e-08
500.5, -3.669e-08
502.5, -3.543e-08
504.5, -3.603e-08
506.51, -3.809e-08
508.51, -3.777e-08
510.51, -3.535e-08
512.51, -3.763e-08
514.51, -3.411e-08
516.52, -3.801e-08
518.52, -3.761e-08
520.52, -3.782e-08
522.52, -3.653e-08
524.52, -3.538e-08
526.53, -3.47e-08
528.53, -3.475e-08
530.53, -3.566e-08
532.53, -3.784e-08
534.53, -3.886e-08
536.54, -4.121e-08
538.54, -4.112e-08
540.54, -4.107e-08
542.54, -3.746e-08
544.54, -4.045e-08
546.55, -3.845e-08
548.55, -4.047e-08
550.55, -3.952e-08
552.55, -3.864e-08
554.55, -4.003e-08
556.56, -4.132e-08
558.56, -4.097e-08
560.56, -3.835e-08
562.56, -4.078e-08
564.56, -3.774e-08
566.57, -3.905e-08
568.57, -4.396e-08
570.57, -4.258e-08
572.57, -4.093e-08
574.57, -3.78e-08
576.58, -3.924e-08
578.58, -3.753e-08
580.58, -3.986e-08
582.58, -4.169e-08
584.58, -3.913e-08
586.59, -4.106e-08
588.59, -3.446e-08
590.59, -4.029e-08
592.59, -3.769e-08
594.59, -3.692e-08
596.6, -3.615e-08
598.6, -3.82e-08
600.6, -3.882e-08
602.6, -3.756e-08
604.6, -3.63e-08
606.61, -4.021e-08
608.61, -3.804e-08
610.61, -3.9e-08
612.61, -3.687e-08
614.61, -3.826e-08
616.62, -3.893e-08
618.62, -4.082e-08
620.62, -3.724e-08
622.62, -3.515e-08
624.62, -3.876e-08
626.63, -3.779e-08
628.63, -3.894e-08
630.63, -3.287e-08
632.63, -3.551e-08
634.63, -4.132e-08
636.64, -3.675e-08
638.64, -3.827e-08
640.64, -3.641e-08
642.64, -3.976e-08
644.64, -3.374e-08
646.65, -3.663e-08
648.65, -3.666e-08
650.65, -3.706e-08
652.65, -3.481e-08
654.65, -4.074e-08
656.66, -4.445e-08
658.66, -4.366e-08
660.66, -3.777e-08
662.66, -3.59e-08
664.66, -3.5e-08
666.67, -3.737e-08
668.67, -3.915e-08
670.67, -3.505e-08
672.67, -3.38e-08
674.67, -3.727e-08
676.68, -3.408e-08
678.68, -3.186e-08
680.68, -3.314e-08
682.68, -3.699e-08
684.68, -3.987e-08
686.69, -3.875e-08
688.69, -3.819e-08
690.69, -3.668e-08
692.69, -3.935e-08
694.69, -3.564e-08
696.7, -3.8e-08
698.7, -3.223e-08
700.7, -3.362e-08
702.7, -3.686e-08
704.7, -3.094e-08
706.71, -3.763e-08
708.71, -3.915e-08
710.71, -3.8e-08
712.71, -3.596e-08
714.71, -3.579e-08
716.72, -3.67e-08
718.72, -3.726e-08
720.72, -3.922e-08
722.72, -3.997e-08
724.72, -3.774e-08
726.73, -3.881e-08
728.73, -4.064e-08
730.73, -4.161e-08
732.73, -4.176e-08
734.73, -4.167e-08
736.74, -4.457e-08
738.74, -4.337e-08
740.74, -4.356e-08
742.74, -3.772e-08
744.74, -3.995e-08
746.75, -3.796e-08
748.75, -3.94e-08
750.75, -3.749e-08
752.75, -3.884e-08
754.75, -4.138e-08
756.76, -3.629e-08
758.76, -3.982e-08
760.76, -3.772e-08
762.76, -3.758e-08
764.76, -3.74e-08
766.77, -3.399e-08
768.77, -3.859e-08
770.77, -3.464e-08
772.77, -3.638e-08
774.77, -3.893e-08
776.78, -3.57e-08
778.78, -4.066e-08
780.78, -3.588e-08
782.78, -3.901e-08
784.78, -3.738e-08
786.79, -4.009e-08
788.79, -3.975e-08
790.79, -4.051e-08
792.79, -4.03e-08
794.79, -4.428e-08
796.8, -4.085e-08
798.8, -3.665e-08
800.8, -3.923e-08
802.8, -3.835e-08
804.8, -3.881e-08
806.81, -3.923e-08
808.81, -4.293e-08
810.81, -3.888e-08
812.81, -4.062e-08
814.81, -3.882e-08
816.82, -4.189e-08
818.82, -4.126e-08
820.82, -3.956e-08
822.82, -4.612e-08
824.82, -4.259e-08
826.83, -4.16e-08
828.83, -4.265e-08
830.83, -4.26e-08
832.83, -3.997e-08
834.83, -3.963e-08
836.84, -3.92e-08
838.84, -4.158e-08
840.84, -4.202e-08
842.84, -3.893e-08
844.84, -4.16e-08
846.85, -3.944e-08
848.85, -4.304e-08
850.85, -4.331e-08
852.85, -4.065e-08
854.85, -3.553e-08
856.86, -3.806e-08
858.86, -3.718e-08
860.86, -3.523e-08
862.86, -4.136e-08
864.86, -3.904e-08
866.87, -3.995e-08
868.87, -3.91e-08
870.87, -3.864e-08
872.87, -4.129e-08
874.87, -4.072e-08
876.88, -4.054e-08
878.88, -4.141e-08
880.88, -4.06e-08
882.88, -4.146e-08
884.88, -3.846e-08
886.89, -3.76e-08
888.89, -3.86e-08
890.89, -4.228e-08
892.89, -3.9e-08
894.89, -4.399e-08
896.9, -4.039e-08
898.9, -3.969e-08
900.9, -3.696e-08
902.9, -4.055e-08
904.9, -4.633e-08
906.91, -4.002e-08
908.91, -4.543e-08
910.91, -4.742e-08
912.91, -3.987e-08
914.91, -3.963e-08
916.92, -3.913e-08
918.92, -4.136e-08
920.92, -3.861e-08
922.92, -4.04e-08
924.92, -3.85e-08
926.93, -4.211e-08
928.93, -3.827e-08
930.93, -3.96e-08
932.93, -4.334e-08
934.93, -3.966e-08
936.94, -4.15e-08
938.94, -3.9e-08
940.94, -4.023e-08
942.94, -3.87e-08
944.94, -3.97e-08
946.95, -3.784e-08
948.95, -3.943e-08
950.95, -3.717e-08
952.95, -3.661e-08
954.95, -3.683e-08
956.96, -3.928e-08
958.96, -3.854e-08
960.96, -4.005e-08
962.96, -3.942e-08
964.96, -3.629e-08
966.97, -3.95e-08
968.97, -4.03e-08
970.97, -3.702e-08
972.97, -4.056e-08
974.97, -3.781e-08
976.98, -3.944e-08
978.98, -4.223e-08
980.98, -3.673e-08
982.98, -3.953e-08
984.98, -3.573e-08
986.99, -4.124e-08
988.99, -4.368e-08
990.99, -3.914e-08
992.99, -4.354e-08
994.99, -3.948e-08
997.0, -3.787e-08
999.0, -4.243e-08
1001.0, -3.615e-08
1003.0, -3.189e-08
1005.0, -3.548e-08
1007.0, -3.547e-08
1009.0, -3.232e-08
1011.0, -3.695e-08
1013.0, -3.457e-08
1015.0, -3.217e-08
1017.0, -3.422e-08
1019.0, -3.316e-08
1021.0, -3.35e-08
1023.0, -3.23e-08
1025.0, -3.566e-08
1027.0, -4.125e-08
1029.0, -3.669e-08
1031.0, 3.668e-08
1033.0, 7.593e-08
1035.0, 8.65e-08
1037.0, 6.599e-08
1039.0, 8.297e-08
1041.0, 5.207e-08
1043.0, 8.867e-08
1045.0, 6.669e-08
1047.0, 7.636e-08
1049.0, 5.236e-08
1051.0, 1.0436e-07
1053.1, 8.898e-08
1055.1, 5.191e-08
1057.1, 7.076e-08
1059.1, 8.46e-08
1061.1, 6.714e-08
1063.1, 6.836e-08
1065.1, 8.201e-08
1067.1, 9.401e-08
1069.1, 8.595e-08
1071.1, 8.034e-08
1073.1, 8.758e-08
1075.1, 8.489e-08
1077.1, 8.61e-08
1079.1, 9.162e-08
1081.1, 6.222e-08
1083.1, 9.198e-08
1085.1, 8.123e-08
1087.1, 8.076e-08
1089.1, 8.844e-08
1091.1, 7.595e-08
1093.1, 8.246e-08
1095.1, 8.943e-08
1097.1, 8.394e-08
1099.1, 7.979e-08
1101.1, 9.134e-08
1103.1, 9.577e-08
1105.1, 7.802e-08
1107.1, 7.173e-08
1109.1, 8.828e-08
1111.1, 9.155e-08
1113.1, 7.591e-08
1115.1, 8.316e-08
1117.1, 7.488e-08
1119.1, 6.959e-08
1121.1, 6.816e-08
1123.1, 1.0065e-07
1125.1, 8.392e-08
1127.1, 1.0138e-07
1129.1, 1.019e-07
1131.1, 1.0616e-07
1133.1, 8.92e-08
1135.1, 8.948e-08
1137.1, 9.786e-08
1139.1, 8.094e-08
1141.1, 9.142e-08
1143.1, 8.568e-08
1145.1, 9.328e-08
1147.1, 8.225e-08
1149.1, 5.498e-08
1151.1, 9.932e-08
1153.2, 8.099e-08
1155.2, 9.046e-08
1157.2, 7.212e-08
1159.2, 1.1954e-07
1161.2, 1.0372e-07
1163.2, 9.752e-08
1165.2, 7.901e-08
1167.2, 1.2185e-07
1169.2, 9.171e-08
1171.2, 9.572e-08
1173.2, 8.455e-08
1175.2, 8.236e-08
1177.2, 6.298e-08
1179.2, 7.847e-08
1181.2, 1.0301e-07
1183.2, 1.0658e-07
1185.2, 8.171e-08
1187.2, 9.987e-08
1189.2, 6.862e-08
1191.2, 8.812e-08
1193.2, 1.0305e-07
1195.2, 7.085e-08
1197.2, 5.055e-08
1199.2, 8.644e-08
1201.2, 7.594e-08
1203.2, 9.403e-08
1205.2, 9.316e-08
1207.2, 9.554e-08
1209.2, 1.1923e-07
1211.2, 9.367e-08
1213.2, 8.662e-08
1215.2, 5.888e-08
1217.2, 8.812e-08
1219.2, 6.602e-08
1221.2, 8.469e-08
1223.2, 8.976e-08
1225.2, 7.078e-08
1227.2, 9.2e-08
1229.2, 7.584e-08
1231.2, 8.146e-08
1233.2, 6.387e-08
1235.2, 1.1386e-07
1237.2, 1.1518e-07
1239.2, 6.9e-08
1241.2, 6.741e-08
1243.2, 7.498e-08
1245.2, 8.215e-08
1247.2, 1.0563e-07
1249.2, 8.894e-08
1251.2, 8.48e-08
1253.3, 8.067e-08
1255.3, 8.833e-08
1257.3, 1.0013e-07
1259.3, 9.508e-08
1261.3, 7.528e-08
1263.3, 1.0935e-07
1265.3, 9.253e-08
1267.3, 9.488e-08
1269.3, 1.0355e-07
1271.3, 8.646e-08
1273.3, 1.1181e-07
1275.3, 8.548e-08
1277.3, 1.044e-07
1279.3, 9.721e-08
1281.3, 9.289e-08
1283.3, 9.686e-08
1285.3, 8.405e-08
1287.3, 7.197e-08
1289.3, 7.837e-08
1291.3, 1.1893e-07
1293.3, 6.93e-08
1295.3, 8.084e-08
1297.3, 8.585e-08
1299.3, 1.0637e-07
1301.3, 8.404e-08
1303.3, 7.708e-08
1305.3, 9.814e-08
1307.3, 7.658e-08
1309.3, 9.325e-08
1311.3, 8.228e-08
1313.3, 8.45e-08
1315.3, 8.147e-08
1317.3, 1.2064e-07
1319.3, 8.793e-08
1321.3, 1.0524e-07
1323.3, 9.706e-08
1325.3, 1.0822e-07
1327.3, 9.404e-08
1329.3, 8.044e-08
1331.3, 9.082e-08
1333.3, 9.087e-08
1335.3, 8.069e-08
1337.3, 1.3126e-07
1339.3, 8.961e-08
1341.3, 1.0393e-07
1343.3, 9.036e-08
1345.3, 8.291e-08
1347.3, 9.994e-08
1349.3, 8.602e-08
1351.3, 6.459e-08
1353.4, 1.1099e-07
1355.4, 9.626e-08
1357.4, 8.56e-08
1359.4, 8.974e-08
1361.4, 1.1073e-07
1363.4, 9.281e-08
1365.4, 9.135e-08
1367.4, 8.878e-08
1369.4, 8.037e-08
1371.4, 7.301e-08
1373.4, 8.563e-08
1375.4, 9.413e-08
1377.4, 1.1546e-07
1379.4, 1.0187e-07
1381.4, 8.167e-08
1383.4, 1.1109e-07
1385.4, 8e-08
1387.4, 9.735e-08
1389.4, 1.0813e-07
1391.4, 6.765e-08
1393.4, 8.374e-08
1395.4, 1.0366e-07
1397.4, 6.166e-08
1399.4, 9.676e-08
1401.4, 1.0305e-07
1403.4, 6.3e-08
1405.4, 1.0626e-07
1407.4, 8.041e-08
1409.4, 9.242e-08
1411.4, 8.01e-08
1413.4, 9.409e-08
1415.4, 7.621e-08
1417.4, 7.994e-08
1419.4, 1.0481e-07
1421.4, 1.0094e-07
1423.4, 9.155e-08
1425.4, 6.554e-08
1427.4, 8.336e-08
1429.4, 8.048e-08
1431.4, 7.867e-08
1433.4, 8.516e-08
1435.4, 7.859e-08
1437.4, 8.719e-08
1439.4, 8.205e-08
1441.4, 8.563e-08
1443.4, 8.12e-08
1445.4, 8.892e-08
1447.4, 9.815e-08
1449.4, 9.73e-08
1451.4, 1.0169e-07
1453.5, 8.448e-08
1455.5, 6.229e-08
1457.5, 7.503e-08
1459.5, 9.944e-08
1461.5, 8.392e-08
1463.5, 8.708e-08
1465.5, 8.098e-08
1467.5, 7.388e-08
1469.5, 9.495e-08
1471.5, 1.0563e-07
1473.5, 7.982e-08
1475.5, 7.645e-08
1477.5, 7.646e-08
1479.5, 8.829e-08
1481.5, 6.643e-08
1483.5, 9.267e-08
1485.5, 1.0579e-07
1487.5, 9.03e-08
1489.5, 7.478e-08
1491.5, 9.668e-08
1493.5, 8.817e-08
1495.5, 8.87e-08
1497.5, 1.0561e-07
1499.5, 6.807e-08
1501.5, 8.087e-08
1503.5, 8.734e-08
1505.5, 8.897e-08
1507.5, 1.0454e-07
1509.5, 6.661e-08
1511.5, 6.84e-08
1513.5, 1.1291e-07
1515.5, 1.0743e-07
1517.5, 1.0864e-07
1519.5, 8.328e-08
1521.5, 1.0071e-07
1523.5, 1.1162e-07
1525.5, 7.529e-08
1527.5, 7.277e-08
1529.5, 1.0172e-07
1531.5, 9.096e-08
1533.5, 6.013e-08
1535.5, 9.355e-08
1537.5, 8.549e-08
1539.5, 7.379e-08
1541.5, 7.906e-08
1543.5, 7.847e-08
1545.5, 9.794e-08
1547.5, 1.005e-07
1549.5, 7.903e-08
1551.5, 1.0463e-07
1553.6, 1.1202e-07
1555.6, 5.827e-08
1557.6, 8.718e-08
1559.6, 7.574e-08
1561.6, 7.303e-08
1563.6, 1.0784e-07
1565.6, 1.0626e-07
1567.6, 1.1057e-07
1569.6, 8.738e-08
1571.6, 1.0808e-07
1573.6, 1.0102e-07
1575.6, 8.874e-08
1577.6, 1.0398e-07
1579.6, 1.0094e-07
1581.6, 9.83e-08
1583.6, 7.963e-08
1585.6, 8.934e-08
1587.6, 1.1698e-07
1589.6, 8.312e-08
1591.6, 1.137e-07
1593.6, 9.798e-08
1595.6, 9.247e-08
1597.6, 1.1584e-07
1599.6, 7.797e-08
1601.6, 9.626e-08
1603.6, 7.901e-08
1605.6, 1.0946e-07
1607.6, 6.789e-08
1609.6, 9.644e-08
1611.6, 1.0909e-07
1613.6, 9.672e-08
1615.6, 7.547e-08
1617.6, 1.0764e-07
1619.6, 5.307e-08
1621.6, 1.0151e-07
1623.6, 1.0325e-07
1625.6, 1.1572e-07
1627.6, 9.121e-08
1629.6, 1.1088e-07
1631.6, 7.666e-08
1633.6, 9.269e-08
1635.6, 7.892e-08
1637.6, 1.039e-07
1639.6, 8.231e-08
1641.6, 1.1616e-07
1643.6, 7.939e-08
1645.6, 8.293e-08
1647.6, 1.008e-07
1649.6, 8.726e-08
1651.6, 7.628e-08
1653.7, 1.0055e-07
1655.7, 8.804e-08
1657.7, 8.432e-08
1659.7, 1.1473e-07
1661.7, 8.174e-08
1663.7, 7.933e-08
1665.7, 9.886e-08
1667.7, 8.181e-08
1669.7, 1.1148e-07
1671.7, 9.809e-08
1673.7, 1.1241e-07
1675.7, 1.0967e-07
1677.7, 8.943e-08
1679.7, 8.449e-08
1681.7, 8.832e-08
1683.7, 7.835e-08
1685.7, 1.1298e-07
1687.7, 6.48e-08
1689.7, 7.558e-08
1691.7, 7.963e-08
1693.7, 1.1065e-07
1695.7, 9.959e-08
1697.7, 8.281e-08
1699.7, 8.191e-08
1701.7, 1.0417e-07
1703.7, 9.551e-08
1705.7, 1.0006e-07
1707.7, 1.14e-07
1709.7, 8.595e-08
1711.7, 1.013e-07
1713.7, 1.182e-07
1715.7, 1.0784e-07
1717.7, 1.1069e-07
1719.7, 7.431e-08
1721.7, 8.657e-08
1723.7, 1.033e-07
1725.7, 9.829e-08
1727.7, 1.013e-07
1729.7, 1.0567e-07
1731.7, 9.33e-08
1733.7, 9.357e-08
1735.7, 1.0092e-07
1737.7, 1.1558e-07
1739.7, 7.994e-08
1741.7, 1.0064e-07
1743.7, 1.1219e-07
1745.7, 7.074e-08
1747.7, 9.519e-08
1749.7, 9.492e-08
1751.7, 9.647e-08
1753.8, 1.2274e-07
1755.8, 1.1513e-07
1757.8, 8.672e-08
1759.8, 9.194e-08
1761.8, 1.273e-07
1763.8, 9.8e-08
1765.8, 1.1486e-07
1767.8, 1.0557e-07
1769.8, 8.905e-08
1771.8, 9.293e-08
1773.8, 7.25e-08
1775.8, 9.327e-08
1777.8, 8e-08
1779.8, 9.375e-08
1781.8, 1.0102e-07
1783.8, 9.093e-08
1785.8, 7.76e-08
1787.8, 9.572e-08
1789.8, 1.0158e-07
1791.8, 9.077e-08
1793.8, 1.1219e-07
1795.8, 1.0116e-07
1797.8, 7.737e-08
1799.8, 1.0169e-07
1801.8, 1.1831e-07
1803.8, 1.3226e-07
1805.8, 8.127e-08
1807.8, 1.3523e-07
1809.8, 1.0591e-07
1811.8, 1.0894e-07
1813.8, 9.434e-08
1815.8, 1.0243e-07
1817.8, 1.0463e-07
1819.8, 1.0845e-07
1821.8, 9.798e-08
1823.8, 1.1377e-07
1825.8, 9.755e-08
1827.8, 8.672e-08
1829.8, 1.0501e-07
1831.8, 1.0799e-07
1833.8, 8.514e-08
1835.8, 1.08e-07
1837.8, 1.0104e-07
1839.8, 1.0891e-07
1841.8, 1.0924e-07
1843.8, 1.1864e-07
1845.8, 1.2073e-07
1847.8, 7.339e-08
1849.8, 1.0984e-07
1851.8, 7.182e-08
1853.9, 8.375e-08
1855.9, 1.0937e-07
1857.9, 1.0528e-07
1859.9, 9.84e-08
1861.9, 7.311e-08
1863.9, 1.0651e-07
1865.9, 8.793e-08
1867.9, 7.733e-08
1869.9, 1.0273e-07
1871.9, 6.74e-08
1873.9, 8.497e-08
1875.9, 9.133e-08
1877.9, 9.661e-08
1879.9, 1.0457e-07
1881.9, 9.341e-08
1883.9, 1.0279e-07
1885.9, 7.82e-08
1887.9, 1.1267e-07
1889.9, 7.953e-08
1891.9, 7.041e-08
1893.9, 1.0098e-07
1895.9, 1.1199e-07
1897.9, 9.817e-08
1899.9, 1.0957e-07
1901.9, 7.829e-08
1903.9, 1.0053e-07
1905.9, 9.289e-08
1907.9, 9.568e-08
1909.9, 1.1217e-07
1911.9, 8.104e-08
1913.9, 1.0338e-07
1915.9, 7.331e-08
1917.9, 1.2277e-07
1919.9, 1.1983e-07
1921.9, 8.474e-08
1923.9, 1.0631e-07
1925.9, 1.0421e-07
1927.9, 7.872e-08
1929.9, 1.0941e-07
1931.9, 1.0308e-07
1933.9, 1.0589e-07
1935.9, 1.0076e-07
1937.9, 1.0074e-07
1939.9, 8.045e-08
1941.9, 9.493e-08
1943.9, 1.0581e-07
1945.9, 1.1669e-07
1947.9, 9.976e-08
1949.9, 4.936e-08
1951.9, 1.1247e-07
1954.0, 9.935e-08
1956.0, 1.1029e-07
1958.0, 8.758e-08
1960.0, 1.2398e-07
1962.0, 9.8e-08
1964.0, 1.0638e-07
1966.0, 1.0492e-07
1968.0, 1.1772e-07
1970.0, 9.748e-08
1972.0, 1.3888e-07
1974.0, 8.428e-08
1976.0, 1.0455e-07
1978.0, 1.0396e-07
1980.0, 1.0635e-07
1982.0, 1.2891e-07
1984.0, 1.1634e-07
1986.0, 1.0086e-07
1988.0, 1.0925e-07
1990.0, 1.0454e-07
1992.0, 9.545e-08
1994.0, 8.725e-08
1996.0, 1.0132e-07
1998.0, 8.183e-08
2000.0, 8.355e-08
2002.0, 9.541e-08
2004.0, 8.799e-08
2006.0, 1.1375e-07
2008.0, 8.019e-08
2010.0, 9.067e-08
2012.0, 9.328e-08
2014.0, 9.71e-08
2016.0, 1.0636e-07
2018.0, 9.632e-08
2020.0, 9.886e-08
2022.0, 1.0435e-07
2024.0, 9.229e-08
2026.0, 1.013e-07
2028.0, 9.384e-08
2030.0, 1.1108e-07
2032.0, 3.622e-08
2034.0, -3.78e-08
2036.0, -4.033e-08
2038.0, -3.952e-08
2040.0, -4.14e-08
2042.0, -4.273e-08
2044.0, -3.74e-08
2046.0, -3.967e-08
2048.0, -3.925e-08
2050.0, -3.737e-08
2052.0, -4.211e-08
2054.1, -4.58e-08
2056.1, -4.135e-08
2058.1, -4.151e-08
2060.1, -4.09e-08
2062.1, -4.099e-08
2064.1, -4.18e-08
2066.1, -4.215e-08
2068.1, -4.118e-08
2070.1, -3.948e-08
2072.1, -4.005e-08
2074.1, -3.539e-08
2076.1, -4.168e-08
2078.1, -4.459e-08
2080.1, -4.37e-08
2082.1, -3.79e-08
2084.1, -4.008e-08
2086.1, -3.86e-08
2088.1, -4.237e-08
2090.1, -3.979e-08
2092.1, -4.376e-08
2094.1, -4.395e-08
2096.1, -4.091e-08
2098.1, -3.949e-08
2100.1, -4.04e-08
2102.1, -4.288e-08
2104.1, -4.059e-08
2106.1, -3.764e-08
2108.1, -4.189e-08
2110.1, -3.908e-08
2112.1, -3.963e-08
2114.1, -4.131e-08
2116.1, -4.124e-08
2118.1, -4.059e-08
2120.1, -3.949e-08
2122.1, -3.976e-08
2124.1, -3.883e-08
2126.1, -3.85e-08
2128.1, -3.942e-08
2130.1, -3.753e-08
2132.1, -3.857e-08
2134.1, -4.058e-08
2136.1, -4.207e-08
2138.1, -4.083e-08
2140.1, -3.918e-08
2142.1, -3.97e-08
2144.1, -3.973e-08
2146.1, -4.196e-08
2148.1, -4.02e-08
2150.1, -4.265e-08
2152.1, -4.305e-08
2154.2, -4.184e-08
2156.2, -4.215e-08
2158.2, -4.186e-08
2160.2, -4.318e-08
2162.2, -4.338e-08
2164.2, -4.275e-08
2166.2, -3.795e-08
2168.2, -4.166e-08
2170.2, -4.211e-08
2172.2, -4.129e-08
2174.2, -4.463e-08
2176.2, -4.304e-08
2178.2, -3.785e-08
2180.2, -4.035e-08
2182.2, -4.042e-08
2184.2, -3.959e-08
2186.2, -3.988e-08
2188.2, -4.174e-08
2190.2, -4.05e-08
2192.2, -3.827e-08
2194.2, -3.776e-08
2196.2, -3.789e-08
2198.2, -3.858e-08
2200.2, -3.654e-08
2202.2, -3.507e-08
2204.2, -3.983e-08
2206.2, -4.168e-08
2208.2, -4.019e-08
2210.2, -4.103e-08
2212.2, -4.039e-08
2214.2, -3.8e-08
2216.2, -3.912e-08
2218.2, -3.955e-08
2220.2, -4.173e-08
2222.2, -3.823e-08
2224.2, -4.009e-08
2226.2, -4.232e-08
2228.2, -3.901e-08
2230.2, -4.373e-08
2232.2, -3.931e-08
2234.2, -4.279e-08
2236.2, -4.508e-08
2238.2, -4.399e-08
2240.2, -4.273e-08
2242.2, -3.895e-08
2244.2, -3.856e-08
2246.2, -3.76e-08
2248.2, -4.006e-08
2250.2, -4.039e-08
2252.2, -4.627e-08
2254.3, -4.052e-08
2256.3, -4.34e-08
2258.3, -4.306e-08
2260.3, -4.338e-08
2262.3, -4.045e-08
2264.3, -4.256e-08
2266.3, -4.468e-08
2268.3, -4.343e-08
2270.3, -3.929e-08
2272.3, -4.076e-08
2274.3, -4.521e-08
2276.3, -4.132e-08
2278.3, -4.063e-08
2280.3, -4.088e-08
2282.3, -3.968e-08
2284.3, -3.973e-08
2286.3, -4.013e-08
2288.3, -3.864e-08
2290.3, -4.015e-08
2292.3, -4.059e-08
2294.3, -4.275e-08
2296.3, -4.556e-08
2298.3, -4.214e-08
2300.3, -3.986e-08
2302.3, -3.916e-08
2304.3, -3.818e-08
2306.3, -4.242e-08
2308.3, -4.075e-08
2310.3, -4.251e-08
2312.3, -4.127e-08
2314.3, -4.228e-08
2316.3, -4.273e-08
2318.3, -4.133e-08
2320.3, -4.418e-08
2322.3, -4.187e-08
2324.3, -4.282e-08
2326.3, -4.189e-08
2328.3, -4.154e-08
2330.3, -4.336e-08
2332.3, -4.34e-08
2334.3, -4.633e-08
2336.3, -3.98e-08
2338.3, -4.457e-08
2340.3, -4.443e-08
2342.3, -3.983e-08
2344.3, -4.118e-08
2346.3, -3.811e-08
2348.3, -4.233e-08
2350.3, -3.98e-08
2352.3, -3.829e-08
2354.4, -3.757e-08
2356.4, -3.657e-08
2358.4, -4.371e-08
2360.4, -3.791e-08
2362.4, -3.397e-08
2364.4, -3.787e-08
2366.4, -3.755e-08
2368.4, -3.978e-08
2370.4, -3.916e-08
2372.4, -3.619e-08
2374.4, -3.969e-08
2376.4, -3.789e-08
2378.4, -4.121e-08
2380.4, -4.112e-08
2382.4, -4.176e-08
2384.4, -3.791e-08
2386.4, -3.906e-08
2388.4, -4.07e-08
2390.4, -4.044e-08
2392.4, -4.413e-08
2394.4, -4.394e-08
2396.4, -3.933e-08
2398.4, -4.154e-08
2400.4, -4.249e-08
2402.4, -4.213e-08
2404.4, -4.537e-08
2406.4, -4.29e-08
2408.4, -4.173e-08
2410.4, -4.421e-08
2412.4, -4.385e-08
2414.4, -3.947e-08
2416.4, -4.034e-08
2418.4, -4.134e-08
2420.4, -4.27e-08
2422.4, -4.3e-08
2424.4, -3.913e-08
2426.4, -3.981e-08
2428.4, -4.283e-08
2430.4, -4.109e-08
2432.4, -4.018e-08
2434.4, -3.944e-08
2436.4, -4.109e-08
2438.4, -4.46e-08
2440.4, -4.075e-08
2442.4, -3.615e-08
2444.4, -4.318e-08
2446.4, -4.115e-08
2448.4, -4.242e-08
2450.4, -4.18e-08
2452.4, -3.645e-08
2454.5, -4.183e-08
2456.5, -4.345e-08
2458.5, -3.93e-08
2460.5, -4.199e-08
2462.5, -3.601e-08
2464.5, -3.658e-08
2466.5, -3.732e-08
2468.5, -4.19e-08
2470.5, -4.3e-08
2472.5, -3.795e-08
2474.5, -4.088e-08
2476.5, -4.224e-08
2478.5, -4.173e-08
2480.5, -4.161e-08
2482.5, -4.255e-08
2484.5, -4.081e-08
2486.5, -4.293e-08
2488.5, -4.549e-08
2490.5, -4.332e-08
2492.5, -4.196e-08
2494.5, -4.423e-08
2496.5, -4.374e-08
2498.5, -4.781e-08
2500.5, -4.638e-08
2502.5, -4.502e-08
2504.5, -4.657e-08
2506.5, -4.178e-08
2508.5, -4.17e-08
2510.5, -4.099e-08
2512.5, -4.223e-08
2514.5, -4.159e-08
2516.5, -3.922e-08
2518.5, -4.527e-08
2520.5, -4.091e-08
2522.5, -4.064e-08
2524.5, -4.065e-08
2526.5, -4.251e-08
2528.5, -3.957e-08
2530.5, -4.727e-08
2532.5, -4.061e-08
2534.5, -3.816e-08
2536.5, -4.252e-08
2538.5, -3.854e-08
2540.5, -3.952e-08
2542.5, -4.372e-08
2544.5, -4.356e-08
2546.5, -3.999e-08
2548.5, -4.252e-08
2550.5, -3.76e-08
2552.5, -3.923e-08
2554.6, -3.983e-08
2556.6, -4.001e-08
2558.6, -4.247e-08
2560.6, -4.243e-08
2562.6, -4.222e-08
2564.6, -4.143e-08
2566.6, -4.013e-08
2568.6, -4.167e-08
2570.6, -4.252e-08
2572.6, -4.027e-08
2574.6, -4.236e-08
2576.6, -4.306e-08
2578.6, -3.795e-08
2580.6, -4.151e-08
2582.6, -4.276e-08
2584.6, -4.089e-08
2586.6, -4.181e-08
2588.6, -4.071e-08
2590.6, -4.175e-08
2592.6, -3.97e-08
2594.6, -3.993e-08
2596.6, -4.212e-08
2598.6, -4.252e-08
2600.6, -4.29e-08
2602.6, -4.397e-08
2604.6, -4.216e-08
2606.6, -4.269e-08
2608.6, -4.402e-08
2610.6, -4.551e-08
2612.6, -4.344e-08
2614.6, -4.294e-08
2616.6, -4.561e-08
2618.6, -4.501e-08
2620.6, -4.022e-08
2622.6, -4.535e-08
2624.6, -3.955e-08
2626.6, -4.135e-08
2628.6, -4.497e-08
2630.6, -4.331e-08
2632.6, -4.165e-08
2634.6, -4.182e-08
2636.6, -4.345e-08
2638.6, -4.47e-08
2640.6, -4.249e-08
2642.6, -4.671e-08
2644.6, -4.508e-08
2646.6, -4.612e-08
2648.6, -4.308e-08
2650.6, -4.393e-08
2652.6, -4.138e-08
2654.7, -4.223e-08
2656.7, -4.501e-08
2658.7, -4.567e-08
2660.7, -4.984e-08
2662.7, -4.609e-08
2664.7, -4.454e-08
2666.7, -4.4e-08
2668.7, -4.773e-08
2670.7, -4.358e-08
2672.7, -4.643e-08
2674.7, -4.257e-08
2676.7, -4.572e-08
2678.7, -4.623e-08
2680.7, -4.419e-08
2682.7, -4.919e-08
2684.7, -4.526e-08
2686.7, -4.474e-08
2688.7, -4.661e-08
2690.7, -4.258e-08
2692.7, -3.982e-08
2694.7, -4.16e-08
2696.7, -4.306e-08
2698.7, -4.084e-08
2700.7, -3.975e-08
2702.7, -3.922e-08
2704.7, -3.834e-08
2706.7, -3.771e-08
2708.7, -3.751e-08
2710.7, -3.879e-08
2712.7, -4.1e-08
2714.7, -3.703e-08
2716.7, -3.992e-08
2718.7, -3.885e-08
2720.7, -4.159e-08
2722.7, -4.131e-08
2724.7, -4.235e-08
2726.7, -4.424e-08
2728.7, -4.382e-08
2730.7, -4.429e-08
2732.7, -4.21e-08
2734.7, -4.399e-08
2736.7, -4.228e-08
2738.7, -4.558e-08
2740.7, -4.357e-08
2742.7, -4.167e-08
2744.7, -4.075e-08
2746.7, -4.549e-08
2748.7, -4.446e-08
2750.7, -4.577e-08
2752.7, -4.079e-08
2754.8, -3.862e-08
2756.8, -3.835e-08
2758.8, -3.891e-08
2760.8, -3.763e-08
2762.8, -3.502e-08
2764.8, -3.692e-08
2766.8, -3.998e-08
2768.8, -3.977e-08
2770.8, -3.746e-08
2772.8, -4.271e-08
2774.8, -4.097e-08
2776.8, -4.169e-08
2778.8, -4.156e-08
2780.8, -4.192e-08
2782.8, -4.074e-08
2784.8, -4.14e-08
2786.8, -4.275e-08
2788.8, -4.126e-08
2790.8, -4.132e-08
2792.8, -4.049e-08
2794.8, -4.308e-08
2796.8, -4.237e-08
2798.8, -4.14e-08
2800.8, -4.423e-08
2802.8, -4.562e-08
2804.8, -4.449e-08
2806.8, -4.134e-08
2808.8, -4.166e-08
2810.8, -4.195e-08
2812.8, -4.383e-08
2814.8, -4.627e-08
2816.8, -4.054e-08
2818.8, -4.645e-08
2820.8, -4.773e-08
2822.8, -4.675e-08
2824.8, -4.107e-08
2826.8, -4.572e-08
2828.8, -4.419e-08
2830.8, -4.276e-08
2832.8, -4.548e-08
2834.8, -4.05e-08
2836.8, -4.692e-08
2838.8, -4.796e-08
2840.8, -4.585e-08
2842.8, -4.392e-08
2844.8, -4.199e-08
2846.8, -4.504e-08
2848.8, -4.458e-08
2850.8, -4.495e-08
2852.8, -4.254e-08
2854.9, -4.088e-08
2856.9, -4.221e-08
2858.9, -4.319e-08
2860.9, -4.463e-08
2862.9, -4.211e-08
2864.9, -3.983e-08
2866.9, -4.286e-08
2868.9, -4.533e-08
2870.9, -4.674e-08
2872.9, -4.558e-08
2874.9, -4.383e-08
2876.9, -4.668e-08
2878.9, -4.419e-08
2880.9, -4.334e-08
2882.9, -4.358e-08
2884.9, -4.205e-08
2886.9, -4.476e-08
2888.9, -4.167e-08
2890.9, -4.084e-08
2892.9, -4.676e-08
2894.9, -4.412e-08
2896.9, -4.522e-08
2898.9, -4.441e-08
2900.9, -4.551e-08
2902.9, -4.384e-08
2904.9, -4.407e-08
2906.9, -4.064e-08
2908.9, -4.155e-08
2910.9, -4.162e-08
2912.9, -4.331e-08
2914.9, -4.168e-08
2916.9, -4.224e-08
2918.9, -4.072e-08
2920.9, -4.094e-08
2922.9, -4.497e-08
2924.9, -3.689e-08
2926.9, -4.15e-08
2928.9, -4.224e-08
2930.9, -4.233e-08
2932.9, -4.308e-08
2934.9, -4.279e-08
2936.9, -4.196e-08
2938.9, -4.009e-08
2940.9, -4.211e-08
2942.9, -4.218e-08
2944.9, -4.128e-08
2946.9, -4.074e-08
2948.9, -4.161e-08
2950.9, -4.382e-08
2952.9, -4.339e-08
2955.0, -4.176e-08
2957.0, -4.047e-08
2959.0, -3.922e-08
2961.0, -4.003e-08
2963.0, -4.37e-08
2965.0, -4.264e-08
2967.0, -4.064e-08
2969.0, -4.715e-08
2971.0, -4.197e-08
2973.0, -4.371e-08
2975.0, -4.265e-08
2977.0, -3.993e-08
2979.0, -4.291e-08
2981.0, -4.071e-08
2983.0, -4.046e-08
2985.0, -3.754e-08
2987.0, -4.308e-08
2989.0, -4.352e-08
2991.0, -4.711e-08
2993.0, -4.731e-08
2995.0, -4.318e-08
2997.0, -4.427e-08
2999.0, -4.722e-08
3001.0, -4.826e-08
3003.0, -4.658e-08
3005.0, -4.587e-08
3007.0, -4.41e-08
3009.0, -4.72e-08
3011.0, -4.713e-08
3013.0, -4.451e-08
3015.0, -4.81e-08
3017.0, -4.512e-08
3019.0, -4.638e-08
3021.0, -4.52e-08
3023.0, -4.273e-08
3025.0, -4.571e-08
3027.0, -4.705e-08
3029.0, -4.787e-08
3031.0, -4.717e-08
3033.0, -4.662e-08
3035.0, -4.855e-08
3037.0, -4.427e-08
3039.0, -4.461e-08
3041.0, -4.166e-08
3043.0, -4.548e-08
3045.0, -4.599e-08
3047.0, -4.689e-08
3049.0, -4.269e-08
3051.0, -4.176e-08
3053.0, -4.221e-08
3055.1, -4.378e-08
3057.1, -4.621e-08
3059.1, -4.27e-08
3061.1, -4.401e-08
3063.1, -4.249e-08
3065.1, 2.162e-08
3067.1, 6.143e-08
3069.1, 5.987e-08
3071.1, 5.629e-08
3073.1, 6.075e-08
3075.1, 6.942e-08
3077.1, 5.172e-08
3079.1, 6.356e-08
3081.1, 7.208e-08
3083.1, 4.986e-08
3085.1, 8.591e-08
3087.1, 8.472e-08
3089.1, 7.122e-08
3091.1, 6.098e-08
3093.1, 5.827e-08
3095.1, 7.809e-08
3097.1, 3.621e-08
3099.1, 7.442e-08
3101.1, 1.073e-07
3103.1, 8.627e-08
3105.1, 8.719e-08
3107.1, 6.174e-08
3109.1, 7.175e-08
3111.1, 7.286e-08
3113.1, 7.172e-08
3115.1, 8.282e-08
3117.1, 6.827e-08
3119.1, 5.456e-08
3121.1, 8.769e-08
3123.1, 9.745e-08
3125.1, 6.596e-08
3127.1, 8.849e-08
3129.1, 6.86e-08
3131.1, 4.682e-08
3133.1, 6.797e-08
3135.1, 6.808e-08
3137.1, 9.643e-08
3139.1, 5.498e-08
3141.1, 8.059e-08
3143.1, 7.843e-08
3145.1, 9.397e-08
3147.1, 9.165e-08
3149.1, 6.006e-08
3151.1, 5.954e-08
3153.1, 7.268e-08
3155.2, 1.0506e-07
3157.2, 7.929e-08
3159.2, 9.533e-08
3161.2, 8.356e-08
3163.2, 6.5e-08
3165.2, 8.703e-08
3167.2, 8.869e-08
3169.2, 1.0403e-07
3171.2, 8.618e-08
3173.2, 7.295e-08
3175.2, 9.389e-08
3177.2, 6.854e-08
3179.2, 7.292e-08
3181.2, 7.555e-08
3183.2, 6.234e-08
3185.2, 5.073e-08
3187.2, 5.988e-08
3189.2, 7.888e-08
3191.2, 8.978e-08
3193.2, 9.118e-08
3195.2, 9.527e-08
3197.2, 9.71e-08
3199.2, 7.439e-08
3201.2, 8.314e-08
3203.2, 8.325e-08
3205.2, 7.383e-08
3207.2, 7.85e-08
3209.2, 8.446e-08
3211.2, 8.883e-08
3213.2, 4.152e-08
3215.2, 1.157e-07
3217.2, 5.44e-08
3219.2, 6.401e-08
3221.2, 6.332e-08
3223.2, 1.1659e-07
3225.2, 9.054e-08
3227.2, 7.906e-08
3229.2, 8.641e-08
3231.2, 9.368e-08
3233.2, 8.853e-08
3235.2, 8.007e-08
3237.2, 8.629e-08
3239.2, 1.0365e-07
3241.2, 9.63e-08
3243.2, 6.952e-08
3245.2, 1.3692e-07
3247.2, 8.634e-08
3249.2, 8.575e-08
3251.2, 7.657e-08
3253.2, 1.0006e-07
3255.3, 7.133e-08
3257.3, 1.0656e-07
3259.3, 1.0346e-07
3261.3, 8.7e-08
3263.3, 7.916e-08
3265.3, 8.92e-08
3267.3, 8.263e-08
3269.3, 7.199e-08
3271.3, 1.0945e-07
3273.3, 5.874e-08
3275.3, 7.687e-08
3277.3, 8.369e-08
3279.3, 1.0054e-07
3281.3, 9.18e-08
3283.3, 8.471e-08
3285.3, 9.071e-08
3287.3, 1.0279e-07
3289.3, 1.0718e-07
3291.3, 1.2071e-07
3293.3, 1.1226e-07
3295.3, 1.0413e-07
3297.3, 1.0715e-07
3299.3, 9.251e-08
3301.3, 8.799e-08
3303.3, 8.972e-08
3305.3, 8.571e-08
3307.3, 1.1133e-07
3309.3, 1.1718e-07
3311.3, 9.266e-08
3313.3, 7.696e-08
3315.3, 1.0253e-07
3317.3, 1.0322e-07
3319.3, 8.636e-08
3321.3, 1.0873e-07
3323.3, 8.87e-08
3325.3, 1.1087e-07
3327.3, 8.05e-08
3329.3, 9.093e-08
3331.3, 9.443e-08
3333.3, 7.509e-08
3335.3, 6.882e-08
3337.3, 9.314e-08
3339.3, 6.848e-08
3341.3, 1.0781e-07
3343.3, 8.355e-08
3345.3, 9.78e-08
3347.3, 1.0728e-07
3349.3, 6.465e-08
3351.3, 1.0233e-07
3353.3, 7.081e-08
3355.4, 9.01e-08
3357.4, 8.347e-08
3359.4, 6.215e-08
3361.4, 9.976e-08
3363.4, 9.87e-08
3365.4, 7.402e-08
3367.4, 8.79e-08
3369.4, 1.0745e-07
3371.4, 1.225e-07
3373.4, 8.891e-08
3375.4, 1.1975e-07
3377.4, 7.34e-08
3379.4, 8.568e-08
3381.4, 9.822e-08
3383.4, 1.1896e-07
3385.4, 8.909e-08
3387.4, 1.0665e-07
3389.4, 1.0674e-07
3391.4, 8.623e-08
3393.4, 7.914e-08
3395.4, 7.448e-08
3397.4, 1.298e-07
3399.4, 9.405e-08
3401.4, 9.97e-08
3403.4, 9.641e-08
3405.4, 1.13e-07
3407.4, 8.548e-08
3409.4, 1.1944e-07
3411.4, 1.0568e-07
3413.4, 8.91e-08
3415.4, 7.878e-08
3417.4, 8.469e-08
3419.4, 9.655e-08
3421.4, 8.757e-08
3423.4, 9.549e-08
3425.4, 7.843e-08
3427.4, 7.938e-08
3429.4, 7.182e-08
3431.4, 1.0977e-07
3433.4, 1.0087e-07
3435.4, 9.703e-08
3437.4, 7.707e-08
3439.4, 1.0448e-07
3441.4, 1.0422e-07
3443.4, 1.2549e-07
3445.4, 1.1599e-07
3447.4, 1.0654e-07
3449.4, 9.869e-08
3451.4, 9.998e-08
3453.4, 9.543e-08
3455.5, 8.158e-08
3457.5, 8.96e-08
3459.5, 8.941e-08
3461.5, 9.886e-08
3463.5, 9.396e-08
3465.5, 1.0275e-07
3467.5, 7.393e-08
3469.5, 1.1568e-07
3471.5, 8.63e-08
3473.5, 1.0333e-07
3475.5, 1.1328e-07
3477.5, 8.592e-08
3479.5, 9.407e-08
3481.5, 9.833e-08
3483.5, 7.137e-08
3485.5, 9.5e-08
3487.5, 7.558e-08
3489.5, 1.1321e-07
3491.5, 9.226e-08
3493.5, 1.0231e-07
3495.5, 7.922e-08
3497.5, 7.835e-08
3499.5, 8.155e-08
3501.5, 1.0845e-07
3503.5, 9.252e-08
3505.5, 1.0954e-07
3507.5, 9.17e-08
3509.5, 1.0631e-07
3511.5, 9.606e-08
3513.5, 6.827e-08
3515.5, 8.529e-08
3517.5, 1.0113e-07
3519.5, 1.1047e-07
3521.5, 1.0754e-07
3523.5, 8.984e-08
3525.5, 1.0839e-07
3527.5, 1.2214e-07
3529.5, 8.177e-08
3531.5, 1.1078e-07
3533.5, 8.093e-08
3535.5, 6.484e-08
3537.5, 9.286e-08
3539.5, 8.473e-08
3541.5, 9.013e-08
3543.5, 9.036e-08
3545.5, 1.0764e-07
3547.5, 1.007e-07
3549.5, 1.0243e-07
3551.5, 8.285e-08
3553.5, 9.756e-08
3555.6, 9.148e-08
3557.6, 1.0093e-07
3559.6, 7.97e-08
3561.6, 9.494e-08
3563.6, 8.225e-08
3565.6, 9.442e-08
3567.6, 1.0248e-07
3569.6, 8.769e-08
3571.6, 1.02e-07
3573.6, 1.0176e-07
3575.6, 9.672e-08
3577.6, 1.0929e-07
3579.6, 8.422e-08
3581.6, 8.321e-08
3583.6, 9.391e-08
3585.6, 8.715e-08
3587.6, 1.0408e-07
3589.6, 8.14e-08
3591.6, 1.0029e-07
3593.6, 9.608e-08
3595.6, 1.0966e-07
3597.6, 9.62e-08
3599.6, 9.875e-08
3601.6, 1.0162e-07
3603.6, 9.396e-08
3605.6, 1.1472e-07
3607.6, 8.508e-08
3609.6, 9.477e-08
3611.6, 8.311e-08
3613.6, 1.0367e-07
3615.6, 1.1044e-07
3617.6, 9.979e-08
3619.6, 6.439e-08
3621.6, 9.552e-08
3623.6, 1.0379e-07
3625.6, 1.2469e-07
3627.6, 7.979e-08
3629.6, 9.64e-08
3631.6, 1.0851e-07
3633.6, 1.1339e-07
3635.6, 7.226e-08
3637.6, 1.2016e-07
3639.6, 8.752e-08
3641.6, 1.0536e-07
3643.6, 1.0806e-07
3645.6, 1.0046e-07
3647.6, 9.859e-08
3649.6, 1.3498e-07
3651.6, 8.628e-08
3653.6, 1.3474e-07
3655.7, 8.537e-08
3657.7, 1.5664e-07
3659.7, 9.579e-08
3661.7, 7.994e-08
3663.7, 1.0348e-07
3665.7, 9.295e-08
3667.7, 8.504e-08
3669.7, 1.0933e-07
3671.7, 8.746e-08
3673.7, 1.0995e-07
3675.7, 8.432e-08
3677.7, 1.0506e-07
3679.7, 7.223e-08
3681.7, 8.383e-08
3683.7, 1.2053e-07
3685.7, 1.1482e-07
3687.7, 6.898e-08
3689.7, 9.201e-08
3691.7, 9.521e-08
3693.7, 1.1942e-07
3695.7, 1.0222e-07
3697.7, 9.552e-08
3699.7, 1.1557e-07
3701.7, 8.354e-08
3703.7, 9.407e-08
3705.7, 1.0792e-07
3707.7, 1.269e-07
3709.7, 1.2168e-07
3711.7, 6.856e-08
3713.7, 1.033e-07
3715.7, 1.2898e-07
3717.7, 1.0738e-07
3719.7, 1.1342e-07
3721.7, 9.584e-08
3723.7, 1.0987e-07
3725.7, 9.363e-08
3727.7, 1.0401e-07
3729.7, 9.908e-08
3731.7, 7.971e-08
3733.7, 1.0967e-07
3735.7, 1.2677e-07
3737.7, 1.2015e-07
3739.7, 8.605e-08
3741.7, 1.0623e-07
3743.7, 9.21e-08
3745.7, 1.094e-07
3747.7, 9.84e-08
3749.7, 8.609e-08
3751.7, 8.567e-08
3753.7, 8.778e-08
3755.8, 1.0229e-07
3757.8, 8.778e-08
3759.8, 1.2919e-07
3761.8, 8.072e-08
3763.8, 9.375e-08
3765.8, 1.0346e-07
3767.8, 1.1955e-07
3769.8, 1.3347e-07
3771.8, 1.3701e-07
3773.8, 1.0382e-07
3775.8, 1.0869e-07
3777.8, 1.0901e-07
3779.8, 9.906e-08
3781.8, 7.715e-08
3783.8, 1.06e-07
3785.8, 1.0241e-07
3787.8, 1.0763e-07
3789.8, 9.156e-08
3791.8, 1.3746e-07
3793.8, 9.329e-08
3795.8, 1.3256e-07
3797.8, 1.2655e-07
3799.8, 1.0432e-07
3801.8, 1.1824e-07
3803.8, 9.443e-08
3805.8, 1.2331e-07
3807.8, 1.0869e-07
3809.8, 1.1342e-07
3811.8, 1.099e-07
3813.8, 1.1798e-07
3815.8, 1.1236e-07
3817.8, 9.146e-08
3819.8, 9.212e-08
3821.8, 9.429e-08
3823.8, 1.1169e-07
3825.8, 1.1924e-07
3827.8, 1.1878e-07
3829.8, 9.18e-08
3831.8, 8.226e-08
3833.8, 9.048e-08
3835.8, 8.535e-08
3837.8, 7.887e-08
3839.8, 9.559e-08
3841.8, 1.0031e-07
3843.8, 8.867e-08
3845.8, 1.0919e-07
3847.8, 8.595e-08
3849.8, 8.62e-08
3851.8, 1.1914e-07
3853.8, 1.0851e-07
3855.9, 1.1866e-07
3857.9, 1.0129e-07
3859.9, 1.0228e-07
3861.9, 1.1017e-07
3863.9, 1.1323e-07
3865.9, 1.2386e-07
3867.9, 1.2042e-07
3869.9, 8.885e-08
3871.9, 1.1731e-07
3873.9, 9.714e-08
3875.9, 8.586e-08
3877.9, 9.441e-08
3879.9, 1.0475e-07
3881.9, 1.0193e-07
3883.9, 1.0445e-07
3885.9, 1.0355e-07
3887.9, 9.735e-08
3889.9, 8.812e-08
3891.9, 8.991e-08
3893.9, 1.034e-07
3895.9, 9.286e-08
3897.9, 8.617e-08
3899.9, 9.799e-08
3901.9, 1.1563e-07
3903.9, 9.644e-08
3905.9, 1.2033e-07
3907.9, 1.3492e-07
3909.9, 1.1745e-07
3911.9, 7.462e-08
3913.9, 7.708e-08
3915.9, 1.045e-07
3917.9, 1.0227e-07
3919.9, 1.1701e-07
3921.9, 1.0864e-07
3923.9, 8.337e-08
3925.9, 9.298e-08
3927.9, 1.0402e-07
3929.9, 1.2545e-07
3931.9, 1.1013e-07
3933.9, 1.1569e-07
3935.9, 1.0953e-07
3937.9, 8.59e-08
3939.9, 1.0189e-07
3941.9, 1.0974e-07
3943.9, 1.009e-07
3945.9, 9.562e-08
3947.9, 1.1325e-07
3949.9, 1.0954e-07
3951.9, 1.1534e-07
3953.9, 8.994e-08
3956.0, 1.1337e-07
3958.0, 1.245e-07
3960.0, 1.0316e-07
3962.0, 1.092e-07
3964.0, 1.1303e-07
3966.0, 1.0363e-07
3968.0, 9.892e-08
3970.0, 1.0419e-07
3972.0, 8.389e-08
3974.0, 9.069e-08
3976.0, 8.708e-08
3978.0, 1.1977e-07
3980.0, 1.1642e-07
3982.0, 1.056e-07
3984.0, 1.2356e-07
3986.0, 9.838e-08
3988.0, 9.687e-08
3990.0, 1.0398e-07
3992.0, 9.134e-08
3994.0, 8.747e-08
3996.0, 9.229e-08
3998.0, 9.555e-08
4000.0, 7.929e-08
4002.0, 9.86e-08
4004.0, 1.2082e-07
4006.0, 1.0767e-07
4008.0, 8.671e-08
4010.0, 1.0037e-07
4012.0, 1.0659e-07
4014.0, 1.1794e-07
4016.0, 8.437e-08
4018.0, 8.341e-08
4020.0, 9.435e-08
4022.0, 9.603e-08
4024.0, 8.748e-08
4026.0, 9.003e-08
4028.0, 8.333e-08
4030.0, 7.938e-08
4032.0, 1.4235e-07
4034.0, 9.965e-08
4036.0, 1.2719e-07
4038.0, 1.0757e-07
4040.0, 9.677e-08
4042.0, 9.221e-08
4044.0, 1.0041e-07
4046.0, 1.0422e-07
4048.0, 7.977e-08
4050.0, 9.747e-08
4052.0, 1.0564e-07
4054.0, 9.771e-08
4056.1, 9.275e-08
4058.1, 7.064e-08
4060.1, 8.903e-08
4062.1, 1.094e-07
4064.1, 1.0202e-07
4066.1, 1.722e-08
4068.1, -4.134e-08
4070.1, -3.959e-08
4072.1, -4.144e-08
4074.1, -3.98e-08
4076.1, -3.684e-08
4078.1, -3.929e-08
4080.1, -4.553e-08
4082.1, -3.981e-08
4084.1, -4.095e-08
4086.1, -4.313e-08
4088.1, -4.176e-08
4090.1, -4.08e-08
4092.1, -4.324e-08
4094.1, -4.348e-08
4096.1, -4.348e-08
4098.1, -4.66e-08
4100.1, -4.239e-08
4102.1, -4.504e-08
4104.1, -4.434e-08
4106.1, -4.227e-08
4108.1, -4.409e-08
4110.1, -4.127e-08
4112.1, -3.959e-08
4114.1, -4.059e-08
4116.1, -4.177e-08
4118.1, -4.001e-08
4120.1, -3.934e-08
4122.1, -3.676e-08
4124.1, -4.029e-08
4126.1, -3.752e-08
4128.1, -3.766e-08
4130.1, -3.642e-08
4132.1, -3.691e-08
4134.1, -3.437e-08
4136.1, -3.621e-08
4138.1, -3.61e-08
4140.1, -3.691e-08
4142.1, -3.84e-08
4144.1, -3.606e-08
4146.1, -3.612e-08
4148.1, -3.958e-08
4150.1, -4.138e-08
4152.1, -3.924e-08
4154.1, -3.689e-08
4156.2, -3.687e-08
4158.2, -4.301e-08
4160.2, -3.872e-08
4162.2, -3.513e-08
4164.2, -3.855e-08
4166.2, -3.715e-08
4168.2, -3.755e-08
4170.2, -3.782e-08
4172.2, -3.661e-08
4174.2, -3.351e-08
4176.2, -3.118e-08
4178.2, -3.162e-08
4180.2, -3.494e-08
4182.2, -3.412e-08
4184.2, -2.942e-08
4186.2, -3.381e-08
4188.2, -3.476e-08
4190.2, -3.297e-08
4192.2, -3.107e-08
4194.2, -3.11e-08
4196.2, -3.308e-08
4198.2, -3.569e-08
4200.2, -3.754e-08
4202.2, -3.734e-08
4204.2, -3.717e-08
4206.2, -3.492e-08
4208.2, -3.816e-08
4210.2, -3.871e-08
4212.2, -3.526e-08
4214.2, -3.757e-08
4216.2, -3.686e-08
4218.2, -3.665e-08
4220.2, -3.884e-08
4222.2, -4.077e-08
4224.2, -4.033e-08
4226.2, -3.796e-08
4228.2, -3.492e-08
4230.2, -3.763e-08
4232.2, -3.433e-08
4234.2, -3.873e-08
4236.2, -3.599e-08
4238.2, -3.61e-08
4240.2, -4.084e-08
4242.2, -3.795e-08
4244.2, -3.677e-08
4246.2, -3.859e-08
4248.2, -3.646e-08
4250.2, -3.757e-08
4252.2, -4.276e-08
4254.2, -4.178e-08
4256.3, -3.638e-08
4258.3, -3.719e-08
4260.3, -3.73e-08
4262.3, -4.291e-08
4264.3, -3.665e-08
4266.3, -4.123e-08
4268.3, -3.984e-08
4270.3, -4.005e-08
4272.3, -3.647e-08
4274.3, -3.59e-08
4276.3, -3.705e-08
4278.3, -3.575e-08
4280.3, -3.929e-08
4282.3, -3.429e-08
4284.3, -3.891e-08
4286.3, -3.805e-08
4288.3, -3.801e-08
4290.3, -3.963e-08
4292.3, -3.879e-08
4294.3, -3.905e-08
4296.3, -4.135e-08
4298.3, -3.788e-08
4300.3, -3.787e-08
4302.3, -3.853e-08
4304.3, -3.61e-08
4306.3, -3.669e-08
4308.3, -3.476e-08
4310.3, -3.864e-08
4312.3, -3.825e-08
4314.3, -3.569e-08
4316.3, -3.703e-08
4318.3, -3.705e-08
4320.3, -3.502e-08
4322.3, -3.965e-08
4324.3, -3.626e-08
4326.3, -3.253e-08
4328.3, -3.129e-08
4330.3, -3.256e-08
4332.3, -3.592e-08
4334.3, -3.259e-08
4336.3, -3.453e-08
4338.3, -3.672e-08
4340.3, -3.624e-08
4342.3, -3.537e-08
4344.3, -3.548e-08
4346.3, -3.83e-08
4348.3, -3.818e-08
4350.3, -3.79e-08
4352.3, -4.032e-08
4354.3, -3.959e-08
4356.4, -3.608e-08
4358.4, -3.611e-08
4360.4, -3.982e-08
4362.4, -4.238e-08
4364.4, -3.47e-08
4366.4, -3.576e-08
4368.4, -3.427e-08
4370.4, -3.829e-08
4372.4, -3.751e-08
4374.4, -3.785e-08
4376.4, -3.752e-08
4378.4, -4.307e-08
4380.4, -3.998e-08
4382.4, -3.951e-08
4384.4, -3.976e-08
4386.4, -4.045e-08
4388.4, -3.875e-08
4390.4, -3.44e-08
4392.4, -3.727e-08
4394.4, -3.684e-08
4396.4, -4.102e-08
4398.4, -4.097e-08
4400.4, -3.972e-08
4402.4, -4.037e-08
4404.4, -4.052e-08
4406.4, -3.897e-08
4408.4, -4.375e-08
4410.4, -4.205e-08
4412.4, -3.516e-08
4414.4, -3.939e-08
4416.4, -3.969e-08
4418.4, -3.527e-08
4420.4, -3.749e-08
4422.4, -3.538e-08
4424.4, -3.887e-08
4426.4, -3.535e-08
4428.4, -3.807e-08
4430.4, -3.75e-08
4432.4, -3.831e-08
4434.4, -3.777e-08
4436.4, -3.599e-08
4438.4, -3.663e-08
4440.4, -3.67e-08
4442.4, -3.462e-08
4444.4, -3.536e-08
4446.4, -3.356e-08
4448.4, -3.476e-08
4450.4, -4.059e-08
4452.4, -3.854e-08
4454.4, -3.522e-08
4456.5, -3.631e-08
4458.5, -3.58e-08
4460.5, -3.51e-08
4462.5, -3.515e-08
4464.5, -3.36e-08
4466.5, -3.276e-08
4468.5, -3.132e-08
4470.5, -3.623e-08
4472.5, -3.229e-08
4474.5, -3.614e-08
4476.5, -3.676e-08
4478.5, -3.423e-08
4480.5, -3.698e-08
4482.5, -3.494e-08
4484.5, -3.281e-08
4486.5, -3.407e-08
4488.5, -3.744e-08
4490.5, -3.876e-08
4492.5, -3.626e-08
4494.5, -3.552e-08
4496.5, -3.792e-08
4498.5, -3.246e-08
4500.5, -3.709e-08
4502.5, -3.606e-08
4504.5, -3.759e-08
4506.5, -3.4e-08
4508.5, -3.534e-08
4510.5, -3.467e-08
4512.5, -3.712e-08
4514.5, -3.536e-08
4516.5, -3.315e-08
4518.5, -3.62e-08
4520.5, -3.492e-08
4522.5, -3.344e-08
4524.5, -3.055e-08
4526.5, -3.411e-08
4528.5, -3.532e-08
4530.5, -2.994e-08
4532.5, -3.343e-08
4534.5, -3.069e-08
4536.5, -3.299e-08
4538.5, -3.128e-08
4540.5, -3.606e-08
4542.5, -3.18e-08
4544.5, -3.323e-08
4546.5, -3.375e-08
4548.5, -3.443e-08
4550.5, -3.593e-08
4552.5, -3.838e-08
4554.5, -3.536e-08
4556.6, -3.702e-08
4558.6, -3.853e-08
4560.6, -3.923e-08
4562.6, -3.706e-08
4564.6, -3.842e-08
4566.6, -3.623e-08
4568.6, -3.982e-08
4570.6, -3.93e-08
4572.6, -3.527e-08
4574.6, -3.713e-08
4576.6, -3.325e-08
4578.6, -3.517e-08
4580.6, -3.573e-08
4582.6, -3.6e-08
4584.6, -3.211e-08
4586.6, -3.408e-08
4588.6, -3.249e-08
4590.6, -3.636e-08
4592.6, -3.834e-08
4594.6, -3.798e-08
4596.6, -3.667e-08
4598.6, -3.792e-08
4600.6, -4.305e-08
4602.6, -4.019e-08
4604.6, -3.901e-08
4606.6, -3.802e-08
4608.6, -3.916e-08
4610.6, -3.96e-08
4612.6, -4.393e-08
4614.6, -3.98e-08
4616.6, -3.733e-08
4618.6, -4.122e-08
4620.6, -3.591e-08
4622.6, -3.513e-08
4624.6, -3.93e-08
4626.6, -3.938e-08
4628.6, -3.93e-08
4630.6, -3.868e-08
4632.6, -3.946e-08
4634.6, -3.589e-08
4636.6, -3.691e-08
4638.6, -3.535e-08
4640.6, -3.946e-08
4642.6, -3.701e-08
4644.6, -3.738e-08
4646.6, -3.63e-08
4648.6, -3.399e-08
4650.6, -3.923e-08
4652.6, -3.81e-08
4654.6, -3.97e-08
4656.7, -3.717e-08
4658.7, -3.88e-08
4660.7, -3.811e-08
4662.7, -3.503e-08
4664.7, -3.798e-08
4666.7, -3.821e-08
4668.7, -4.143e-08
4670.7, -4.122e-08
4672.7, -4.021e-08
4674.7, -3.802e-08
4676.7, -3.9e-08
4678.7, -4.144e-08
4680.7, -3.813e-08
4682.7, -3.476e-08
4684.7, -3.399e-08
4686.7, -3.078e-08
4688.7, -3.672e-08
4690.7, -3.68e-08
4692.7, -3.769e-08
4694.7, -3.904e-08
4696.7, -3.807e-08
4698.7, -4.294e-08
4700.7, -4.288e-08
4702.7, -4.279e-08
4704.7, -4.16e-08
4706.7, -4.37e-08
4708.7, -4.254e-08
4710.7, -4.109e-08
4712.7, -3.747e-08
4714.7, -4.02e-08
4716.7, -3.746e-08
4718.7, -3.802e-08
4720.7, -3.999e-08
4722.7, -3.723e-08
4724.7, -3.933e-08
4726.7, -3.588e-08
4728.7, -3.778e-08
4730.7, -3.967e-08
4732.7, -3.869e-08
4734.7, -4.095e-08
4736.7, -3.746e-08
4738.7, -3.866e-08
4740.7, -3.541e-08
4742.7, -3.801e-08
4744.7, -4.237e-08
4746.7, -4.181e-08
4748.7, -4.314e-08
4750.7, -4.244e-08
4752.7, -4.086e-08
4754.7, -4.014e-08
4756.8, -4.212e-08
4758.8, -4.248e-08
4760.8, -4.418e-08
4762.8, -4.196e-08
4764.8, -4.531e-08
4766.8, -4.068e-08
4768.8, -3.946e-08
4770.8, -3.531e-08
4772.8, -3.943e-08
4774.8, -3.845e-08
4776.8, -3.947e-08
4778.8, -3.778e-08
4780.8, -4.091e-08
4782.8, -4.42e-08
4784.8, -3.896e-08
4786.8, -4.339e-08
4788.8, -4.051e-08
4790.8, -3.755e-08
4792.8, -3.719e-08
4794.8, -3.695e-08
4796.8, -3.67e-08
4798.8, -3.855e-08
4800.8, -3.456e-08
4802.8, -3.681e-08
4804.8, -3.875e-08
4806.8, -3.661e-08
4808.8, -3.512e-08
4810.8, -3.635e-08
4812.8, -3.923e-08
4814.8, -3.893e-08
4816.8, -4.23e-08
4818.8, -3.691e-08
4820.8, -4.37e-08
4822.8, -4.07e-08
4824.8, -4.297e-08
4826.8, -4.25e-08
4828.8, -3.943e-08
4830.8, -4.006e-08
4832.8, -4.033e-08
4834.8, -3.615e-08
4836.8, -4.111e-08
4838.8, -3.791e-08
4840.8, -3.873e-08
4842.8, -3.723e-08
4844.8, -3.941e-08
4846.8, -3.973e-08
4848.8, -4.006e-08
4850.8, -4.029e-08
4852.8, -4.319e-08
4854.8, -4.33e-08
4856.9, -4.151e-08
4858.9, -4.414e-08
4860.9, -4.488e-08
4862.9, -4.042e-08
4864.9, -4.384e-08
4866.9, -3.804e-08
4868.9, -3.762e-08
4870.9, -3.964e-08
4872.9, -3.993e-08
4874.9, -3.857e-08
4876.9, -3.586e-08
4878.9, -3.946e-08
4880.9, -4.039e-08
4882.9, -3.919e-08
4884.9, -3.813e-08
4886.9, -4.26e-08
4888.9, -4.387e-08
4890.9, -4.024e-08
4892.9, -4.177e-08
4894.9, -4.187e-08
4896.9, -4.118e-08
4898.9, -4.04e-08
4900.9, -4.607e-08
4902.9, -4.318e-08
4904.9, -4.404e-08
4906.9, -3.989e-08
4908.9, -3.95e-08
4910.9, -4.101e-08
4912.9, -4.029e-08
4914.9, -3.977e-08
4916.9, -3.769e-08
4918.9, -4.042e-08
4920.9, -4.023e-08
4922.9, -3.758e-08
4924.9, -3.784e-08
4926.9, -3.79e-08
4928.9, -4.076e-08
4930.9, -4.184e-08
4932.9, -4.503e-08
4934.9, -4.335e-08
4936.9, -3.916e-08
4938.9, -4.095e-08
4940.9, -4.253e-08
4942.9, -3.984e-08
4944.9, -4.107e-08
4946.9, -4.118e-08
4948.9, -4.07e-08
4950.9, -4.166e-08
4952.9, -3.6e-08
4954.9, -3.707e-08
4957.0, -4.226e-08
4959.0, -4.182e-08
4961.0, -4.547e-08
4963.0, -4.621e-08
4965.0, -4.484e-08
4967.0, -4.346e-08
4969.0, -4.331e-08
4971.0, -4.074e-08
4973.0, -4.3e-08
4975.0, -4.103e-08
4977.0, -4.359e-08
4979.0, -4.444e-08
4981.0, -4.741e-08
4983.0, -4.355e-08
4985.0, -4.441e-08
4987.0, -4.261e-08
4989.0, -4.541e-08
4991.0, -4.587e-08
4993.0, -4.671e-08
4995.0, -4.22e-08
4997.0, -4.28e-08
4999.0, -4.185e-08
5001.0, -4.687e-08
5003.0, -4.556e-08
5005.0, -4.442e-08
5007.0, -4.415e-08
5009.0, -4.326e-08
5011.0, -4.45e-08
5013.0, -4.677e-08
5015.0, -4.06e-08
5017.0, -4.065e-08
5019.0, -4.272e-08
5021.0, -4.342e-08
5023.0, -4.254e-08
5025.0, -4.142e-08
5027.0, -4.184e-08
5029.0, -4.376e-08
5031.0, -4.141e-08
5033.0, -4.021e-08
5035.0, -4.001e-08
5037.0, -4.156e-08
5039.0, -4.256e-08
5041.0, -4.354e-08
5043.0, -4.156e-08
5045.0, -4.481e-08
5047.0, -4.337e-08
5049.0, -4.182e-08
5051.0, -4.032e-08
5053.0, -4.493e-08
5055.0, -4.455e-08
5057.1, -4.202e-08
5059.1, -4.331e-08
5061.1, -4.294e-08
5063.1, -4.115e-08
5065.1, -4.133e-08
5067.1, -3.762e-08
5069.1, -4.112e-08
5071.1, -3.949e-08
5073.1, -4.305e-08
5075.1, -4.172e-08
5077.1, -4.226e-08
5079.1, -4.141e-08
5081.1, -4.248e-08
5083.1, -4.175e-08
5085.1, -4.109e-08
5087.1, -4.266e-08
5089.1, -4.167e-08
5091.1, -4.485e-08
5093.1, -4.912e-08
5095.1, -4.591e-08
5097.1, -4.233e-08
5099.1, -3.989e-08
5101.1, -4.258e-08
5103.1, -4.179e-08
5105.1, -3.843e-08
5107.1, -3.809e-08
5109.1, -4.007e-08
5111.1, -3.896e-08
5113.1, -4.135e-08
5115.1, -4.186e-08
5117.1, 3.108e-08
5119.1, 9.573e-08
5121.1, 5.287e-08
5123.1, 8.691e-08
5125.1, 5.281e-08
5127.1, 8.599e-08
5129.1, 5.916e-08
5131.1, 4.282e-08
5133.1, 7.41e-08
5135.1, 6.053e-08
5137.1, 7.411e-08
5139.1, 5.703e-08
5141.1, 7.284e-08
5143.1, 6.253e-08
5145.1, 9.091e-08
5147.1, 6.975e-08
5149.1, 7.873e-08
5151.1, 6.804e-08
5153.1, 6.02e-08
5155.1, 6.271e-08
5157.2, 9.933e-08
5159.2, 6.744e-08
5161.2, 8.835e-08
5163.2, 8.886e-08
5165.2, 6.944e-08
5167.2, 7.915e-08
5169.2, 7.32e-08
5171.2, 5.553e-08
5173.2, 7.199e-08
5175.2, 9.438e-08
5177.2, 9.095e-08
5179.2, 8.858e-08
5181.2, 9.219e-08
5183.2, 8.642e-08
5185.2, 8.406e-08
5187.2, 9.391e-08
5189.2, 9.02e-08
5191.2, 8.93e-08
5193.2, 5.093e-08
5195.2, 8.334e-08
5197.2, 9.054e-08
5199.2, 7.128e-08
5201.2, 7.124e-08
5203.2, 1.0292e-07
5205.2, 7.898e-08
5207.2, 1.0719e-07
5209.2, 8.054e-08
5211.2, 7.522e-08
5213.2, 1.0415e-07
5215.2, 6.196e-08
5217.2, 1.0776e-07
5219.2, 8.237e-08
5221.2, 7.593e-08
5223.2, 9.766e-08
5225.2, 9.413e-08
5227.2, 5.931e-08
5229.2, 6.339e-08
5231.2, 9.201e-08
5233.2, 6.435e-08
5235.2, 7.742e-08
5237.2, 6.695e-08
5239.2, 8.077e-08
5241.2, 5.402e-08
5243.2, 7.876e-08
5245.2, 9.844e-08
5247.2, 9.961e-08
5249.2, 7.914e-08
5251.2, 1.0491e-07
5253.2, 1.2178e-07
5255.2, 6.581e-08
5257.3, 7.02e-08
5259.3, 1.0216e-07
5261.3, 1.0325e-07
5263.3, 9.704e-08
5265.3, 8.776e-08
5267.3, 9.574e-08
5269.3, 7.465e-08
5271.3, 8.633e-08
5273.3, 9.58e-08
5275.3, 8.205e-08
5277.3, 9.909e-08
5279.3, 1.0781e-07
5281.3, 1.0212e-07
5283.3, 7.529e-08
5285.3, 1.0167e-07
5287.3, 8.124e-08
5289.3, 1.2051e-07
5291.3, 6.682e-08
5293.3, 7.987e-08
5295.3, 9.125e-08
5297.3, 7.107e-08
5299.3, 9.916e-08
5301.3, 1.1718e-07
5303.3, 1.0905e-07
5305.3, 9.553e-08
5307.3, 8.265e-08
5309.3, 8.354e-08
5311.3, 1.3378e-07
5313.3, 7.237e-08
5315.3, 8.857e-08
5317.3, 1.0605e-07
5319.3, 7.7e-08
5321.3, 1.2138e-07
5323.3, 8.505e-08
5325.3, 6.261e-08
5327.3, 9.973e-08
5329.3, 6.395e-08
5331.3, 8.352e-08
5333.3, 1.0222e-07
5335.3, 1.1993e-07
5337.3, 6.902e-08
5339.3, 1.1723e-07
5341.3, 1.1189e-07
5343.3, 1.0491e-07
5345.3, 1.1301e-07
5347.3, 1.1943e-07
5349.3, 8.848e-08
5351.3, 8.033e-08
5353.3, 8.188e-08
5355.3, 9.926e-08
5357.4, 9.032e-08
5359.4, 1.2009e-07
5361.4, 1.0081e-07
5363.4, 1.0416e-07
5365.4, 9.875e-08
5367.4, 9.093e-08
5369.4, 9.628e-08
5371.4, 7.905e-08
5373.4, 9.038e-08
5375.4, 7.589e-08
5377.4, 9.692e-08
5379.4, 1.0644e-07
5381.4, 9.4e-08
5383.4, 1.0772e-07
5385.4, 8.531e-08
5387.4, 1.24e-07
5389.4, 8.468e-08
5391.4, 9.328e-08
5393.4, 1.1724e-07
5395.4, 1.1124e-07
5397.4, 9.172e-08
5399.4, 1.1779e-07
5401.4, 8.605e-08
5403.4, 9.346e-08
5405.4, 7.649e-08
5407.4, 8.288e-08
5409.4, 9.135e-08
5411.4, 1.1412e-07
5413.4, 8.404e-08
5415.4, 1.008e-07
5417.4, 9.91e-08
5419.4, 8.316e-08
5421.4, 1.2161e-07
5423.4, 1.2201e-07
5425.4, 1.1714e-07
5427.4, 1.1551e-07
5429.4, 1.0104e-07
5431.4, 8.663e-08
5433.4, 8.043e-08
5435.4, 9.419e-08
5437.4, 1.0094e-07
5439.4, 1.1621e-07
5441.4, 1.3781e-07
5443.4, 6.963e-08
5445.4, 1.0474e-07
5447.4, 1.256e-07
5449.4, 8.28e-08
5451.4, 9.657e-08
5453.4, 9.388e-08
5455.4, 1.0729e-07
5457.5, 1.1113e-07
5459.5, 9.877e-08
5461.5, 9.803e-08
5463.5, 8.704e-08
5465.5, 1.0446e-07
5467.5, 1.352e-07
5469.5, 1.0956e-07
5471.5, 9.379e-08
5473.5, 9.41e-08
5475.5, 9.536e-08
5477.5, 1.1884e-07
5479.5, 1.276e-07
5481.5, 1.1087e-07
5483.5, 1.0456e-07
5485.5, 1.0274e-07
5487.5, 9.739e-08
5489.5, 9.471e-08
5491.5, 8.832e-08
5493.5, 8.54e-08
5495.5, 1.0938e-07
5497.5, 1.0236e-07
5499.5, 6.836e-08
5501.5, 8.337e-08
5503.5, 8.852e-08
5505.5, 1.0283e-07
5507.5, 1.0251e-07
5509.5, 9.611e-08
5511.5, 7.953e-08
5513.5, 7.787e-08
5515.5, 9.364e-08
5517.5, 1.1263e-07
5519.5, 1.0307e-07
5521.5, 8.535e-08
5523.5, 1.0365e-07
5525.5, 8.79e-08
5527.5, 1.0645e-07
5529.5, 1.2233e-07
5531.5, 1.1963e-07
5533.5, 1.1075e-07
5535.5, 8.86e-08
5537.5, 1.1509e-07
5539.5, 1.3537e-07
5541.5, 8.382e-08
5543.5, 1.0894e-07
5545.5, 1.0855e-07
5547.5, 1.1278e-07
5549.5, 8.006e-08
5551.5, 1.367e-07
5553.5, 1.1801e-07
5555.5, 9.272e-08
5557.6, 9.15e-08
5559.6, 9.667e-08
5561.6, 1.2946e-07
5563.6, 9.591e-08
5565.6, 1.0322e-07
5567.6, 9.533e-08
5569.6, 1.0701e-07
5571.6, 1.0749e-07
5573.6, 1.0657e-07
5575.6, 9.572e-08
5577.6, 9.627e-08
5579.6, 1.3518e-07
5581.6, 9.011e-08
5583.6, 1.1201e-07
5585.6, 9.238e-08
5587.6, 1.0816e-07
5589.6, 1.085e-07
5591.6, 1.2385e-07
5593.6, 1.0542e-07
5595.6, 1.2448e-07
5597.6, 9.968e-08
5599.6, 1.1181e-07
5601.6, 1.1444e-07
5603.6, 8.467e-08
5605.6, 1.1935e-07
5607.6, 1.0213e-07
5609.6, 1.3821e-07
5611.6, 7.028e-08
5613.6, 1.2245e-07
5615.6, 1.1677e-07
5617.6, 9.59e-08
5619.6, 9.702e-08
5621.6, 1.1564e-07
5623.6, 8.769e-08
5625.6, 1.131e-07
5627.6, 8.486e-08
5629.6, 9.997e-08
5631.6, 9.487e-08
5633.6, 9.295e-08
5635.6, 1.0062e-07
5637.6, 7.827e-08
5639.6, 9.371e-08
5641.6, 1.1055e-07
5643.6, 1.1972e-07
5645.6, 7.567e-08
5647.6, 9.415e-08
5649.6, 1.0221e-07
5651.6, 7.732e-08
5653.6, 8.904e-08
5655.6, 9.774e-08
5657.7, 9.061e-08
5659.7, 1.0366e-07
5661.7, 9.439e-08
5663.7, 1.198e-07
5665.7, 1.2544e-07
5667.7, 9.243e-08
5669.7, 1.2953e-07
5671.7, 1.2347e-07
5673.7, 1.2564e-07
5675.7, 8.902e-08
5677.7, 9.058e-08
5679.7, 1.111e-07
5681.7, 1.1612e-07
5683.7, 8.472e-08
5685.7, 8.747e-08
5687.7, 8.363e-08
5689.7, 1.0562e-07
5691.7, 1.1569e-07
5693.7, 1.1582e-07
5695.7, 8.964e-08
5697.7, 1.0475e-07
5699.7, 8.676e-08
5701.7, 9.042e-08
5703.7, 1.321e-07
5705.7, 9.676e-08
5707.7, 9.214e-08
5709.7, 1.1157e-07
5711.7, 1.1724e-07
5713.7, 9.047e-08
5715.7, 6.506e-08
5717.7, 9.467e-08
5719.7, 1.0832e-07
5721.7, 6.796e-08
5723.7, 9.531e-08
5725.7, 8.565e-08
5727.7, 9.187e-08
5729.7, 1.0737e-07
5731.7, 8.193e-08
5733.7, 9.947e-08
5735.7, 1.0017e-07
5737.7, 8.923e-08
5739.7, 1.1563e-07
5741.7, 9.505e-08
5743.7, 9.98e-08
5745.7, 1.0694e-07
5747.7, 1.3398e-07
5749.7, 9.946e-08
5751.7, 1.0507e-07
5753.7, 1.2637e-07
5755.7, 7.865e-08
5757.8, 1.0813e-07
5759.8, 1.1034e-07
5761.8, 9.28e-08
5763.8, 1.0206e-07
5765.8, 1.0114e-07
5767.8, 1.0147e-07
5769.8, 1.2246e-07
5771.8, 8.583e-08
5773.8, 1.0946e-07
5775.8, 1.1002e-07
5777.8, 1.1734e-07
5779.8, 1.157e-07
5781.8, 1.0243e-07
5783.8, 1.1206e-07
5785.8, 1.0985e-07
5787.8, 9.857e-08
5789.8, 1.281e-07
5791.8, 7.482e-08
5793.8, 1.0272e-07
5795.8, 9.505e-08
5797.8, 1.3174e-07
5799.8, 1.2655e-07
5801.8, 8.333e-08
5803.8, 1.0291e-07
5805.8, 6.632e-08
5807.8, 1.1156e-07
5809.8, 1.2047e-07
5811.8, 9.384e-08
5813.8, 7.763e-08
5815.8, 7.028e-08
5817.8, 1.0426e-07
5819.8, 9.819e-08
5821.8, 8.722e-08
5823.8, 1.2953e-07
5825.8, 1.3965e-07
5827.8, 1.0308e-07
5829.8, 1.1138e-07
5831.8, 9.387e-08
5833.8, 8.634e-08
5835.8, 1.0843e-07
5837.8, 1.2482e-07
5839.8, 1.1877e-07
5841.8, 1.1001e-07
5843.8, 1.0898e-07
5845.8, 8.481e-08
5847.8, 1.2116e-07
5849.8, 1.11e-07
5851.8, 1.1227e-07
5853.8, 9.24e-08
5855.8, 1.1336e-07
5857.9, 1.0132e-07
5859.9, 1.0677e-07
5861.9, 1.0366e-07
5863.9, 1.2243e-07
5865.9, 1.0098e-07
5867.9, 1.2401e-07
5869.9, 8.692e-08
5871.9, 9.821e-08
5873.9, 1.4491e-07
5875.9, 1.0369e-07
5877.9, 1.0891e-07
5879.9, 7.81e-08
5881.9, 1.0205e-07
5883.9, 1.417e-07
5885.9, 1.162e-07
5887.9, 1.1891e-07
5889.9, 1.0671e-07
5891.9, 8.704e-08
5893.9, 1e-07
5895.9, 1.0987e-07
5897.9, 9.752e-08
5899.9, 1.378e-07
5901.9, 1.3313e-07
5903.9, 7.752e-08
5905.9, 1.3707e-07
5907.9, 1.1435e-07
5909.9, 1.0063e-07
5911.9, 9.204e-08
5913.9, 1.2252e-07
5915.9, 1.2797e-07
5917.9, 1.0085e-07
5919.9, 1.2541e-07
5921.9, 9.354e-08
5923.9, 1.0985e-07
5925.9, 9.525e-08
5927.9, 8.473e-08
5929.9, 1.1567e-07
5931.9, 7.5e-08
5933.9, 7.993e-08
5935.9, 8.504e-08
5937.9, 1.0198e-07
5939.9, 1.0747e-07
5941.9, 8.907e-08
5943.9, 8.502e-08
5945.9, 9.622e-08
5947.9, 1.0154e-07
5949.9, 9.944e-08
5951.9, 8.47e-08
5953.9, 1.1911e-07
5955.9, 8.727e-08
5958.0, 7.548e-08
5960.0, 1.1824e-07
5962.0, 1.2923e-07
5964.0, 1.3917e-07
5966.0, 1.0929e-07
5968.0, 9.717e-08
5970.0, 1.0194e-07
5972.0, 7.779e-08
5974.0, 1.1673e-07
5976.0, 9.371e-08
5978.0, 7.895e-08
5980.0, 1.1317e-07
5982.0, 9.298e-08
5984.0, 1.172e-07
5986.0, 8.56e-08
5988.0, 9.212e-08
5990.0, 1e-07
5992.0, 1.0464e-07
5994.0, 8.054e-08
5996.0, 9.341e-08
5998.0, 1.0998e-07
6000.0, 1.0166e-07
6002.0, 1.1393e-07
6004.0, 1.0458e-07
6006.0, 8.518e-08
6008.0, 1.092e-07
6010.0, 9.772e-08
6012.0, 9.753e-08
6014.0, 8.818e-08
6016.0, 1.1068e-07
6018.0, 9.761e-08
6020.0, 1.0819e-07
6022.0, 8.309e-08
6024.0, 8.666e-08
6026.0, 1.1036e-07
6028.0, 1.1592e-07
6030.0, 1.3099e-07
6032.0, 1.0306e-07
6034.0, 1.1948e-07
6036.0, 1.1056e-07
6038.0, 1.5967e-07
6040.0, 1.0878e-07
6042.0, 9.548e-08
6044.0, 1.1983e-07
6046.0, 1.1045e-07
6048.0, 1.1201e-07
6050.0, 7.273e-08
6052.0, 1.0567e-07
6054.0, 8.329e-08
6056.0, 1.1247e-07
6058.1, 9.259e-08
6060.1, 8.848e-08
6062.1, 1.0531e-07
6064.1, 8.051e-08
6066.1, 1.0314e-07
6068.1, 1.0493e-07
6070.1, 9.708e-08
6072.1, 9.532e-08
6074.1, 1.2496e-07
6076.1, 9.872e-08
6078.1, 1.0644e-07
6080.1, 1.16e-07
6082.1, 9.634e-08
6084.1, 9.769e-08
6086.1, 1.0064e-07
6088.1, 8.132e-08
6090.1, 1.2523e-07
6092.1, 9.898e-08
6094.1, 1.1928e-07
6096.1, 1.1419e-07
6098.1, 1.0397e-07
6100.1, 9.83e-08
6102.1, 1.2028e-07
6104.1, 1.0284e-07
6106.1, 1.1456e-07
6108.1, 1.1017e-07
6110.1, 9.938e-08
6112.1, 1.1306e-07
6114.1, 8.253e-08
6116.1, 1.0249e-07
6118.1, 3.644e-08
6120.1, -3.658e-08
6122.1, -3.496e-08
6124.1, -3.538e-08
6126.1, -3.74e-08
6128.1, -3.658e-08
6130.1, -3.414e-08
6132.1, -3.547e-08
6134.1, -3.862e-08
6136.1, -3.521e-08
6138.1, -3.726e-08
6140.1, -3.395e-08
6142.1, -3.64e-08
6144.1, -3.829e-08
6146.1, -3.762e-08
6148.1, -3.667e-08
6150.1, -3.543e-08
6152.1, -3.704e-08
6154.1, -3.516e-08
6156.1, -3.383e-08
6158.2, -3.548e-08
6160.2, -3.576e-08
6162.2, -3.803e-08
6164.2, -3.191e-08
6166.2, -3.413e-08
6168.2, -3.773e-08
6170.2, -3.781e-08
6172.2, -3.637e-08
6174.2, -3.817e-08
6176.2, -3.456e-08
6178.2, -3.521e-08
6180.2, -3.563e-08
6182.2, -3.776e-08
6184.2, -3.52e-08
6186.2, -3.847e-08
6188.2, -3.528e-08
6190.2, -3.409e-08
6192.2, -3.781e-08
6194.2, -3.879e-08
6196.2, -4.058e-08
6198.2, -4.054e-08
6200.2, -3.793e-08
6202.2, -3.959e-08
6204.2, -4.276e-08
6206.2, -3.904e-08
6208.2, -3.985e-08
6210.2, -3.897e-08
6212.2, -4.048e-08
6214.2, -4.241e-08
6216.2, -4.23e-08
6218.2, -4.141e-08
6220.2, -4.29e-08
6222.2, -3.942e-08
6224.2, -3.729e-08
6226.2, -4.284e-08
6228.2, -3.916e-08
6230.2, -4.383e-08
6232.2, -4.31e-08
6234.2, -4.261e-08
6236.2, -4.093e-08
6238.2, -4.154e-08
6240.2, -4.336e-08
6242.2, -4.21e-08
6244.2, -4.291e-08
6246.2, -4.187e-08
6248.2, -3.921e-08
6250.2, -4.112e-08
6252.2, -4.196e-08
6254.2, -4.032e-08
6256.2, -4.03e-08
6258.3, -4.004e-08
6260.3, -4.173e-08
6262.3, -4.401e-08
6264.3, -4.27e-08
6266.3, -4.19e-08
6268.3, -4.035e-08
6270.3, -3.988e-08
6272.3, -4.277e-08
6274.3, -4.024e-08
6276.3, -3.764e-08
6278.3, -4.069e-08
6280.3, -3.939e-08
6282.3, -3.757e-08
6284.3, -4.071e-08
6286.3, -4.082e-08
6288.3, -3.816e-08
6290.3, -4.048e-08
6292.3, -4.429e-08
6294.3, -4.213e-08
6296.3, -3.815e-08
6298.3, -3.603e-08
6300.3, -3.961e-08
6302.3, -4.041e-08
6304.3, -3.875e-08
6306.3, -3.669e-08
6308.3, -3.663e-08
6310.3, -3.906e-08
6312.3, -4.056e-08
6314.3, -4.039e-08
6316.3, -3.742e-08
6318.3, -3.929e-08
6320.3, -4.313e-08
6322.3, -4.237e-08
6324.3, -4.278e-08
6326.3, -3.905e-08
6328.3, -3.642e-08
6330.3, -3.833e-08
6332.3, -3.528e-08
6334.3, -3.841e-08
6336.3, -3.993e-08
6338.3, -3.623e-08
6340.3, -3.723e-08
6342.3, -4.168e-08
6344.3, -4.149e-08
6346.3, -3.829e-08
6348.3, -4.267e-08
6350.3, -4.189e-08
6352.3, -4.151e-08
6354.3, -3.774e-08
6356.3, -3.744e-08
6358.4, -4.2e-08
6360.4, -3.988e-08
6362.4, -4.079e-08
6364.4, -4.277e-08
6366.4, -4.076e-08
6368.4, -3.684e-08
6370.4, -3.64e-08
6372.4, -4.038e-08
6374.4, -3.994e-08
6376.4, -3.925e-08
6378.4, -4.106e-08
6380.4, -4.204e-08
6382.4, -3.919e-08
6384.4, -4.342e-08
6386.4, -3.948e-08
6388.4, -3.82e-08
6390.4, -4.23e-08
6392.4, -4.339e-08
6394.4, -4.16e-08
6396.4, -3.723e-08
6398.4, -3.942e-08
6400.4, -3.912e-08
6402.4, -3.749e-08
6404.4, -3.938e-08
6406.4, -3.285e-08
6408.4, -3.708e-08
6410.4, -3.601e-08
6412.4, -3.833e-08
6414.4, -3.761e-08
6416.4, -3.557e-08
6418.4, -4.313e-08
6420.4, -3.767e-08
6422.4, -4.279e-08
6424.4, -4.056e-08
6426.4, -4.044e-08
6428.4, -4.047e-08
6430.4, -4.49e-08
6432.4, -4.258e-08
6434.4, -4.264e-08
6436.4, -4.406e-08
6438.4, -4.271e-08
6440.4, -4.031e-08
6442.4, -4.208e-08
6444.4, -4.041e-08
6446.4, -3.876e-08
6448.4, -3.889e-08
6450.4, -3.947e-08
6452.4, -4.263e-08
6454.4, -4.216e-08
6456.4, -3.677e-08
6458.5, -4.015e-08
6460.5, -3.812e-08
6462.5, -3.721e-08
6464.5, -4.122e-08
6466.5, -3.861e-08
6468.5, -4.239e-08
6470.5, -3.786e-08
6472.5, -4.219e-08
6474.5, -4.482e-08
6476.5, -4.621e-08
6478.5, -4.151e-08
6480.5, -4.276e-08
6482.5, -4.546e-08
6484.5, -4.042e-08
6486.5, -4.172e-08
6488.5, -3.983e-08
6490.5, -4.132e-08
6492.5, -4.122e-08
6494.5, -4.097e-08
6496.5, -3.573e-08
6498.5, -3.641e-08
6500.5, -3.682e-08
6502.5, -3.768e-08
6504.5, -3.839e-08
6506.5, -3.705e-08
6508.5, -3.946e-08
6510.5, -3.977e-08
6512.5, -3.872e-08
6514.5, -3.806e-08
6516.5, -3.64e-08
6518.5, -3.983e-08
6520.5, -4.106e-08
6522.5, -3.816e-08
6524.5, -4.157e-08
6526.5, -4.118e-08
6528.5, -3.708e-08
6530.5, -3.603e-08
6532.5, -3.889e-08
6534.5, -4.288e-08
6536.5, -4.002e-08
6538.5, -3.83e-08
6540.5, -3.906e-08
6542.5, -3.986e-08
6544.5, -4.136e-08
6546.5, -4.118e-08
6548.5, -3.937e-08
6550.5, -4.218e-08
6552.5, -3.897e-08
6554.5, -4.043e-08
6556.5, -4.194e-08
6558.6, -4.148e-08
6560.6, -3.878e-08
6562.6, -3.886e-08
6564.6, -4.107e-08
6566.6, -4.053e-08
6568.6, -4.455e-08
6570.6, -4.002e-08
6572.6, -4.218e-08
6574.6, -4.053e-08
6576.6, -3.779e-08
6578.6, -3.643e-08
6580.6, -3.856e-08
6582.6, -3.844e-08
6584.6, -3.748e-08
6586.6, -3.951e-08
6588.6, -3.703e-08
6590.6, -3.83e-08
6592.6, -4.008e-08
6594.6, -4.101e-08
6596.6, -3.942e-08
6598.6, -3.94e-08
6600.6, -3.816e-08
6602.6, -3.84e-08
6604.6, -3.862e-08
6606.6, -3.675e-08
6608.6, -3.943e-08
6610.6, -3.731e-08
6612.6, -3.995e-08
6614.6, -3.616e-08
6616.6, -3.956e-08
6618.6, -3.9e-08
6620.6, -3.988e-08
6622.6, -4.109e-08
6624.6, -4.37e-08
6626.6, -4.41e-08
6628.6, -3.858e-08
6630.6, -4.058e-08
6632.6, -3.904e-08
6634.6, -4.101e-08
6636.6, -3.934e-08
6638.6, -3.851e-08
6640.6, -3.784e-08
6642.6, -4.14e-08
6644.6, -4.1e-08
6646.6, -3.928e-08
6648.6, -4.034e-08
6650.6, -3.815e-08
6652.6, -3.631e-08
6654.6, -3.554e-08
6656.6, -3.819e-08
6658.7, -3.876e-08
6660.7, -3.172e-08
6662.7, -3.825e-08
6664.7, -3.836e-08
6666.7, -3.813e-08
6668.7, -3.83e-08
6670.7, -3.337e-08
6672.7, -3.724e-08
6674.7, -3.596e-08
6676.7, -4.057e-08
6678.7, -4.02e-08
6680.7, -3.805e-08
6682.7, -4.117e-08
6684.7, -4.328e-08
6686.7, -3.73e-08
6688.7, -3.585e-08
6690.7, -3.172e-08
6692.7, -3.674e-08
6694.7, -3.379e-08
6696.7, -3.432e-08
6698.7, -3.541e-08
6700.7, -3.609e-08
6702.7, -3.93e-08
6704.7, -3.918e-08
6706.7, -3.891e-08
6708.7, -4.287e-08
6710.7, -4.18e-08
6712.7, -4.387e-08
6714.7, -4.065e-08
6716.7, -4.287e-08
6718.7, -4.205e-08
6720.7, -4.282e-08
6722.7, -4.304e-08
6724.7, -3.945e-08
6726.7, -3.76e-08
6728.7, -3.871e-08
6730.7, -3.937e-08
6732.7, -3.969e-08
6734.7, -3.68e-08
6736.7, -3.805e-08
6738.7, -3.792e-08
6740.7, -3.535e-08
6742.7, -4.097e-08
6744.7, -3.747e-08
6746.7, -3.958e-08
6748.7, -3.867e-08
6750.7, -3.961e-08
6752.7, -3.71e-08
6754.7, -3.658e-08
6756.7, -3.694e-08
6758.8, -4.155e-08
6760.8, -3.854e-08
6762.8, -3.753e-08
6764.8, -3.824e-08
6766.8, -3.322e-08
6768.8, -3.54e-08
6770.8, -3.383e-08
6772.8, -3.906e-08
6774.8, -3.457e-08
6776.8, -3.743e-08
6778.8, -3.719e-08
6780.8, -3.857e-08
6782.8, -3.338e-08
6784.8, -3.552e-08
6786.8, -3.699e-08
6788.8, -3.739e-08
6790.8, -3.731e-08
6792.8, -3.781e-08
6794.8, -3.556e-08
6796.8, -3.454e-08
6798.8, -3.58e-08
6800.8, -3.71e-08
6802.8, -3.919e-08
6804.8, -3.68e-08
6806.8, -3.764e-08
6808.8, -3.166e-08
6810.8, -3.764e-08
6812.8, -3.765e-08
6814.8, -3.691e-08
6816.8, -3.607e-08
6818.8, -3.519e-08
6820.8, -3.259e-08
6822.8, -3.585e-08
6824.8, -3.427e-08
6826.8, -3.404e-08
6828.8, -3.748e-08
6830.8, -3.35e-08
6832.8, -3.911e-08
6834.8, -3.54e-08
6836.8, -3.595e-08
6838.8, -3.655e-08
6840.8, -3.525e-08
6842.8, -3.355e-08
6844.8, -3.445e-08
6846.8, -3.208e-08
6848.8, -3.651e-08
6850.8, -3.186e-08
6852.8, -3.177e-08
6854.8, -2.909e-08
6856.8, -2.996e-08
6858.9, -3.382e-08
6860.9, -3.473e-08
6862.9, -3.624e-08
6864.9, -3.517e-08
6866.9, -3.536e-08
6868.9, -3.104e-08
6870.9, -3.367e-08
6872.9, -3.413e-08
6874.9, -3.342e-08
6876.9, -3.565e-08
6878.9, -3.566e-08
6880.9, -3.304e-08
6882.9, -3.222e-08
6884.9, -3.114e-08
6886.9, -3.474e-08
6888.9, -3.279e-08
6890.9, -3.325e-08
6892.9, -3.808e-08
6894.9, -3.898e-08
6896.9, -3.512e-08
6898.9, -3.865e-08
6900.9, -3.424e-08
6902.9, -3.786e-08
6904.9, -3.59e-08
6906.9, -3.546e-08
6908.9, -3.496e-08
6910.9, -3.931e-08
6912.9, -3.479e-08
6914.9, -3.689e-08
6916.9, -3.81e-08
6918.9, -3.865e-08
6920.9, -3.813e-08
6922.9, -3.216e-08
6924.9, -3.638e-08
6926.9, -3.638e-08
6928.9, -3.816e-08
6930.9, -3.706e-08
6932.9, -3.901e-08
6934.9, -3.802e-08
6936.9, -3.808e-08
6938.9, -3.618e-08
6940.9, -4.114e-08
6942.9, -3.837e-08
6944.9, -3.724e-08
6946.9, -3.785e-08
6948.9, -4.073e-08
6950.9, -3.73e-08
6952.9, -3.508e-08
6954.9, -3.663e-08
6956.9, -3.536e-08
6959.0, -3.755e-08
6961.0, -3.353e-08
6963.0, -4.055e-08
6965.0, -4.124e-08
6967.0, -4.334e-08
6969.0, -3.904e-08
6971.0, -3.877e-08
6973.0, -4.035e-08
6975.0, -4.107e-08
6977.0, -3.354e-08
6979.0, -3.574e-08
6981.0, -3.734e-08
6983.0, -3.741e-08
6985.0, -4.057e-08
6987.0, -3.96e-08
6989.0, -3.64e-08
6991.0, -3.617e-08
6993.0, -3.561e-08
6995.0, -3.666e-08
6997.0, -3.764e-08
6999.0, -3.501e-08
7001.0, -3.487e-08
7003.0, -3.52e-08
7005.0, -4.01e-08
7007.0, -3.622e-08
7009.0, -3.536e-08
7011.0, -3.733e-08
7013.0, -3.445e-08
7015.0, -3.708e-08
7017.0, -3.773e-08
7019.0, -3.911e-08
7021.0, -3.768e-08
7023.0, -3.881e-08
7025.0, -3.668e-08
7027.0, -3.513e-08
7029.0, -3.54e-08
7031.0, -3.467e-08
7033.0, -3.722e-08
7035.0, -3.472e-08
7037.0, -3.451e-08
7039.0, -3.333e-08
7041.0, -2.921e-08
7043.0, -3.161e-08
7045.0, -3.143e-08
7047.0, -3.509e-08
7049.0, -3.124e-08
7051.0, -3.383e-08
7053.0, -3.375e-08
7055.0, -3.17e-08
7057.0, -2.941e-08
7059.1, -2.966e-08
7061.1, -3.293e-08
7063.1, -3.431e-08
7065.1, -3.243e-08
7067.1, -3.349e-08
7069.1, -2.747e-08
7071.1, -3.202e-08
7073.1, -3.679e-08
7075.1, -3.26e-08
7077.1, -3.442e-08
7079.1, -3.456e-08
7081.1, -3.763e-08
7083.1, -3.406e-08
7085.1, -3.535e-08
7087.1, -3.85e-08
7089.1, -3.938e-08
7091.1, -3.745e-08
7093.1, -3.704e-08
7095.1, -3.398e-08
7097.1, -3.621e-08
7099.1, -3.811e-08
7101.1, -3.729e-08
7103.1, -3.778e-08
7105.1, -3.98e-08
7107.1, -4.072e-08
7109.1, -3.653e-08
7111.1, -3.864e-08
7113.1, -3.714e-08
7115.1, -3.678e-08
7117.1, -4.056e-08
7119.1, -3.518e-08
7121.1, -3.632e-08
7123.1, -3.735e-08
7125.1, -3.837e-08
7127.1, -3.379e-08
7129.1, -3.21e-08
7131.1, -3.187e-08
7133.1, -3.792e-08
7135.1, -3.435e-08
7137.1, -3.416e-08
7139.1, -3.305e-08
7141.1, -3.157e-08
7143.1, -3.13e-08
7145.1, -2.919e-08
7147.1, -3.042e-08
7149.1, 2.73e-09
7151.1, 9.915e-08
7153.1, 4.809e-08
7155.1, 7.203e-08
7157.1, 7.749e-08
7159.2, 8.292e-08
7161.2, 8.889e-08
7163.2, 1.0259e-07
7165.2, 7.638e-08
7167.2, 1.0109e-07
7169.2, 8.726e-08
7171.2, 8.903e-08
7173.2, 7.185e-08
7175.2, 8.42e-08
7177.2, 8.796e-08
7179.2, 7.273e-08
7181.2, 7.901e-08
7183.2, 8.407e-08
7185.2, 7.577e-08
7187.2, 6.221e-08
7189.2, 8.421e-08
7191.2, 1.1536e-07
7193.2, 9.26e-08
7195.2, 6.577e-08
7197.2, 9.513e-08
7199.2, 1.0591e-07
7201.2, 8.796e-08
7203.2, 8.324e-08
7205.2, 8.706e-08
7207.2, 8.894e-08
7209.2, 6.469e-08
7211.2, 6.583e-08
7213.2, 8.088e-08
7215.2, 8.424e-08
7217.2, 1.0258e-07
7219.2, 7.306e-08
7221.2, 9.511e-08
7223.2, 8.596e-08
7225.2, 8.223e-08
7227.2, 8.904e-08
7229.2, 1.0229e-07
7231.2, 9.069e-08
7233.2, 9.153e-08
7235.2, 7.906e-08
7237.2, 8.385e-08
7239.2, 1.0951e-07
7241.2, 6.703e-08
7243.2, 7.018e-08
7245.2, 9.998e-08
7247.2, 7.666e-08
7249.2, 8.515e-08
7251.2, 7.474e-08
7253.2, 7.47e-08
7255.2, 8.405e-08
7257.2, 8.459e-08
7259.3, 8.623e-08
7261.3, 9.446e-08
7263.3, 1.1019e-07
7265.3, 9.602e-08
7267.3, 1.0426e-07
7269.3, 8.566e-08
7271.3, 8.162e-08
7273.3, 7.279e-08
7275.3, 7.199e-08
7277.3, 9.001e-08
7279.3, 1.1021e-07
7281.3, 1.1477e-07
7283.3, 9.017e-08
7285.3, 6.509e-08
7287.3, 7.323e-08
7289.3, 1.0767e-07
7291.3, 9.375e-08
7293.3, 7.55e-08
7295.3, 1.0121e-07
7297.3, 9.919e-08
7299.3, 1.16e-07
7301.3, 1.0316e-07
7303.3, 6.456e-08
7305.3, 7.345e-08
7307.3, 9.709e-08
7309.3, 8.846e-08
7311.3, 7.047e-08
7313.3, 9.009e-08
7315.3, 8.928e-08
7317.3, 7.025e-08
7319.3, 7.119e-08
7321.3, 8.6e-08
7323.3, 9.467e-08
7325.3, 8.606e-08
7327.3, 9.865e-08
7329.3, 8.973e-08
7331.3, 9.773e-08
7333.3, 9.825e-08
7335.3, 8.747e-08
7337.3, 1.1592e-07
7339.3, 1.0098e-07
7341.3, 9.889e-08
7343.3, 9.421e-08
7345.3, 7.496e-08
7347.3, 9.301e-08
7349.3, 9.648e-08
7351.3, 1.0652e-07
7353.3, 9.074e-08
7355.3, 1.096e-07
7357.3, 1.1503e-07
7359.4, 1.342e-07
7361.4, 9.678e-08
7363.4, 1.0213e-07
7365.4, 7.542e-08
7367.4, 9.217e-08
7369.4, 9.241e-08
7371.4, 1.2345e-07
7373.4, 1.1414e-07
7375.4, 1.1088e-07
7377.4, 8.874e-08
7379.4, 9.258e-08
7381.4, 8.703e-08
7383.4, 9.584e-08
7385.4, 1.0331e-07
7387.4, 9.843e-08
7389.4, 9.188e-08
7391.4, 7.678e-08
7393.4, 9.197e-08
7395.4, 7.988e-08
7397.4, 9.611e-08
7399.4, 1.0521e-07
7401.4, 8.128e-08
7403.4, 7.866e-08
7405.4, 9.381e-08
7407.4, 1.0854e-07
7409.4, 1.1948e-07
7411.4, 8.889e-08
7413.4, 8.62e-08
7415.4, 9.406e-08
7417.4, 9.158e-08
7419.4, 1.3309e-07
7421.4, 1.1438e-07
7423.4, 9.31e-08
7425.4, 1.0434e-07
7427.4, 9.265e-08
7429.4, 8.926e-08
7431.4, 8.375e-08
7433.4, 9.455e-08
7435.4, 8.45e-08
7437.4, 9.165e-08
7439.4, 9.073e-08
7441.4, 9.026e-08
7443.4, 7.942e-08
7445.4, 8.481e-08
7447.4, 9.423e-08
7449.4, 9.048e-08
7451.4, 9.982e-08
7453.4, 9.072e-08
7455.4, 1.0391e-07
7457.4, 9.634e-08
7459.5, 8.129e-08
7461.5, 8.437e-08
7463.5, 9.827e-08
7465.5, 8.874e-08
7467.5, 7.717e-08
7469.5, 9.801e-08
7471.5, 9.634e-08
7473.5, 8.987e-08
7475.5, 6.951e-08
7477.5, 8.274e-08
7479.5, 8.387e-08
7481.5, 8.754e-08
7483.5, 8.681e-08
7485.5, 1.2042e-07
7487.5, 1.0661e-07
7489.5, 7.9e-08
7491.5, 1.021e-07
7493.5, 9.389e-08
7495.5, 8.671e-08
7497.5, 8.566e-08
7499.5, 9.711e-08
7501.5, 8.821e-08
7503.5, 9.302e-08
7505.5, 7.727e-08
7507.5, 9.871e-08
7509.5, 8.902e-08
7511.5, 1.1246e-07
7513.5, 7.531e-08
7515.5, 1.1589e-07
7517.5, 1.1014e-07
7519.5, 1.1111e-07
7521.5, 1.1729e-07
7523.5, 8.203e-08
7525.5, 8.374e-08
7527.5, 8.975e-08
7529.5, 1.0557e-07
7531.5, 1.0804e-07
7533.5, 7.582e-08
7535.5, 8.261e-08
7537.5, 9.029e-08
7539.5, 8.662e-08
7541.5, 9.612e-08
7543.5, 7.174e-08
7545.5, 9.999e-08
7547.5, 9.459e-08
7549.5, 8.508e-08
7551.5, 8.815e-08
7553.5, 9.289e-08
7555.5, 8.741e-08
7557.5, 7.997e-08
7559.6, 1.0643e-07
7561.6, 8.425e-08
7563.6, 7.446e-08
7565.6, 9.952e-08
7567.6, 9.77e-08
7569.6, 8.371e-08
7571.6, 9.809e-08
7573.6, 1.1016e-07
7575.6, 8.939e-08
7577.6, 8.469e-08
7579.6, 9.024e-08
7581.6, 9.474e-08
7583.6, 9.823e-08
7585.6, 1.0592e-07
7587.6, 8.193e-08
7589.6, 8.053e-08
7591.6, 7.746e-08
7593.6, 6.948e-08
7595.6, 9.165e-08
7597.6, 9.762e-08
7599.6, 1.0184e-07
7601.6, 1.3803e-07
7603.6, 7.666e-08
7605.6, 9.8e-08
7607.6, 1.0165e-07
7609.6, 8.571e-08
7611.6, 9.76e-08
7613.6, 9.239e-08
7615.6, 9.077e-08
7617.6, 9.897e-08
7619.6, 9.611e-08
7621.6, 1.1072e-07
7623.6, 8.532e-08
7625.6, 1.0338e-07
7627.6, 9.815e-08
7629.6, 1.0489e-07
7631.6, 8.869e-08
7633.6, 8.236e-08
7635.6, 6.577e-08
7637.6, 9.569e-08
7639.6, 8.761e-08
7641.6, 1.1057e-07
7643.6, 8.201e-08
7645.6, 9.439e-08
7647.6, 1.0406e-07
7649.6, 8.39e-08
7651.6, 9.998e-08
7653.6, 1.1193e-07
7655.6, 1.0188e-07
7657.6, 7.712e-08
7659.7, 7.214e-08
7661.7, 7.685e-08
7663.7, 7.68e-08
7665.7, 8.943e-08
7667.7, 1.0257e-07
7669.7, 1.2893e-07
7671.7, 1.1713e-07
7673.7, 1.1446e-07
7675.7, 1.0012e-07
7677.7, 8.601e-08
7679.7, 8.516e-08
7681.7, 1.0182e-07
7683.7, 8.37e-08
7685.7, 7.722e-08
7687.7, 8.798e-08
7689.7, 8.189e-08
7691.7, 1.0571e-07
7693.7, 1.1296e-07
7695.7, 9.263e-08
7697.7, 8.103e-08
7699.7, 9.019e-08
7701.7, 1.0075e-07
7703.7, 7.896e-08
7705.7, 7.906e-08
7707.7, 1.1954e-07
7709.7, 9.143e-08
7711.7, 1.0734e-07
7713.7, 9.305e-08
7715.7, 8.028e-08
7717.7, 9.649e-08
7719.7, 1.1905e-07
7721.7, 1.0353e-07
7723.7, 7.413e-08
7725.7, 8.17e-08
7727.7, 8.41e-08
7729.7, 1.2725e-07
7731.7, 9.96e-08
7733.7, 9.38e-08
7735.7, 9.045e-08
7737.7, 1.0309e-07
7739.7, 1.1828e-07
7741.7, 1.1157e-07
7743.7, 8.939e-08
7745.7, 6.311e-08
7747.7, 9.87e-08
7749.7, 9.283e-08
7751.7, 9.5e-08
7753.7, 1.0413e-07
7755.7, 8.714e-08
7757.7, 1.0495e-07
7759.8, 9.91e-08
7761.8, 6.777e-08
7763.8, 1.0845e-07
7765.8, 7.715e-08
7767.8, 6.76e-08
7769.8, 7.21e-08
7771.8, 8.703e-08
7773.8, 8.913e-08
7775.8, 7.809e-08
7777.8, 9.681e-08
7779.8, 9.544e-08
7781.8, 8.55e-08
7783.8, 9.602e-08
7785.8, 7.367e-08
7787.8, 1.0461e-07
7789.8, 8.603e-08
7791.8, 8.922e-08
7793.8, 1.0259e-07
7795.8, 9.318e-08
7797.8, 1.0824e-07
7799.8, 1.0348e-07
7801.8, 7.714e-08
7803.8, 7.063e-08
7805.8, 6.651e-08
7807.8, 8.293e-08
7809.8, 9.005e-08
7811.8, 9.181e-08
7813.8, 1.0748e-07
7815.8, 1.1592e-07
7817.8, 7.373e-08
7819.8, 7.483e-08
7821.8, 1.0692e-07
7823.8, 8.748e-08
7825.8, 9.264e-08
7827.8, 8.092e-08
7829.8, 9.491e-08
7831.8, 8.637e-08
7833.8, 1.021e-07
7835.8, 8.142e-08
7837.8, 8.62e-08
7839.8, 6.639e-08
7841.8, 8.332e-08
7843.8, 8.388e-08
7845.8, 8.141e-08
7847.8, 1.0431e-07
7849.8, 9.754e-08
7851.8, 1.0642e-07
7853.8, 9.805e-08
7855.8, 1.0279e-07
7857.8, 8.192e-08
7859.9, 9.943e-08
7861.9, 1.0274e-07
7863.9, 9.489e-08
7865.9, 9.655e-08
7867.9, 1.1686e-07
7869.9, 1.0318e-07
7871.9, 1.294e-07
7873.9, 9.11e-08
7875.9, 1.2131e-07
7877.9, 1.1174e-07
7879.9, 1.0526e-07
7881.9, 1.1765e-07
7883.9, 1.103e-07
7885.9, 9.081e-08
7887.9, 9.388e-08
7889.9, 1.0297e-07
7891.9, 8.694e-08
7893.9, 8.06e-08
7895.9, 1.0174e-07
7897.9, 1.0589e-07
7899.9, 9.313e-08
7901.9, 8.157e-08
7903.9, 8.026e-08
7905.9, 9.683e-08
7907.9, 9.378e-08
7909.9, 1.0088e-07
7911.9, 9.6e-08
7913.9, 1.0068e-07
7915.9, 8.839e-08
7917.9, 9.086e-08
7919.9, 9.183e-08
7921.9, 8.687e-08
7923.9, 1.0272e-07
7925.9, 1.0631e-07
7927.9, 1.1031e-07
7929.9, 9.303e-08
7931.9, 1.0016e-07
7933.9, 1.0946e-07
7935.9, 8.997e-08
7937.9, 1.011e-07
7939.9, 1.0624e-07
7941.9, 9.481e-08
7943.9, 9.67e-08
7945.9, 7.838e-08
7947.9, 1.0481e-07
7949.9, 9.5e-08
7951.9, 8.342e-08
7953.9, 9.707e-08
7955.9, 1.0319e-07
7957.9, 8.235e-08
7960.0, 9.384e-08
7962.0, 8.793e-08
7964.0, 1.0014e-07
7966.0, 1.1002e-07
7968.0, 8.852e-08
7970.0, 8.087e-08
7972.0, 1.1271e-07
7974.0, 8.969e-08
7976.0, 9.316e-08
7978.0, 7.665e-08
7980.0, 7.363e-08
7982.0, 9.487e-08
7984.0, 9.303e-08
7986.0, 9.428e-08
7988.0, 6.956e-08
7990.0, 1.1597e-07
7992.0, 7.735e-08
7994.0, 8.478e-08
7996.0, 1.0199e-07
7998.0, 8.78e-08
8000.0, 8.946e-08
8002.0, 9.798e-08
8004.0, 1.0111e-07
8006.0, 7.967e-08
8008.0, 8.304e-08
8010.0, 9.654e-08
8012.0, 8.355e-08
8014.0, 1.005e-07
8016.0, 7.308e-08
8018.0, 8.728e-08
8020.0, 9.8e-08
8022.0, 9.959e-08
8024.0, 1.1783e-07
8026.0, 7.848e-08
8028.0, 9.182e-08
8030.0, 1.0859e-07
8032.0, 7.211e-08
8034.0, 9.902e-08
8036.0, 1.0098e-07
8038.0, 1.0684e-07
8040.0, 8.59e-08
8042.0, 9.536e-08
8044.0, 1.0364e-07
8046.0, 9.569e-08
8048.0, 1.0496e-07
8050.0, 7.186e-08
8052.0, 1.0661e-07
8054.0, 1.096e-07
8056.0, 9.998e-08
8058.0, 8.253e-08
8060.1, 8.206e-08
8062.1, 1.1404e-07
8064.1, 8.634e-08
8066.1, 1.0229e-07
8068.1, 1.0407e-07
8070.1, 7.951e-08
8072.1, 8.571e-08
8074.1, 1.1407e-07
8076.1, 9.639e-08
8078.1, 8.843e-08
8080.1, 1.046e-07
8082.1, 1.0669e-07
8084.1, 1.0595e-07
8086.1, 1.1969e-07
8088.1, 1.0712e-07
8090.1, 1.0524e-07
8092.1, 9.405e-08
8094.1, 9.562e-08
8096.1, 1.0523e-07
8098.1, 9.483e-08
8100.1, 9.621e-08
8102.1, 1.1098e-07
8104.1, 1.3297e-07
8106.1, 1.0142e-07
8108.1, 8.987e-08
8110.1, 1.0984e-07
8112.1, 1.1395e-07
8114.1, 1.2276e-07
8116.1, 9.545e-08
8118.1, 1.0817e-07
8120.1, 7.053e-08
8122.1, 1.0624e-07
8124.1, 7.775e-08
8126.1, 1.2664e-07
8128.1, 1.0788e-07
8130.1, 9.297e-08
8132.1, 1.2033e-07
8134.1, 9.716e-08
8136.1, 9.371e-08
8138.1, 9.944e-08
8140.1, 8.739e-08
8142.1, 8.909e-08
8144.1, 8.723e-08
8146.1, 1.1211e-07
8148.1, 7.254e-08
8150.1, 3.429e-08
8152.1, -3.641e-08
8154.1, -4.057e-08
8156.1, -3.766e-08
8158.1, -3.85e-08
8160.2, -3.757e-08
8162.2, -3.206e-08
8164.2, -4.13e-08
8166.2, -3.595e-08
8168.2, -3.863e-08
8170.2, -3.44e-08
8172.2, -3.688e-08
8174.2, -3.511e-08
8176.2, -3.632e-08
8178.2, -3.867e-08
8180.2, -3.766e-08
8182.2, -3.874e-08
8184.2, -3.959e-08
8186.2, -3.958e-08
8188.2, -4.007e-08
8190.2, -3.679e-08
8192.2, -3.417e-08
8194.2, -3.535e-08
8196.2, -3.662e-08
8198.2, -3.222e-08
8200.2, -3.281e-08
8202.2, -3.775e-08
8204.2, -3.819e-08
8206.2, -3.76e-08
8208.2, -3.676e-08
8210.2, -3.567e-08
8212.2, -3.339e-08
8214.2, -3.838e-08
8216.2, -3.406e-08
8218.2, -3.379e-08
8220.2, -3.698e-08
8222.2, -3.765e-08
8224.2, -4.069e-08
8226.2, -3.798e-08
8228.2, -3.662e-08
8230.2, -3.973e-08
8232.2, -3.67e-08
8234.2, -3.555e-08
8236.2, -3.163e-08
8238.2, -3.41e-08
8240.2, -3.565e-08
8242.2, -3.726e-08
8244.2, -3.191e-08
8246.2, -3.481e-08
8248.2, -3.573e-08
8250.2, -3.598e-08
8252.2, -3.313e-08
8254.2, -3.858e-08
8256.2, -3.871e-08
8258.2, -3.82e-08
8260.3, -3.948e-08
8262.3, -4.029e-08
8264.3, -3.853e-08
8266.3, -3.854e-08
8268.3, -3.566e-08
8270.3, -3.355e-08
8272.3, -4.116e-08
8274.3, -4.114e-08
8276.3, -3.981e-08
8278.3, -4.172e-08
8280.3, -3.93e-08
8282.3, -4.19e-08
8284.3, -3.971e-08
8286.3, -3.815e-08
8288.3, -4.083e-08
8290.3, -3.972e-08
8292.3, -3.868e-08
8294.3, -3.931e-08
8296.3, -4.004e-08
8298.3, -4.009e-08
8300.3, -3.894e-08
8302.3, -3.721e-08
8304.3, -3.872e-08
8306.3, -3.843e-08
8308.3, -3.786e-08
8310.3, -4.021e-08
8312.3, -3.867e-08
8314.3, -4.143e-08
8316.3, -4.304e-08
8318.3, -3.777e-08
8320.3, -4.062e-08
8322.3, -4.193e-08
8324.3, -3.965e-08
8326.3, -3.965e-08
8328.3, -4.147e-08
8330.3, -4.093e-08
8332.3, -4.13e-08
8334.3, -3.966e-08
8336.3, -4.223e-08
8338.3, -4.357e-08
8340.3, -4.273e-08
8342.3, -3.791e-08
8344.3, -3.891e-08
8346.3, -3.847e-08
8348.3, -4.013e-08
8350.3, -4.262e-08
8352.3, -4.16e-08
8354.3, -4.168e-08
8356.3, -3.932e-08
8358.3, -3.679e-08
8360.4, -3.559e-08
8362.4, -3.848e-08
8364.4, -4.047e-08
8366.4, -3.985e-08
8368.4, -4.034e-08
8370.4, -4.005e-08
8372.4, -4.215e-08
8374.4, -3.58e-08
8376.4, -3.34e-08
8378.4, -3.994e-08
8380.4, -3.915e-08
8382.4, -3.84e-08
8384.4, -3.655e-08
8386.4, -3.802e-08
8388.4, -3.44e-08
8390.4, -3.091e-08
8392.4, -3.367e-08
8394.4, -3.576e-08
8396.4, -3.317e-08
8398.4, -3.802e-08
8400.4, -3.259e-08
8402.4, -3.117e-08
8404.4, -3.214e-08
8406.4, -3.606e-08
8408.4, -3.436e-08
8410.4, -3.342e-08
8412.4, -3.604e-08
8414.4, -3.525e-08
8416.4, -3.69e-08
8418.4, -3.893e-08
8420.4, -3.439e-08
8422.4, -3.523e-08
8424.4, -3.812e-08
8426.4, -3.902e-08
8428.4, -3.726e-08
8430.4, -3.655e-08
8432.4, -3.649e-08
8434.4, -3.611e-08
8436.4, -3.883e-08
8438.4, -3.901e-08
8440.4, -3.875e-08
8442.4, -4.055e-08
8444.4, -4.033e-08
8446.4, -4.139e-08
8448.4, -4.032e-08
8450.4, -3.688e-08
8452.4, -3.966e-08
8454.4, -3.351e-08
8456.4, -3.714e-08
8458.4, -3.768e-08
8460.5, -3.625e-08
8462.5, -3.861e-08
8464.5, -3.977e-08
8466.5, -4.034e-08
8468.5, -3.528e-08
8470.5, -3.593e-08
8472.5, -3.517e-08
8474.5, -3.736e-08
8476.5, -3.662e-08
8478.5, -3.908e-08
8480.5, -3.91e-08
8482.5, -3.7e-08
8484.5, -3.759e-08
8486.5, -3.866e-08
8488.5, -3.778e-08
8490.5, -3.704e-08
8492.5, -3.686e-08
8494.5, -3.707e-08
8496.5, -3.745e-08
8498.5, -3.749e-08
8500.5, -3.887e-08
8502.5, -3.747e-08
8504.5, -3.658e-08
8506.5, -3.813e-08
8508.5, -4.06e-08
8510.5, -3.37e-08
8512.5, -3.543e-08
8514.5, -3.697e-08
8516.5, -3.319e-08
8518.5, -3.577e-08
8520.5, -3.556e-08
8522.5, -3.801e-08
8524.5, -3.676e-08
8526.5, -3.992e-08
8528.5, -3.473e-08
8530.5, -3.484e-08
8532.5, -3.75e-08
8534.5, -3.776e-08
8536.5, -3.61e-08
8538.5, -3.767e-08
8540.5, -4.083e-08
8542.5, -3.697e-08
8544.5, -3.578e-08
8546.5, -3.604e-08
8548.5, -3.698e-08
8550.5, -3.874e-08
8552.5, -3.279e-08
8554.5, -3.328e-08
8556.5, -3.264e-08
8558.5, -3.572e-08
8560.6, -3.811e-08
8562.6, -3.687e-08
8564.6, -3.535e-08
8566.6, -3.699e-08
8568.6, -3.745e-08
8570.6, -3.553e-08
8572.6, -3.621e-08
8574.6, -3.995e-08
8576.6, -3.894e-08
8578.6, -3.856e-08
8580.6, -4.059e-08
8582.6, -3.832e-08
8584.6, -3.542e-08
8586.6, -4.004e-08
8588.6, -3.69e-08
8590.6, -3.841e-08
8592.6, -3.702e-08
8594.6, -3.552e-08
8596.6, -3.505e-08
8598.6, -3.882e-08
8600.6, -3.638e-08
8602.6, -3.601e-08
8604.6, -3.708e-08
8606.6, -3.605e-08
8608.6, -3.749e-08
8610.6, -3.489e-08
8612.6, -3.418e-08
8614.6, -3.817e-08
8616.6, -4.014e-08
8618.6, -3.679e-08
8620.6, -3.547e-08
8622.6, -3.471e-08
8624.6, -3.761e-08
8626.6, -3.543e-08
8628.6, -3.504e-08
8630.6, -3.437e-08
8632.6, -3.852e-08
8634.6, -3.67e-08
8636.6, -3.383e-08
8638.6, -3.606e-08
8640.6, -3.127e-08
8642.6, -3.134e-08
8644.6, -3.479e-08
8646.6, -3.58e-08
8648.6, -3.477e-08
8650.6, -3.516e-08
8652.6, -3.369e-08
8654.6, -3.517e-08
8656.6, -3.452e-08
8658.6, -3.575e-08
8660.7, -3.605e-08
8662.7, -3.431e-08
8664.7, -3.784e-08
8666.7, -3.683e-08
8668.7, -3.821e-08
8670.7, -3.834e-08
8672.7, -3.921e-08
8674.7, -3.946e-08
8676.7, -3.634e-08
8678.7, -3.721e-08
8680.7, -4.043e-08
8682.7, -3.427e-08
8684.7, -3.977e-08
8686.7, -3.975e-08
8688.7, -3.9e-08
8690.7, -4.025e-08
8692.7, -3.389e-08
8694.7, -3.855e-08
8696.7, -4.397e-08
8698.7, -3.909e-08
8700.7, -3.845e-08
8702.7, -4.323e-08
8704.7, -4.104e-08
8706.7, -4.169e-08
8708.7, -4.057e-08
8710.7, -3.996e-08
8712.7, -3.799e-08
8714.7, -3.974e-08
8716.7, -3.816e-08
8718.7, -4.045e-08
8720.7, -3.595e-08
8722.7, -3.685e-08
8724.7, -3.829e-08
8726.7, -3.575e-08
8728.7, -4.126e-08
8730.7, -3.944e-08
8732.7, -3.519e-08
8734.7, -3.975e-08
8736.7, -3.599e-08
8738.7, -4.167e-08
8740.7, -3.521e-08
8742.7, -3.687e-08
8744.7, -3.536e-08
8746.7, -3.77e-08
8748.7, -4.114e-08
8750.7, -3.982e-08
8752.7, -3.877e-08
8754.7, -3.945e-08
8756.7, -3.791e-08
8758.7, -4.32e-08
8760.8, -4.116e-08
8762.8, -3.92e-08
8764.8, -3.81e-08
8766.8, -3.805e-08
8768.8, -3.776e-08
8770.8, -3.912e-08
8772.8, -3.806e-08
8774.8, -3.8e-08
8776.8, -3.942e-08
8778.8, -3.794e-08
8780.8, -4.006e-08
8782.8, -3.919e-08
8784.8, -4.08e-08
8786.8, -4.365e-08
8788.8, -4.075e-08
8790.8, -3.869e-08
8792.8, -3.762e-08
8794.8, -3.89e-08
8796.8, -4.028e-08
8798.8, -3.831e-08
8800.8, -3.752e-08
8802.8, -3.891e-08
8804.8, -3.718e-08
8806.8, -3.526e-08
8808.8, -3.37e-08
8810.8, -3.646e-08
8812.8, -3.791e-08
8814.8, -3.734e-08
8816.8, -3.877e-08
8818.8, -3.61e-08
8820.8, -3.511e-08
8822.8, -3.683e-08
8824.8, -3.793e-08
8826.8, -3.819e-08
8828.8, -3.582e-08
8830.8, -3.669e-08
8832.8, -4.177e-08
8834.8, -3.448e-08
8836.8, -3.566e-08
8838.8, -3.803e-08
8840.8, -3.465e-08
8842.8, -3.647e-08
8844.8, -4.13e-08
8846.8, -4.093e-08
8848.8, -4.109e-08
8850.8, -4.344e-08
8852.8, -3.834e-08
8854.8, -3.863e-08
8856.8, -4.27e-08
8858.8, -4.305e-08
8860.9, -4.005e-08
8862.9, -4.056e-08
8864.9, -3.918e-08
8866.9, -4.036e-08
8868.9, -3.584e-08
8870.9, -3.815e-08
8872.9, -3.874e-08
8874.9, -4.129e-08
8876.9, -3.95e-08
8878.9, -3.548e-08
8880.9, -3.664e-08
8882.9, -3.578e-08
8884.9, -3.6e-08
8886.9, -4.154e-08
8888.9, -3.816e-08
8890.9, -3.779e-08
8892.9, -3.724e-08
8894.9, -3.806e-08
8896.9, -3.84e-08
8898.9, -3.948e-08
8900.9, -3.624e-08
8902.9, -4.228e-08
8904.9, -4.016e-08
8906.9, -3.953e-08
8908.9, -3.601e-08
8910.9, -3.967e-08
8912.9, -3.767e-08
8914.9, -4.102e-08
8916.9, -4.13e-08
8918.9, -3.77e-08
8920.9, -3.509e-08
8922.9, -3.508e-08
8924.9, -3.902e-08
8926.9, -4.443e-08
8928.9, -3.763e-08
8930.9, -3.381e-08
8932.9, -3.659e-08
8934.9, -4.089e-08
8936.9, -4.258e-08
8938.9, -3.914e-08
8940.9, -3.856e-08
8942.9, -3.728e-08
8944.9, -3.634e-08
8946.9, -3.9e-08
8948.9, -3.36e-08
8950.9, -3.66e-08
8952.9, -3.424e-08
8954.9, -3.71e-08
8956.9, -3.685e-08
8958.9, -3.696e-08
8961.0, -3.777e-08
8963.0, -3.329e-08
8965.0, -3.301e-08
8967.0, -3.3e-08
8969.0, -3.602e-08
8971.0, -3.737e-08
8973.0, -3.37e-08
8975.0, -3.861e-08
8977.0, -3.965e-08
8979.0, -3.957e-08
8981.0, -3.846e-08
8983.0, -4.314e-08
8985.0, -3.762e-08
8987.0, -3.776e-08
8989.0, -3.926e-08
8991.0, -3.732e-08
8993.0, -3.811e-08
8995.0, -3.863e-08
8997.0, -4.099e-08
8999.0, -3.675e-08
9001.0, -3.488e-08
9003.0, -3.721e-08
9005.0, -3.286e-08
9007.0, -3.834e-08
9009.0, -3.556e-08
9011.0, -3.83e-08
9013.0, -3.387e-08
9015.0, -3.746e-08
9017.0, -4.092e-08
9019.0, -3.533e-08
9021.0, -3.035e-08
9023.0, -3.493e-08
9025.0, -3.441e-08
9027.0, -3.595e-08
9029.0, -3.371e-08
9031.0, -3.507e-08
9033.0, -3.552e-08
9035.0, -3.653e-08
9037.0, -3.691e-08
9039.0, -3.967e-08
9041.0, -3.4e-08
9043.0, -3.422e-08
9045.0, -3.582e-08
9047.0, -3.726e-08
9049.0, -3.561e-08
9051.0, -3.417e-08
9053.0, -3.707e-08
9055.0, -3.397e-08
9057.0, -3.606e-08
9059.0, -3.493e-08
9061.1, -2.853e-08
9063.1, -3.322e-08
9065.1, -3.389e-08
9067.1, -3.284e-08
9069.1, -3.328e-08
9071.1, -3.504e-08
9073.1, -3.283e-08
9075.1, -3.612e-08
9077.1, -3.451e-08
9079.1, -3.703e-08
9081.1, -3.527e-08
9083.1, -3.435e-08
9085.1, -3.629e-08
9087.1, -3.333e-08
9089.1, -3.381e-08
9091.1, -3.433e-08
9093.1, -3.437e-08
9095.1, -3.855e-08
9097.1, -3.355e-08
9099.1, -3.186e-08
9101.1, -3.097e-08
9103.1, -3.649e-08
9105.1, -3.39e-08
9107.1, -3.424e-08
9109.1, -3.542e-08
9111.1, -3.599e-08
9113.1, -3.621e-08
9115.1, -3.75e-08
9117.1, -3.554e-08
9119.1, -3.73e-08
9121.1, -3.432e-08
9123.1, -3.849e-08
9125.1, -3.548e-08
9127.1, -3.931e-08
9129.1, -3.552e-08
9131.1, -3.937e-08
9133.1, -3.527e-08
9135.1, -3.717e-08
9137.1, -3.765e-08
9139.1, -4.159e-08
9141.1, -4.179e-08
9143.1, -3.975e-08
9145.1, -4.147e-08
9147.1, -4.07e-08
9149.1, -3.937e-08
9151.1, -3.459e-08
9153.1, -3.928e-08
9155.1, -4.049e-08
9157.1, -3.952e-08
9159.1, -3.753e-08
9161.2, -3.76e-08
9163.2, -4.058e-08
9165.2, -3.914e-08
9167.2, -3.818e-08
9169.2, -3.749e-08
9171.2, -3.834e-08
9173.2, -3.987e-08
9175.2, -3.394e-08
9177.2, -3.961e-08
9179.2, -3.974e-08
9181.2, -3.845e-08
9183.2, -4.008e-08
9185.2, -3.736e-08
9187.2, -3.59e-08
9189.2, -4.074e-08
9191.2, -3.644e-08
9193.2, -3.837e-08
9195.2, -3.978e-08
9197.2, -3.641e-08
9199.2, -3.774e-08
9201.2, 7.818e-08
9203.2, 7.217e-08
9205.2, 6.544e-08
9207.2, 6.794e-08
9209.2, 7.544e-08
9211.2, 8.225e-08
9213.2, 4.655e-08
9215.2, 6.699e-08
9217.2, 8.412e-08
9219.2, 6.932e-08
9221.2, 8.613e-08
9223.2, 4.516e-08
9225.2, 9.04e-08
9227.2, 5.597e-08
9229.2, 8.303e-08
9231.2, 8.336e-08
9233.2, 6.501e-08
9235.2, 8.916e-08
9237.2, 9.824e-08
9239.2, 8.188e-08
9241.2, 7.92e-08
9243.2, 8.392e-08
9245.2, 7.857e-08
9247.2, 9.441e-08
9249.2, 1.0504e-07
9251.2, 6.764e-08
9253.2, 7.297e-08
9255.2, 8.891e-08
9257.2, 8.191e-08
9259.2, 7.248e-08
9261.3, 5.356e-08
9263.3, 5.743e-08
9265.3, 5.724e-08
9267.3, 7.867e-08
9269.3, 7.578e-08
9271.3, 7.738e-08
9273.3, 8.98e-08
9275.3, 8.613e-08
9277.3, 4.729e-08
9279.3, 7.468e-08
9281.3, 6.883e-08
9283.3, 6.591e-08
9285.3, 7.818e-08
9287.3, 1.1521e-07
9289.3, 6.192e-08
9291.3, 8.855e-08
9293.3, 6.143e-08
9295.3, 6.562e-08
9297.3, 7.964e-08
9299.3, 7.054e-08
9301.3, 7.314e-08
9303.3, 5.999e-08
9305.3, 9.76e-08
9307.3, 9.018e-08
9309.3, 8.066e-08
9311.3, 1.0101e-07
9313.3, 1.0763e-07
9315.3, 8.069e-08
9317.3, 1.113e-07
9319.3, 9.123e-08
9321.3, 8.429e-08
9323.3, 8.305e-08
9325.3, 8.273e-08
9327.3, 1.015e-07
9329.3, 6.654e-08
9331.3, 6.841e-08
9333.3, 6.841e-08
9335.3, 7.892e-08
9337.3, 7.689e-08
9339.3, 8.141e-08
9341.3, 9.68e-08
9343.3, 7.104e-08
9345.3, 7.874e-08
9347.3, 1.1163e-07
9349.3, 7.157e-08
9351.3, 8.718e-08
9353.3, 9.628e-08
9355.3, 7.691e-08
9357.3, 7.123e-08
9359.3, 7.645e-08
9361.4, 8.477e-08
9363.4, 1.0567e-07
9365.4, 8.461e-08
9367.4, 9.707e-08
9369.4, 7.497e-08
9371.4, 9.712e-08
9373.4, 6.939e-08
9375.4, 7.367e-08
9377.4, 9.971e-08
9379.4, 8.019e-08
9381.4, 9.013e-08
9383.4, 1.0559e-07
9385.4, 7.109e-08
9387.4, 9.903e-08
9389.4, 9.135e-08
9391.4, 9.619e-08
9393.4, 6.888e-08
9395.4, 8.123e-08
9397.4, 1.0158e-07
9399.4, 7.655e-08
9401.4, 9.752e-08
9403.4, 7.629e-08
9405.4, 8.093e-08
9407.4, 9.605e-08
9409.4, 9.419e-08
9411.4, 1.0038e-07
9413.4, 9.372e-08
9415.4, 7.097e-08
9417.4, 9.672e-08
9419.4, 9.924e-08
9421.4, 7.867e-08
9423.4, 1.1019e-07
9425.4, 8.59e-08
9427.4, 9.633e-08
9429.4, 8.086e-08
9431.4, 7.802e-08
9433.4, 8.569e-08
9435.4, 7.493e-08
9437.4, 1.2542e-07
9439.4, 1.1123e-07
9441.4, 9.983e-08
9443.4, 8.954e-08
9445.4, 7.791e-08
9447.4, 1.0485e-07
9449.4, 1.0406e-07
9451.4, 9.622e-08
9453.4, 7.449e-08
9455.4, 1.155e-07
9457.4, 9.632e-08
9459.4, 7.906e-08
9461.5, 9.493e-08
9463.5, 9.677e-08
9465.5, 9.79e-08
9467.5, 9.987e-08
9469.5, 1.0044e-07
9471.5, 8.093e-08
9473.5, 1.0697e-07
9475.5, 1.0624e-07
9477.5, 8.967e-08
9479.5, 8.528e-08
9481.5, 1.1665e-07
9483.5, 1.0655e-07
9485.5, 1.0531e-07
9487.5, 9.329e-08
9489.5, 8.604e-08
9491.5, 1.0426e-07
9493.5, 1.016e-07
9495.5, 7.181e-08
9497.5, 1.0021e-07
9499.5, 1.1619e-07
9501.5, 1.0444e-07
9503.5, 1.0092e-07
9505.5, 9.893e-08
9507.5, 1.0506e-07
9509.5, 9.135e-08
9511.5, 1.0737e-07
9513.5, 8.71e-08
9515.5, 6.827e-08
9517.5, 9.97e-08
9519.5, 8.786e-08
9521.5, 7.994e-08
9523.5, 9.787e-08
9525.5, 1.0393e-07
9527.5, 9.086e-08
9529.5, 5.797e-08
9531.5, 9.924e-08
9533.5, 1.2145e-07
9535.5, 9.544e-08
9537.5, 7.626e-08
9539.5, 9.351e-08
9541.5, 7.656e-08
9543.5, 8.702e-08
9545.5, 9.547e-08
9547.5, 9.779e-08
9549.5, 7.631e-08
9551.5, 1.2547e-07
9553.5, 7.338e-08
9555.5, 1.0144e-07
9557.5, 1.1521e-07
9559.5, 1.0438e-07
9561.6, 1.2773e-07
9563.6, 9.734e-08
9565.6, 9.333e-08
9567.6, 8.1e-08
9569.6, 9.186e-08
9571.6, 8.314e-08
9573.6, 8.933e-08
9575.6, 8.8e-08
9577.6, 7.766e-08
9579.6, 8.743e-08
9581.6, 1.2051e-07
9583.6, 9.595e-08
9585.6, 9.877e-08
9587.6, 1.0628e-07
9589.6, 8.616e-08
9591.6, 8.852e-08
9593.6, 8.594e-08
9595.6, 6.7e-08
9597.6, 1.0527e-07
9599.6, 7.538e-08
9601.6, 1.0529e-07
9603.6, 9.504e-08
9605.6, 1.2781e-07
9607.6, 1.0953e-07
9609.6, 8.336e-08
9611.6, 1.0296e-07
9613.6, 7.644e-08
9615.6, 6.765e-08
9617.6, 1.2406e-07
9619.6, 1.0854e-07
9621.6, 1.0439e-07
9623.6, 9.969e-08
9625.6, 1.0392e-07
9627.6, 9.076e-08
9629.6, 9.839e-08
9631.6, 8.785e-08
9633.6, 1.0732e-07
9635.6, 1.0588e-07
9637.6, 1.1538e-07
9639.6, 9.925e-08
9641.6, 1.2287e-07
9643.6, 8.897e-08
9645.6, 9.858e-08
9647.6, 9.354e-08
9649.6, 7.611e-08
9651.6, 1.0232e-07
9653.6, 8.582e-08
9655.6, 9.779e-08
9657.6, 6.895e-08
9659.6, 7.815e-08
9661.7, 9.251e-08
9663.7, 8.346e-08
9665.7, 1.0615e-07
9667.7, 9.573e-08
9669.7, 1.1997e-07
9671.7, 8.412e-08
9673.7, 1.2455e-07
9675.7, 9.921e-08
9677.7, 8.167e-08
9679.7, 1.0107e-07
9681.7, 9.263e-08
9683.7, 1.1092e-07
9685.7, 8.258e-08
9687.7, 9.334e-08
9689.7, 8.163e-08
9691.7, 1.0814e-07
9693.7, 8.227e-08
9695.7, 7.407e-08
9697.7, 7.208e-08
9699.7, 9.108e-08
9701.7, 9.119e-08
9703.7, 8.793e-08
9705.7, 1.0959e-07
9707.7, 7.76e-08
9709.7, 8.513e-08
9711.7, 1.0726e-07
9713.7, 9.791e-08
9715.7, 9.245e-08
9717.7, 7.776e-08
9719.7, 9.753e-08
9721.7, 9.408e-08
9723.7, 8.18e-08
9725.7, 6.383e-08
9727.7, 8.627e-08
9729.7, 9.179e-08
9731.7, 7.913e-08
9733.7, 1.15e-07
9735.7, 8.927e-08
9737.7, 7.758e-08
9739.7, 9.697e-08
9741.7, 1.0767e-07
9743.7, 9.855e-08
9745.7, 1.0181e-07
9747.7, 8.977e-08
9749.7, 8.91e-08
9751.7, 1.0358e-07
9753.7, 6.262e-08
9755.7, 1.1338e-07
9757.7, 8.791e-08
9759.7, 1.2203e-07
9761.8, 1.0451e-07
9763.8, 8.117e-08
9765.8, 1.0943e-07
9767.8, 9.959e-08
9769.8, 8.775e-08
9771.8, 1.0486e-07
9773.8, 8.389e-08
9775.8, 1.1523e-07
9777.8, 7.194e-08
9779.8, 9.281e-08
9781.8, 9.713e-08
9783.8, 9.392e-08
9785.8, 1.2354e-07
9787.8, 8.63e-08
9789.8, 8.995e-08
9791.8, 9.045e-08
9793.8, 9.049e-08
9795.8, 8.476e-08
9797.8, 6.543e-08
9799.8, 8.613e-08
9801.8, 7.752e-08
9803.8, 1.0016e-07
9805.8, 1.0052e-07
9807.8, 1.0559e-07
9809.8, 8.39e-08
9811.8, 1.0061e-07
9813.8, 1.5676e-07
9815.8, 1.1748e-07
9817.8, 8.025e-08
9819.8, 9.985e-08
9821.8, 7.934e-08
9823.8, 1.244e-07
9825.8, 1.2583e-07
9827.8, 1.0077e-07
9829.8, 8.916e-08
9831.8, 1.0896e-07
9833.8, 1.1489e-07
9835.8, 6.058e-08
9837.8, 1.0379e-07
9839.8, 1.1945e-07
9841.8, 6.041e-08
9843.8, 1.1134e-07
9845.8, 8.915e-08
9847.8, 8.547e-08
9849.8, 8.224e-08
9851.8, 1.0737e-07
9853.8, 8.507e-08
9855.8, 1.0137e-07
9857.8, 8.316e-08
9859.8, 1.0086e-07
9861.9, 9.105e-08
9863.9, 9.222e-08
9865.9, 1.0497e-07
9867.9, 7.37e-08
9869.9, 1.2924e-07
9871.9, 7.854e-08
9873.9, 1.0428e-07
9875.9, 1.1704e-07
9877.9, 8.653e-08
9879.9, 7.078e-08
9881.9, 9.783e-08
9883.9, 8.6e-08
9885.9, 9.932e-08
9887.9, 8.042e-08
9889.9, 9.596e-08
9891.9, 8.668e-08
9893.9, 1.1095e-07
9895.9, 9.047e-08
9897.9, 6.449e-08
9899.9, 8.304e-08
9901.9, 9.882e-08
9903.9, 1.0738e-07
9905.9, 7.318e-08
9907.9, 9.61e-08
9909.9, 8.934e-08
9911.9, 9.862e-08
9913.9, 9.048e-08
9915.9, 1.1765e-07
9917.9, 1.2704e-07
9919.9, 1.0378e-07
9921.9, 1.2336e-07
9923.9, 7.254e-08
9925.9, 1.3157e-07
9927.9, 9.606e-08
9929.9, 9.411e-08
9931.9, 7.822e-08
9933.9, 1.125e-07
9935.9, 8.764e-08
9937.9, 8.093e-08
9939.9, 8.29e-08
9941.9, 1.3456e-07
9943.9, 7.394e-08
9945.9, 9.668e-08
9947.9, 8.329e-08
9949.9, 7.951e-08
9951.9, 8.936e-08
9953.9, 9.961e-08
9955.9, 1.0699e-07
9957.9, 9.417e-08
9959.9, 9.645e-08
9962.0, 1.0937e-07
9964.0, 1.0117e-07
9966.0, 7.857e-08
9968.0, 8.603e-08
9970.0, 7.712e-08
9972.0, 1.0065e-07
9974.0, 8.932e-08
9976.0, 1.0508e-07
9978.0, 1.0448e-07
9980.0, 7.753e-08
9982.0, 8.556e-08
9984.0, 9.184e-08
9986.0, 9.387e-08
9988.0, 1.0616e-07
9990.0, 8.675e-08
9992.0, 8.148e-08
9994.0, 1.0196e-07
9996.0, 9.295e-08
9998.0, 8.568e-08
10000.0, 9.031e-08
10002.0, 8.316e-08
10004.0, 8.245e-08
10006.0, 1.1056e-07
10008.0, 1.0012e-07
10010.0, 9.591e-08
10012.0, 8.873e-08
10014.0, 1.3805e-07
10016.0, 8.097e-08
10018.0, 8.516e-08
10020.0, 1.027e-07
10022.0, 1.1251e-07
10024.0, 9.296e-08
10026.0, 9.382e-08
10028.0, 7.549e-08
10030.0, 9.966e-08
10032.0, 7.768e-08
10034.0, 1.0031e-07
10036.0, 1.0586e-07
10038.0, 8.534e-08
10040.0, 1.207e-07
10042.0, 9.649e-08
10044.0, 1.133e-07
10046.0, 9.424e-08
10048.0, 1.0585e-07
10050.0, 1.2619e-07
10052.0, 1.133e-07
10054.0, 1.0643e-07
10056.0, 8.627e-08
10058.0, 1.0264e-07
10060.0, 9.034e-08
10062.0, 7.98e-08
10064.0, 1.2032e-07
10066.0, 9.659e-08
10068.0, 8.019e-08
10070.0, 8.65e-08
10072.0, 1.0517e-07
10074.0, 1.1699e-07
10076.0, 1.3281e-07
10078.0, 1.0678e-07
10080.0, 7.799e-08
10082.0, 9.939e-08
10084.0, 1.0649e-07
10086.0, 9.12e-08
10088.0, 1.1347e-07
10090.0, 1.094e-07
10092.0, 9.511e-08
10094.0, 9.751e-08
10096.0, 1.0737e-07
10098.0, 9.609e-08
10100.0, 9.546e-08
10102.0, 8.001e-08
10104.0, 6.937e-08
10106.0, 8.205e-08
10108.0, 1.0482e-07
10110.0, 8.069e-08
10112.0, 9.29e-08
10114.0, 1.0032e-07
10116.0, 6.968e-08
10118.0, 1.2029e-07
10120.0, 1.1641e-07
10122.0, 1.2817e-07
10124.0, 1.0459e-07
10126.0, 1.1066e-07
10128.0, 1.1096e-07
10130.0, 8.436e-08
10132.0, 1.1212e-07
10134.0, 9.524e-08
10136.0, 8.895e-08
10138.0, 1.0438e-07
10140.0, 8.667e-08
10142.0, 5.28e-08
10144.0, 1.125e-07
10146.0, 6.949e-08
10148.0, 1.0186e-07
10150.0, 9.536e-08
10152.0, 1.151e-07
10154.0, 1.0986e-07
10156.0, 1.0559e-07
10158.0, 9.415e-08
10160.0, 8.83e-08
10162.0, 8.822e-08
10164.0, 1.0061e-07
10166.0, 9.559e-08
10168.0, 8.676e-08
10170.0, 1.0058e-07
10172.0, 1.311e-07
10174.0, 9.513e-08
10176.0, 8.634e-08
10178.0, 1.0923e-07
10180.0, 7.327e-08
10182.0, 7.534e-08
10184.0, 8.882e-08
10186.0, 9.956e-08
10188.0, 8.808e-08
10190.0, 1.1513e-07
10192.0, 9.729e-08
10194.0, 1.0745e-07
10196.0, 9.453e-08
10198.0, 9.337e-08
10200.0, 9.446e-08
10202.0, -4.138e-08
10204.0, -4.262e-08
10206.0, -4.185e-08
10208.0, -4.261e-08
10210.0, -4.029e-08
10212.0, -4.177e-08
10214.0, -3.983e-08
10216.0, -4.299e-08
10218.0, -4.396e-08
10220.0, -4.092e-08
10222.0, -4.06e-08
10224.0, -4.259e-08
10226.0, -4.327e-08
10228.0, -4.472e-08
10230.0, -4.471e-08
10232.0, -4.156e-08
10234.0, -4.178e-08
10236.0, -4.506e-08
10238.0, -4.396e-08
10240.0, -3.918e-08
10242.0, -3.939e-08
10244.0, -4.222e-08
10246.0, -4.248e-08
10248.0, -4.245e-08
10250.0, -4.589e-08
10252.0, -4.479e-08
10254.0, -4.269e-08
10256.0, -4.072e-08
10258.0, -4.203e-08
10260.0, -3.994e-08
10262.0, -3.975e-08
10264.0, -3.896e-08
10266.0, -4.07e-08
10268.0, -3.811e-08
10270.0, -3.8e-08
10272.0, -3.795e-08
10274.0, -3.855e-08
10276.0, -4.01e-08
10278.0, -4.127e-08
10280.0, -3.978e-08
10282.0, -4.021e-08
10284.0, -3.395e-08
10286.0, -3.888e-08
10288.0, -3.842e-08
10290.0, -3.882e-08
10292.0, -3.944e-08
10294.0, -4.039e-08
10296.0, -3.926e-08
10298.0, -3.778e-08
10300.0, -3.848e-08
10302.0, -3.889e-08
10304.0, -3.834e-08
10306.0, -3.643e-08
10308.0, -3.907e-08
10310.0, -3.587e-08
10312.0, -3.898e-08
10314.0, -3.886e-08
10316.0, -3.752e-08
10318.0, -4.009e-08
10320.0, -4.218e-08
10322.0, -4.042e-08
10324.0, -3.906e-08
10326.0, -4.07e-08
10328.0, -4.019e-08
10330.0, -4.002e-08
10332.0, -3.947e-08
10334.0, -3.976e-08
10336.0, -4.223e-08
10338.0, -4.249e-08
10340.0, -4.362e-08
10342.0, -4.561e-08
10344.0, -4.693e-08
10346.0, -4.441e-08
10348.0, -4.215e-08
10350.0, -4.237e-08
10352.0, -3.872e-08
10354.0, -4.317e-08
10356.0, -4.289e-08
10358.0, -4.351e-08
10360.0, -4.046e-08
10362.0, -4.208e-08
10364.0, -3.905e-08
10366.0, -4.079e-08
10368.0, -4.47e-08
10370.0, -4.118e-08
10372.0, -3.731e-08
10374.0, -3.718e-08
10376.0, -3.682e-08
10378.0, -3.952e-08
10380.0, -4.182e-08
10382.0, -4.237e-08
10384.0, -4.536e-08
10386.0, -4.301e-08
10388.0, -4.571e-08
10390.0, -4.337e-08
10392.0, -3.88e-08
10394.0, -4.188e-08
10396.0, -4.379e-08
10398.0, -4.219e-08
10400.0, -4.713e-08
10402.0, -4.108e-08
10404.0, -4.473e-08
10406.0, -4.085e-08
10408.0, -4.354e-08
10410.0, -4.409e-08
10412.0, -4.229e-08
10414.0, -4.257e-08
10416.0, -4.554e-08
10418.0, -4.435e-08
10420.0, -4.237e-08
10422.0, -3.855e-08
10424.0, -3.886e-08
10426.0, -4.065e-08
10428.0, -4.274e-08
10430.0, -4.285e-08
10432.0, -4.234e-08
10434.0, -4.246e-08
10436.0, -4.139e-08
10438.0, -4.307e-08
10440.0, -4.114e-08
10442.0, -4.439e-08
10444.0, -4.228e-08
10446.0, -4.72e-08
10448.0, -4.146e-08
10450.0, -4.084e-08
10452.0, -4.296e-08
10454.0, -4.196e-08
10456.0, -4.37e-08
10458.0, -4.141e-08
10460.0, -4.651e-08
10462.0, -4.743e-08
10464.0, -4.543e-08
10466.0, -4.39e-08
10468.0, -4.335e-08
10470.0, -4.47e-08
10472.0, -4.141e-08
10474.0, -4.269e-08
10476.0, -3.972e-08
10478.0, -4.091e-08
10480.0, -4.344e-08
10482.0, -3.97e-08
10484.0, -4.168e-08
10486.0, -4.238e-08
10488.0, -4.084e-08
10490.0, -4.617e-08
10492.0, -4.296e-08
10494.0, -4.58e-08
10496.0, -4.462e-08
10498.0, -4.415e-08
10500.0, -4.408e-08
10502.0, -4.538e-08
10504.0, -4.729e-08
10506.0, -4.817e-08
10508.0, -4.898e-08
10510.0, -4.885e-08
10513.0, -4.856e-08
10515.0, -4.532e-08
10517.0, -4.422e-08
10519.0, -4.425e-08
10521.0, -4.784e-08
10523.0, -4.792e-08
10525.0, -4.544e-08
10527.0, -4.318e-08
10529.0, -4.534e-08
10531.0, -4.405e-08
10533.0, -4.83e-08
10535.0, -4.479e-08
10537.0, -4.202e-08
10539.0, -4.711e-08
10541.0, -4.677e-08
10543.0, -4.155e-08
10545.0, -4.46e-08
10547.0, -4.518e-08
10549.0, -4.665e-08
10551.0, -4.476e-08
10553.0, -4.584e-08
10555.0, -4.32e-08
10557.0, -4.25e-08
10559.0, -4.345e-08
10561.0, -4.811e-08
10563.0, -4.624e-08
10565.0, -4.579e-08
10567.0, -4.457e-08
10569.0, -4.218e-08
10571.0, -4.41e-08
10573.0, -4.379e-08
10575.0, -4.163e-08
10577.0, -4.541e-08
10579.0, -4.498e-08
10581.0, -4.48e-08
10583.0, -4.209e-08
10585.0, -4.254e-08
10587.0, -4.566e-08
10589.0, -4.447e-08
10591.0, -4.521e-08
10593.0, -4.914e-08
10595.0, -4.364e-08
10597.0, -4.596e-08
10599.0, -4.351e-08
10601.0, -4.668e-08
10603.0, -4.422e-08
10605.0, -4.513e-08
10607.0, -4.479e-08
10609.0, -4.642e-08
10611.0, -4.745e-08
10613.0, -4.198e-08
10615.0, -4.094e-08
10617.0, -4.074e-08
10619.0, -4.302e-08
10621.0, -4.416e-08
10623.0, -4.238e-08
10625.0, -4.155e-08
10627.0, -4.412e-08
10629.0, -4.206e-08
10631.0, -4.292e-08
10633.0, -3.987e-08
10635.0, -4.1e-08
10637.0, -3.933e-08
10639.0, -4.352e-08
10641.0, -4.215e-08
10643.0, -4.47e-08
10645.0, -4.485e-08
10647.0, -4.578e-08
10649.0, -4.73e-08
10651.0, -4.799e-08
10653.0, -4.744e-08
10655.0, -4.74e-08
10657.0, -4.519e-08
10659.0, -4.688e-08
10661.0, -4.699e-08
10663.0, -4.658e-08
10665.0, -3.993e-08
10667.0, -4.518e-08
10669.0, -4.657e-08
10671.0, -4.227e-08
10673.0, -4.235e-08
10675.0, -4.404e-08
10677.0, -4.184e-08
10679.0, -4.131e-08
10681.0, -4.518e-08
10683.0, -4.132e-08
10685.0, -4.143e-08
10687.0, -4.151e-08
10689.0, -4.491e-08
10691.0, -4.268e-08
10693.0, -4.341e-08
10695.0, -4.218e-08
10697.0, -4.256e-08
10699.0, -4.356e-08
10701.0, -4.415e-08
10703.0, -4.492e-08
10705.0, -4.391e-08
10707.0, -4.23e-08
10709.0, -4.4e-08
10711.0, -4.156e-08
10713.0, -4.065e-08
10715.0, -3.969e-08
10717.0, -3.875e-08
10719.0, -4.324e-08
10721.0, -4.049e-08
10723.0, -4.257e-08
10725.0, -4.087e-08
10727.0, -4.252e-08
10729.0, -3.911e-08
10731.0, -3.752e-08
10733.0, -3.961e-08
10735.0, -4.198e-08
10737.0, -4.092e-08
10739.0, -4.165e-08
10741.0, -4.517e-08
10743.0, -3.956e-08
10745.0, -4.504e-08
10747.0, -4.04e-08
10749.0, -4.209e-08
10751.0, -3.755e-08
10753.0, -4.245e-08
10755.0, -4.49e-08
10757.0, -4.269e-08
10759.0, -4.406e-08
10761.0, -4.579e-08
10763.0, -4.544e-08
10765.0, -4.451e-08
10767.0, -4.244e-08
10769.0, -4.576e-08
10771.0, -4.641e-08
10773.0, -4.524e-08
10775.0, -4.421e-08
10777.0, -4.267e-08
10779.0, -4.299e-08
10781.0, -4.136e-08
10783.0, -4.638e-08
10785.0, -3.976e-08
10787.0, -4.301e-08
10789.0, -4.167e-08
10791.0, -3.995e-08
10793.0, -4.327e-08
10795.0, -4.092e-08
10797.0, -4.49e-08
10799.0, -4.176e-08
10801.0, -4.308e-08
10803.0, -4.064e-08
10805.0, -4.386e-08
10807.0, -4.155e-08
10809.0, -4.287e-08
10811.0, -4.528e-08
10813.0, -4.481e-08
10815.0, -4.655e-08
10817.0, -4.556e-08
10819.0, -4.314e-08
10821.0, -4.389e-08
10823.0, -4.389e-08
10825.0, -4.138e-08
10827.0, -4.144e-08
10829.0, -4.488e-08
10831.0, -4.28e-08
10833.0, -4.365e-08
10835.0, -4.27e-08
10837.0, -4.165e-08
10839.0, -4.354e-08
10841.0, -4.469e-08
10843.0, -4.435e-08
10845.0, -4.432e-08
10847.0, -4.275e-08
10849.0, -4.648e-08
10851.0, -4.647e-08
10853.0, -4.662e-08
10855.0, -3.914e-08
10857.0, -4.285e-08
10859.0, -4.277e-08
10861.0, -4.41e-08
10863.0, -4.549e-08
10865.0, -4.146e-08
10867.0, -4.088e-08
10869.0, -3.81e-08
10871.0, -3.675e-08
10873.0, -3.864e-08
10875.0, -3.833e-08
10877.0, -3.937e-08
10879.0, -3.986e-08
10881.0, -3.956e-08
10883.0, -3.631e-08
10885.0, -3.557e-08
10887.0, -3.872e-08
10889.0, -3.692e-08
10891.0, -3.925e-08
10893.0, -3.646e-08
10895.0, -3.944e-08
10897.0, -4.173e-08
10899.0, -3.943e-08
10901.0, -4.12e-08
10903.0, -3.711e-08
10905.0, -3.605e-08
10907.0, -4.187e-08
10909.0, -3.799e-08
10911.0, -4.011e-08
10913.0, -3.714e-08
10915.0, -3.769e-08
10917.0, -3.98e-08
10919.0, -3.81e-08
10921.0, -3.918e-08
10923.0, -3.859e-08
10925.0, -3.493e-08
10927.0, -3.504e-08
10929.0, -3.539e-08
10931.0, -3.592e-08
10933.0, -3.631e-08
10935.0, -3.708e-08
10937.0, -3.851e-08
10939.0, -3.9e-08
10941.0, -3.828e-08
10943.0, -3.621e-08
10945.0, -3.76e-08
10947.0, -3.627e-08
10949.0, -4.016e-08
10951.0, -3.851e-08
10953.0, -3.638e-08
10955.0, -3.554e-08
10957.0, -3.6e-08
10959.0, -3.799e-08
10961.0, -3.53e-08
10963.0, -3.658e-08
10965.0, -3.935e-08
10967.0, -3.948e-08
10969.0, -3.859e-08
10971.0, -3.399e-08
10973.0, -3.48e-08
10975.0, -3.493e-08
10977.0, -3.701e-08
10979.0, -3.748e-08
10981.0, -3.661e-08
10983.0, -3.53e-08
10985.0, -3.546e-08
10987.0, -3.756e-08
10989.0, -3.464e-08
10991.0, -3.642e-08
10993.0, -3.526e-08
10995.0, -3.637e-08
10997.0, -3.779e-08
10999.0, -4.086e-08
11001.0, -3.634e-08
11003.0, -3.779e-08
11005.0, -3.748e-08
11007.0, -3.914e-08
11009.0, -3.823e-08
