Time sep (ms?), Current (A)
0.0, -3.871e-08
2.002, -3.544e-08
4.004, -3.62e-08
6.006, -3.445e-08
8.008, -3.616e-08
10.01, -3.189e-08
12.012, -3.219e-08
14.014, -3.171e-08
16.016, -3.055e-08
18.018, -3.21e-08
20.02, -3.215e-08
22.022, -3.213e-08
24.024, -3.355e-08
26.026, -3.609e-08
28.028, -3.322e-08
30.03, -3.458e-08
32.032, -3.368e-08
34.034, -3.28e-08
36.036, -3.152e-08
38.038, -3.434e-08
40.04, -3.568e-08
42.042, -3.327e-08
44.044, -3.507e-08
46.046, -3.507e-08
48.048, -3.197e-08
50.05, -3.441e-08
52.052, -3.528e-08
54.054, -3.582e-08
56.056, -3.339e-08
58.058, -4.008e-08
60.06, -3.388e-08
62.062, -3.103e-08
64.064, -3.486e-08
66.066, -3.626e-08
68.068, -3.347e-08
70.07, -3.178e-08
72.072, -3.274e-08
74.074, -3.356e-08
76.076, -3.277e-08
78.078, -2.957e-08
80.08, -3.33e-08
82.082, -3.466e-08
84.084, -3.639e-08
86.086, -3.722e-08
88.088, -3.626e-08
90.09, -3.526e-08
92.092, -3.705e-08
94.094, -3.301e-08
96.096, -3.396e-08
98.098, -3.391e-08
100.1, -3.772e-08
102.1, -3.785e-08
104.1, -3.939e-08
106.11, -3.804e-08
108.11, -3.846e-08
110.11, -3.663e-08
112.11, -3.475e-08
114.11, -3.713e-08
116.12, -3.353e-08
118.12, -3.351e-08
120.12, -3.896e-08
122.12, -3.71e-08
124.12, -3.523e-08
126.13, -3.543e-08
128.13, -3.565e-08
130.13, -3.59e-08
132.13, -3.611e-08
134.13, -3.501e-08
136.14, -3.632e-08
138.14, -3.534e-08
140.14, -3.592e-08
142.14, -3.841e-08
144.14, -3.671e-08
146.15, -3.999e-08
148.15, -3.943e-08
150.15, -3.605e-08
152.15, -3.748e-08
154.15, -3.571e-08
156.16, -3.607e-08
158.16, -3.563e-08
160.16, -3.26e-08
162.16, -3.773e-08
164.16, -3.544e-08
166.17, -3.087e-08
168.17, -3.442e-08
170.17, -3.103e-08
172.17, -3.362e-08
174.17, -3.527e-08
176.18, -3.364e-08
178.18, -2.985e-08
180.18, -3.492e-08
182.18, -3.838e-08
184.18, -3.778e-08
186.19, -3.364e-08
188.19, -3.608e-08
190.19, -3.493e-08
192.19, -3.185e-08
194.19, -3.187e-08
196.2, -3.242e-08
198.2, -3.586e-08
200.2, -3.39e-08
202.2, -3.573e-08
204.2, -3.12e-08
206.21, -3.598e-08
208.21, -3.408e-08
210.21, -3.158e-08
212.21, -3.255e-08
214.21, -3.427e-08
216.22, -3.082e-08
218.22, -3.181e-08
220.22, -3.432e-08
222.22, -3.02e-08
224.22, -3.405e-08
226.23, -3.599e-08
228.23, -3.333e-08
230.23, -3.241e-08
232.23, -3.466e-08
234.23, -3.425e-08
236.24, -3.558e-08
238.24, -3.483e-08
240.24, -3.304e-08
242.24, -3.723e-08
244.24, -3.114e-08
246.25, -3.122e-08
248.25, -3.485e-08
250.25, -3.408e-08
252.25, -3.296e-08
254.25, -3.419e-08
256.26, -3.051e-08
258.26, -3.192e-08
260.26, -3.311e-08
262.26, -3.649e-08
264.26, -3.543e-08
266.27, -2.988e-08
268.27, -3.102e-08
270.27, -3.174e-08
272.27, -3.859e-08
274.27, -3.111e-08
276.28, -3.331e-08
278.28, -3.18e-08
280.28, -3.093e-08
282.28, -3.048e-08
284.28, -3.445e-08
286.29, -3.19e-08
288.29, -2.988e-08
290.29, -3.312e-08
292.29, -3.354e-08
294.29, -3.175e-08
296.3, -2.961e-08
298.3, -3.255e-08
300.3, -3.152e-08
302.3, -2.946e-08
304.3, -2.905e-08
306.31, -3.103e-08
308.31, -3.038e-08
310.31, -2.659e-08
312.31, -2.978e-08
314.31, -2.963e-08
316.32, -3.131e-08
318.32, -3.144e-08
320.32, -3.533e-08
322.32, -3.569e-08
324.32, -3.584e-08
326.33, -3.458e-08
328.33, -3.09e-08
330.33, -3.513e-08
332.33, -3.122e-08
334.33, -3.201e-08
336.34, -2.842e-08
338.34, -2.831e-08
340.34, -3.48e-08
342.34, -3.153e-08
344.34, -3.136e-08
346.35, -3.56e-08
348.35, -3.476e-08
350.35, -3.61e-08
352.35, -3.408e-08
354.35, -3.625e-08
356.36, -3.57e-08
358.36, -3.757e-08
360.36, -3.477e-08
362.36, -3.472e-08
364.36, -3.409e-08
366.37, -3.306e-08
368.37, -3.372e-08
370.37, -3.331e-08
372.37, -3.2e-08
374.37, -3.282e-08
376.38, -3.46e-08
378.38, -3.387e-08
380.38, -3.713e-08
382.38, -3.499e-08
384.38, -3.519e-08
386.39, -3.449e-08
388.39, -3.514e-08
390.39, -3.524e-08
392.39, -3.251e-08
394.39, -3.201e-08
396.4, -3.677e-08
398.4, -3.391e-08
400.4, -3.12e-08
402.4, -3.515e-08
404.4, -3.005e-08
406.41, -3.405e-08
408.41, -3.159e-08
410.41, -3.224e-08
412.41, -3.608e-08
414.41, -3.328e-08
416.42, -3.532e-08
418.42, -3.176e-08
420.42, -3.177e-08
422.42, -3.339e-08
424.42, -3.536e-08
426.43, -3.329e-08
428.43, -3.209e-08
430.43, -3.439e-08
432.43, -3.208e-08
434.43, -3.154e-08
436.44, -3.457e-08
438.44, -3.306e-08
440.44, -3.234e-08
442.44, -3.64e-08
444.44, -3.715e-08
446.45, -3.75e-08
448.45, -3.708e-08
450.45, -3.659e-08
452.45, -3.634e-08
454.45, -3.456e-08
456.46, -3.209e-08
458.46, -3.558e-08
460.46, -3.832e-08
462.46, -3.876e-08
464.46, -3.908e-08
466.47, -3.671e-08
468.47, -3.822e-08
470.47, -3.608e-08
472.47, -3.42e-08
474.47, -3.539e-08
476.48, -3.516e-08
478.48, -3.164e-08
480.48, -3.364e-08
482.48, -3.767e-08
484.48, -3.521e-08
486.49, -3.506e-08
488.49, -3.699e-08
490.49, -3.502e-08
492.49, -3.345e-08
494.49, -3.488e-08
496.5, -3.708e-08
498.5, -3.661e-08
500.5, -3.175e-08
502.5, -3.33e-08
504.5, -3.234e-08
506.51, -3.862e-08
508.51, -3.418e-08
510.51, -3.589e-08
512.51, -3.539e-08
514.51, -3.587e-08
516.52, -3.14e-08
518.52, -3.529e-08
520.52, -3.746e-08
522.52, -3.332e-08
524.52, -3.406e-08
526.53, -3.603e-08
528.53, -3.336e-08
530.53, -3.474e-08
532.53, -3.44e-08
534.53, -3.79e-08
536.54, -3.72e-08
538.54, -3.942e-08
540.54, -3.632e-08
542.54, -3.755e-08
544.54, -3.788e-08
546.55, -4.122e-08
548.55, -3.705e-08
550.55, -3.376e-08
552.55, -3.791e-08
554.55, -3.764e-08
556.56, -3.667e-08
558.56, -3.539e-08
560.56, -3.882e-08
562.56, -3.854e-08
564.56, -3.719e-08
566.57, -3.77e-08
568.57, -3.901e-08
570.57, -3.375e-08
572.57, -3.994e-08
574.57, -3.751e-08
576.58, -3.579e-08
578.58, -3.988e-08
580.58, -4.008e-08
582.58, -3.847e-08
584.58, -4.096e-08
586.59, -3.833e-08
588.59, -3.269e-08
590.59, -3.753e-08
592.59, -3.562e-08
594.59, -3.231e-08
596.6, -3.263e-08
598.6, -3.55e-08
600.6, -3.515e-08
602.6, -3.201e-08
604.6, -3.574e-08
606.61, -3.479e-08
608.61, -3.614e-08
610.61, -3.592e-08
612.61, -3.519e-08
614.61, -3.677e-08
616.62, -3.719e-08
618.62, -3.484e-08
620.62, -3.258e-08
622.62, -3.374e-08
624.62, -3.548e-08
626.63, -3.538e-08
628.63, -3.599e-08
630.63, -3.63e-08
632.63, -3.902e-08
634.63, -3.848e-08
636.64, -3.693e-08
638.64, -3.924e-08
640.64, -3.715e-08
642.64, -3.167e-08
644.64, -3.088e-08
646.65, -3.267e-08
648.65, -3.444e-08
650.65, -3.132e-08
652.65, -3.252e-08
654.65, -3.166e-08
656.66, -3.361e-08
658.66, -3.51e-08
660.66, -3.254e-08
662.66, -3.567e-08
664.66, -3.941e-08
666.67, -3.899e-08
668.67, -3.414e-08
670.67, -3.676e-08
672.67, -3.901e-08
674.67, -3.953e-08
676.68, -3.752e-08
678.68, -3.577e-08
680.68, -3.487e-08
682.68, -3.567e-08
684.68, -3.376e-08
686.69, -3.394e-08
688.69, -3.317e-08
690.69, -3.376e-08
692.69, -3.631e-08
694.69, -3.596e-08
696.7, -3.428e-08
698.7, -3.368e-08
700.7, -3.66e-08
702.7, -3.697e-08
704.7, -3.812e-08
706.71, -3.702e-08
708.71, -3.506e-08
710.71, -3.846e-08
712.71, -3.358e-08
714.71, -3.61e-08
716.72, -3.673e-08
718.72, -3.697e-08
720.72, -3.98e-08
722.72, -3.98e-08
724.72, -3.985e-08
726.73, -4.037e-08
728.73, -3.856e-08
730.73, -3.669e-08
732.73, -4.205e-08
734.73, -4.151e-08
736.74, -3.813e-08
738.74, -3.708e-08
740.74, -3.616e-08
742.74, -3.725e-08
744.74, -3.715e-08
746.75, -3.548e-08
748.75, -3.627e-08
750.75, -3.137e-08
752.75, -3.786e-08
754.75, -3.841e-08
756.76, -3.395e-08
758.76, -3.504e-08
760.76, -3.432e-08
762.76, -3.437e-08
764.76, -3.796e-08
766.77, -3.85e-08
768.77, -3.604e-08
770.77, -3.43e-08
772.77, -3.592e-08
774.77, -3.943e-08
776.78, -3.659e-08
778.78, -4.026e-08
780.78, -3.749e-08
782.78, -3.952e-08
784.78, -3.845e-08
786.79, -3.78e-08
788.79, -3.906e-08
790.79, -3.803e-08
792.79, -3.753e-08
794.79, -4.124e-08
796.8, -3.836e-08
798.8, -4.091e-08
800.8, -3.511e-08
802.8, -3.886e-08
804.8, -4.052e-08
806.81, -3.88e-08
808.81, -3.489e-08
810.81, -3.651e-08
812.81, -3.644e-08
814.81, -3.581e-08
816.82, -3.652e-08
818.82, -3.621e-08
820.82, -3.402e-08
822.82, -3.531e-08
824.82, -3.515e-08
826.83, -3.789e-08
828.83, -3.646e-08
830.83, -3.784e-08
832.83, -3.594e-08
834.83, -3.696e-08
836.84, -3.802e-08
838.84, -3.926e-08
840.84, -3.718e-08
842.84, -3.931e-08
844.84, -3.639e-08
846.85, -3.67e-08
848.85, -3.843e-08
850.85, -3.541e-08
852.85, -3.283e-08
854.85, -3.629e-08
856.86, -3.223e-08
858.86, -3.284e-08
860.86, -3.39e-08
862.86, -3.487e-08
864.86, -3.528e-08
866.87, -3.739e-08
868.87, -3.506e-08
870.87, -3.525e-08
872.87, -3.646e-08
874.87, -3.738e-08
876.88, -3.339e-08
878.88, -3.248e-08
880.88, -3.331e-08
882.88, -3.482e-08
884.88, -3.607e-08
886.89, -3.472e-08
888.89, -3.351e-08
890.89, -3.076e-08
892.89, -2.957e-08
894.89, -3.547e-08
896.9, -3.254e-08
898.9, -2.823e-08
900.9, -3.096e-08
902.9, -3.225e-08
904.9, -3.239e-08
906.91, -3.428e-08
908.91, -3.337e-08
910.91, -3.599e-08
912.91, -3.462e-08
914.91, -3.557e-08
916.92, -3.385e-08
918.92, -3.517e-08
920.92, -3.33e-08
922.92, -3.705e-08
924.92, -3.558e-08
926.93, -3.287e-08
928.93, -3.257e-08
930.93, -3.089e-08
932.93, -3.33e-08
934.93, -3.548e-08
936.94, -3.265e-08
938.94, -3.346e-08
940.94, -3.046e-08
942.94, -3.387e-08
944.94, -3.654e-08
946.95, -3.49e-08
948.95, -3.37e-08
950.95, -3.663e-08
952.95, -3.408e-08
954.95, -3.443e-08
956.96, -3.62e-08
958.96, -3.486e-08
960.96, -3.355e-08
962.96, -3.383e-08
964.96, -3.789e-08
966.97, -3.402e-08
968.97, -3.488e-08
970.97, -3.451e-08
972.97, -3.311e-08
974.97, -3.757e-08
976.98, -3.312e-08
978.98, -3.39e-08
980.98, -3.459e-08
982.98, -3.932e-08
984.98, -3.266e-08
986.99, -3.476e-08
988.99, -3.583e-08
990.99, -3.825e-08
992.99, -3.748e-08
994.99, -3.84e-08
997.0, -3.695e-08
999.0, -3.696e-08
1001.0, -3.342e-08
1003.0, -3.634e-08
1005.0, -3.587e-08
1007.0, -3.648e-08
1009.0, -3.046e-08
1011.0, -3.268e-08
1013.0, -3.247e-08
1015.0, -3.813e-08
1017.0, -3.739e-08
1019.0, -3.602e-08
1021.0, -3.514e-08
1023.0, -3.09e-08
1025.0, -3.399e-08
1027.0, -3.441e-08
1029.0, -3.452e-08
1031.0, -3.787e-08
1033.0, -3.771e-08
1035.0, -3.816e-08
1037.0, -3.839e-08
1039.0, -3.837e-08
1041.0, -3.505e-08
1043.0, -3.754e-08
1045.0, -3.698e-08
1047.0, -3.908e-08
1049.0, -3.447e-08
1051.0, -3.163e-08
1053.1, -3.552e-08
1055.1, -3.382e-08
1057.1, -3.55e-08
1059.1, -3.324e-08
1061.1, -3.351e-08
1063.1, -3.356e-08
1065.1, -3.263e-08
1067.1, -3.366e-08
1069.1, -3.579e-08
1071.1, -3.693e-08
1073.1, -3.579e-08
1075.1, -3.306e-08
1077.1, -3.029e-08
1079.1, -3.135e-08
1081.1, -1.78e-08
1083.1, -1.585e-08
1085.1, -9.93e-09
1087.1, -1.985e-08
1089.1, 2.11e-09
1091.1, -1.426e-08
1093.1, 4.59e-09
1095.1, -4.73e-09
1097.1, 5.48e-09
1099.1, -9e-10
1101.1, -2.41e-09
1103.1, -1.147e-08
1105.1, 3.18e-09
1107.1, 1.208e-08
1109.1, -2e-10
1111.1, 1.192e-08
1113.1, -2.725e-08
1115.1, -3.05e-09
1117.1, -1.051e-08
1119.1, -2.249e-08
1121.1, 3.08e-09
1123.1, -7.48e-09
1125.1, 1.226e-08
1127.1, -1.309e-08
1129.1, -1.038e-08
1131.1, -3.4e-10
1133.1, -1.63e-08
1135.1, -1.634e-08
1137.1, -1.398e-08
1139.1, -1.447e-08
1141.1, -2.551e-08
1143.1, 3e-09
1145.1, 1.472e-08
1147.1, -5.32e-09
1149.1, 2.08e-09
1151.1, -1.541e-08
1153.2, -9.1e-10
1155.2, -1.902e-08
1157.2, -1.614e-08
1159.2, 3.3e-10
1161.2, 4.57e-09
1163.2, -1.743e-08
1165.2, -4.31e-09
1167.2, -3.24e-09
1169.2, -1.166e-08
1171.2, -2.3e-10
1173.2, -5.1e-09
1175.2, -1.549e-08
1177.2, -2.029e-08
1179.2, -4.11e-09
1181.2, 7.76e-09
1183.2, -1.999e-08
1185.2, 7.91e-09
1187.2, -1.014e-08
1189.2, -1.972e-08
1191.2, -5.95e-09
1193.2, -1.804e-08
1195.2, -7.79e-09
1197.2, -7.02e-09
1199.2, 1.52e-09
1201.2, -2.66e-09
1203.2, 5.12e-09
1205.2, -1.479e-08
1207.2, -3.33e-09
1209.2, 4.5e-10
1211.2, 5.33e-09
1213.2, -1.684e-08
1215.2, -2.643e-08
1217.2, -2.25e-08
1219.2, -3.6e-10
1221.2, -7.3e-10
1223.2, 9e-11
1225.2, -1.5e-10
1227.2, -7.62e-09
1229.2, -2.81e-09
1231.2, -6.79e-09
1233.2, -1.533e-08
1235.2, 1.899e-08
1237.2, -1.183e-08
1239.2, -1.471e-08
1241.2, -2.257e-08
1243.2, -8.34e-09
1245.2, -1.405e-08
1247.2, -4.68e-09
1249.2, -1.201e-08
1251.2, 2.179e-08
1253.3, 1.31e-09
1255.3, 9.42e-09
1257.3, -1.366e-08
1259.3, 4.6e-09
1261.3, -1.25e-09
1263.3, 8.68e-09
1265.3, -9.04e-09
1267.3, 1.472e-08
1269.3, -7.1e-09
1271.3, -4.77e-09
1273.3, 1.219e-08
1275.3, 1.956e-08
1277.3, 1.913e-08
1279.3, 2.45e-09
1281.3, 7.75e-09
1283.3, 1.336e-08
1285.3, -6.23e-09
1287.3, 1.429e-08
1289.3, -3.73e-09
1291.3, -1.406e-08
1293.3, -8.87e-09
1295.3, 4.15e-09
1297.3, -1.083e-08
1299.3, -6.44e-09
1301.3, 9.42e-09
1303.3, -1.1e-10
1305.3, -6.23e-09
1307.3, 1.419e-08
1309.3, 1.637e-08
1311.3, -1.159e-08
1313.3, 2.68e-09
1315.3, -4.53e-09
1317.3, -6.03e-09
1319.3, -1.3e-08
1321.3, 4.27e-09
1323.3, -3.92e-09
1325.3, -4.43e-09
1327.3, 3.41e-09
1329.3, 1.078e-08
1331.3, 3.509e-08
1333.3, -6.39e-09
1335.3, 4.47e-09
1337.3, 1.245e-08
1339.3, 4.49e-09
1341.3, -2.21e-09
1343.3, 1.444e-08
1345.3, 2.44e-09
1347.3, -1.62e-09
1349.3, 2.6e-09
1351.3, 1.094e-08
1353.4, 4.1e-09
1355.4, 6.75e-09
1357.4, 3.071e-08
1359.4, 1.82e-09
1361.4, 4.62e-09
1363.4, 1.391e-08
1365.4, 1.447e-08
1367.4, -7.26e-09
1369.4, 2.521e-08
1371.4, -2e-10
1373.4, 2.2e-09
1375.4, 8.32e-09
1377.4, 1.007e-08
1379.4, -3.26e-09
1381.4, -3e-11
1383.4, -7.12e-09
1385.4, 1.713e-08
1387.4, -7e-11
1389.4, 5.31e-09
1391.4, 8.71e-09
1393.4, 3.388e-08
1395.4, -2.03e-08
1397.4, 1.54e-09
1399.4, 1.4e-10
1401.4, 9.62e-09
1403.4, -6.79e-09
1405.4, -4.44e-09
1407.4, 1.344e-08
1409.4, 2.231e-08
1411.4, 1.33e-09
1413.4, 4.69e-09
1415.4, 1.862e-08
1417.4, 2.266e-08
1419.4, 1.616e-08
1421.4, 8.75e-09
1423.4, 8.89e-09
1425.4, -7.24e-09
1427.4, 7.7e-09
1429.4, 2.16e-09
1431.4, 1.874e-08
1433.4, 1.002e-08
1435.4, -1.44e-09
1437.4, -9.4e-10
1439.4, 6.08e-09
1441.4, 3.54e-09
1443.4, 9.94e-09
1445.4, 5.04e-09
1447.4, -1.072e-08
1449.4, -1.011e-08
1451.4, -6.52e-09
1453.5, -6.04e-09
1455.5, 2.419e-08
1457.5, -5.11e-09
1459.5, 4.59e-09
1461.5, 1.809e-08
1463.5, -1.356e-08
1465.5, 1.66e-09
1467.5, 3.75e-09
1469.5, -6.57e-09
1471.5, 2.52e-09
1473.5, 2.048e-08
1475.5, -1.502e-08
1477.5, -7.62e-09
1479.5, 3.4e-09
1481.5, -8.16e-09
1483.5, 6.73e-09
1485.5, -3.91e-09
1487.5, 5.57e-09
1489.5, -5.39e-09
1491.5, 1.099e-08
1493.5, -3.87e-09
1495.5, 1.729e-08
1497.5, 4.98e-09
1499.5, -1.32e-09
1501.5, 8.4e-10
1503.5, -3.29e-09
1505.5, 8.46e-09
1507.5, 1.78e-09
1509.5, 7.92e-09
1511.5, 1.145e-08
1513.5, 1.583e-08
1515.5, 8.12e-09
1517.5, 1.254e-08
1519.5, -5.11e-09
1521.5, 1.385e-08
1523.5, -4.76e-09
1525.5, -5.3e-09
1527.5, -1.436e-08
1529.5, -4.17e-09
1531.5, -8.55e-09
1533.5, -7.15e-09
1535.5, -2.82e-09
1537.5, 2.134e-08
1539.5, 3.115e-08
1541.5, -1.76e-09
1543.5, 1.747e-08
1545.5, -1.18e-09
1547.5, 5.08e-09
1549.5, 4.385e-08
1551.5, 9.77e-09
1553.6, 7.11e-09
1555.6, 9.01e-09
1557.6, 3.69e-09
1559.6, -6.42e-09
1561.6, 6.4e-09
1563.6, 2.613e-08
1565.6, 1.074e-08
1567.6, 2.183e-08
1569.6, 5.44e-09
1571.6, 1.733e-08
1573.6, -4.83e-09
1575.6, 4.06e-09
1577.6, 3.21e-09
1579.6, 6.7e-09
1581.6, -1.266e-08
1583.6, -2.141e-08
1585.6, 8.5e-10
1587.6, 1.26e-09
1589.6, 2.46e-09
1591.6, -4.4e-10
1593.6, -8.9e-10
1595.6, 4.802e-08
1597.6, -1.334e-08
1599.6, 7.51e-09
1601.6, 5.62e-09
1603.6, 4.59e-09
1605.6, -7.08e-09
1607.6, -2.88e-09
1609.6, -3.48e-09
1611.6, 1.744e-08
1613.6, -1.6e-09
1615.6, 1.06e-09
1617.6, -1.561e-08
1619.6, 8.94e-09
1621.6, 5.18e-09
1623.6, 1.692e-08
1625.6, 1.057e-08
1627.6, 1.117e-08
1629.6, 1.143e-08
1631.6, 7.37e-09
1633.6, -1.511e-08
1635.6, -3.18e-09
1637.6, 1.838e-08
1639.6, 1.241e-08
1641.6, 1.3e-08
1643.6, -2.38e-09
1645.6, -4.7e-09
1647.6, 1.994e-08
1649.6, 1.07e-09
1651.6, 2.35e-08
1653.7, -1.21e-09
1655.7, 1.018e-08
1657.7, 2.429e-08
1659.7, 1.693e-08
1661.7, 1.241e-08
1663.7, 1.202e-08
1665.7, 8.03e-09
1667.7, 9.1e-09
1669.7, 6.56e-09
1671.7, 3.09e-08
1673.7, 3.4e-10
1675.7, 1.984e-08
1677.7, -1.364e-08
1679.7, 3.039e-08
1681.7, 1.63e-08
1683.7, -3.5e-10
1685.7, 1.192e-08
1687.7, -5.69e-09
1689.7, 6.25e-09
1691.7, -1.071e-08
1693.7, -5.87e-09
1695.7, -4.14e-09
1697.7, 9.9e-10
1699.7, 1.115e-08
1701.7, 3.66e-09
1703.7, 2.69e-08
1705.7, -4.32e-09
1707.7, 5.69e-09
1709.7, 2.017e-08
1711.7, 1.015e-08
1713.7, 5.91e-09
1715.7, 1.431e-08
1717.7, 1.674e-08
1719.7, -3.45e-09
1721.7, 2.281e-08
1723.7, 2.072e-08
1725.7, -6.19e-09
1727.7, 6.02e-09
1729.7, 1.066e-08
1731.7, 1.63e-08
1733.7, -3.43e-09
1735.7, 3.1e-09
1737.7, 3.024e-08
1739.7, 1.13e-08
1741.7, 4.41e-09
1743.7, 1.842e-08
1745.7, 2.226e-08
1747.7, 4.48e-09
1749.7, 1.257e-08
1751.7, 1.966e-08
1753.8, 1.691e-08
1755.8, -6.1e-10
1757.8, 2.674e-08
1759.8, -5.8e-10
1761.8, -1.061e-08
1763.8, 1.843e-08
1765.8, -5.36e-09
1767.8, -1.104e-08
1769.8, 2.212e-08
1771.8, 9.32e-09
1773.8, -6.2e-09
1775.8, 4.03e-09
1777.8, 9.62e-09
1779.8, -6.95e-09
1781.8, 1.832e-08
1783.8, -1.716e-08
1785.8, -4.65e-09
1787.8, -2.93e-09
1789.8, -3.78e-09
1791.8, 1.207e-08
1793.8, 1.415e-08
1795.8, 6.33e-09
1797.8, 2.206e-08
1799.8, 1.84e-08
1801.8, -1.27e-09
1803.8, -7.71e-09
1805.8, -1.22e-09
1807.8, -9.59e-09
1809.8, 1.646e-08
1811.8, 2.719e-08
1813.8, -2.72e-09
1815.8, 3.96e-09
1817.8, 8.33e-09
1819.8, 6.35e-09
1821.8, -3.14e-09
1823.8, 4.48e-09
1825.8, 2.228e-08
1827.8, 2.57e-09
1829.8, 1.95e-08
1831.8, 6e-11
1833.8, -1.5e-09
1835.8, 2.27e-08
1837.8, 4.79e-09
1839.8, -1.673e-08
1841.8, 7.04e-09
1843.8, 1.689e-08
1845.8, 7.94e-09
1847.8, -7.06e-09
1849.8, -3.41e-09
1851.8, 8.45e-09
1853.9, 8e-11
1855.9, 1.395e-08
1857.9, 4.74e-09
1859.9, 3.533e-08
1861.9, 1.774e-08
1863.9, 2.62e-09
1865.9, 1.459e-08
1867.9, -7.79e-09
1869.9, -1.583e-08
1871.9, -5.18e-09
1873.9, 2.051e-08
1875.9, -1.005e-08
1877.9, 2.693e-08
1879.9, 9.74e-09
1881.9, 3.1e-10
1883.9, 2.378e-08
1885.9, 3.141e-08
1887.9, 7.48e-09
1889.9, 1.595e-08
1891.9, 6.4e-09
1893.9, 1.36e-09
1895.9, 2.465e-08
1897.9, 1.58e-09
1899.9, -3.01e-09
1901.9, 6.02e-09
1903.9, -2.27e-09
1905.9, 2.291e-08
1907.9, -1.27e-09
1909.9, 1.985e-08
1911.9, 2.244e-08
1913.9, 1.389e-08
1915.9, 1.685e-08
1917.9, -9.76e-09
1919.9, -5.77e-09
1921.9, 7.08e-09
1923.9, 7.55e-09
1925.9, 3.903e-08
1927.9, 7.72e-09
1929.9, 3.87e-09
1931.9, 1.43e-08
1933.9, 7.31e-09
1935.9, 1.593e-08
1937.9, -6.03e-09
1939.9, -2.18e-09
1941.9, -1.04e-09
1943.9, 4.48e-09
1945.9, -3.4e-09
1947.9, 1.851e-08
1949.9, -1.242e-08
1951.9, -9.86e-09
1954.0, 3.05e-09
1956.0, 1.349e-08
1958.0, -5.33e-09
1960.0, 2.645e-08
1962.0, 1.105e-08
1964.0, -1.54e-09
1966.0, 2.61e-09
1968.0, -4.39e-09
1970.0, -8.64e-09
1972.0, 5.96e-09
1974.0, -2.49e-09
1976.0, -8e-11
1978.0, 3.128e-08
1980.0, -8.56e-09
1982.0, 2.602e-08
1984.0, -1.076e-08
1986.0, 9.2e-10
1988.0, -1.663e-08
1990.0, -6.16e-09
1992.0, -1.157e-08
1994.0, -1.27e-09
1996.0, 1.21e-09
1998.0, 1.87e-08
2000.0, 2.796e-08
2002.0, 2.329e-08
2004.0, -1.993e-08
2006.0, 2.537e-08
2008.0, -1.57e-09
2010.0, -8.8e-10
2012.0, -6.92e-09
2014.0, -4.16e-09
2016.0, 2.365e-08
2018.0, -6e-10
2020.0, 1.056e-08
2022.0, -2.001e-08
2024.0, -5.15e-09
2026.0, -4.32e-09
2028.0, 3.35e-09
2030.0, -9.58e-09
2032.0, 1.245e-08
2034.0, 5.84e-09
2036.0, 1.239e-08
2038.0, 1.872e-08
2040.0, -1.03e-09
2042.0, 2.332e-08
2044.0, 2.553e-08
2046.0, 1.244e-08
2048.0, 2.211e-08
2050.0, 1.605e-08
2052.0, -3.08e-09
2054.1, 7.9e-10
2056.1, -1.479e-08
2058.1, 8.6e-10
2060.1, 2.85e-09
2062.1, 4.84e-09
2064.1, -1.45e-09
2066.1, -1.399e-08
2068.1, -3e-11
2070.1, -1.1e-08
2072.1, 7.12e-09
2074.1, -1.09e-09
2076.1, 1.027e-08
2078.1, 5.94e-09
2080.1, -4.63e-09
2082.1, -1.765e-08
2084.1, -3.541e-08
2086.1, -3.587e-08
2088.1, -3.82e-08
2090.1, -3.667e-08
2092.1, -3.552e-08
2094.1, -3.345e-08
2096.1, -3.901e-08
2098.1, -3.522e-08
2100.1, -3.586e-08
2102.1, -3.348e-08
2104.1, -3.48e-08
2106.1, -3.203e-08
2108.1, -3.749e-08
2110.1, -3.543e-08
2112.1, -3.337e-08
2114.1, -3.669e-08
2116.1, -3.909e-08
2118.1, -3.329e-08
2120.1, -3.134e-08
2122.1, -3.458e-08
2124.1, -3.366e-08
2126.1, -3.203e-08
2128.1, -3.687e-08
2130.1, -3.563e-08
2132.1, -3.587e-08
2134.1, -3.724e-08
2136.1, -3.534e-08
2138.1, -3.625e-08
2140.1, -3.589e-08
2142.1, -3.566e-08
2144.1, -3.564e-08
2146.1, -4.017e-08
2148.1, -3.775e-08
2150.1, -3.817e-08
2152.1, -3.959e-08
2154.2, -4.048e-08
2156.2, -3.816e-08
2158.2, -4.236e-08
2160.2, -3.818e-08
2162.2, -4.013e-08
2164.2, -3.554e-08
2166.2, -3.987e-08
2168.2, -3.647e-08
2170.2, -3.711e-08
2172.2, -3.542e-08
2174.2, -3.955e-08
2176.2, -3.998e-08
2178.2, -3.898e-08
2180.2, -3.855e-08
2182.2, -3.955e-08
2184.2, -3.677e-08
2186.2, -3.373e-08
2188.2, -3.468e-08
2190.2, -3.454e-08
2192.2, -3.213e-08
2194.2, -3.533e-08
2196.2, -3.902e-08
2198.2, -3.449e-08
2200.2, -3.479e-08
2202.2, -3.306e-08
2204.2, -3.493e-08
2206.2, -3.662e-08
2208.2, -3.833e-08
2210.2, -3.182e-08
2212.2, -3.462e-08
2214.2, -3.496e-08
2216.2, -3.51e-08
2218.2, -3.559e-08
2220.2, -3.177e-08
2222.2, -3.535e-08
2224.2, -3.526e-08
2226.2, -3.709e-08
2228.2, -3.934e-08
2230.2, -4.112e-08
2232.2, -4.077e-08
2234.2, -3.727e-08
2236.2, -4.063e-08
2238.2, -4.168e-08
2240.2, -3.976e-08
2242.2, -3.984e-08
2244.2, -4.031e-08
2246.2, -4.087e-08
2248.2, -4.171e-08
2250.2, -4.362e-08
2252.2, -3.833e-08
2254.3, -4.05e-08
2256.3, -4.059e-08
2258.3, -3.639e-08
2260.3, -3.797e-08
2262.3, -3.838e-08
2264.3, -3.759e-08
2266.3, -3.69e-08
2268.3, -3.859e-08
2270.3, -3.914e-08
2272.3, -4.223e-08
2274.3, -3.792e-08
2276.3, -3.986e-08
2278.3, -4.026e-08
2280.3, -3.531e-08
2282.3, -4.238e-08
2284.3, -3.919e-08
2286.3, -4.055e-08
2288.3, -3.632e-08
2290.3, -4.1e-08
2292.3, -3.88e-08
2294.3, -3.69e-08
2296.3, -3.405e-08
2298.3, -3.707e-08
2300.3, -4.024e-08
2302.3, -3.975e-08
2304.3, -3.833e-08
2306.3, -3.424e-08
2308.3, -3.507e-08
2310.3, -3.672e-08
2312.3, -3.844e-08
2314.3, -3.704e-08
2316.3, -3.346e-08
2318.3, -3.284e-08
2320.3, -3.314e-08
2322.3, -3.146e-08
2324.3, -3.208e-08
2326.3, -3.207e-08
2328.3, -3.306e-08
2330.3, -3.447e-08
2332.3, -3.327e-08
2334.3, -3.332e-08
2336.3, -3.758e-08
2338.3, -3.556e-08
2340.3, -3.542e-08
2342.3, -3.545e-08
2344.3, -3.321e-08
2346.3, -3.345e-08
2348.3, -3.741e-08
2350.3, -3.995e-08
2352.3, -3.817e-08
2354.4, -3.491e-08
2356.4, -3.759e-08
2358.4, -3.886e-08
2360.4, -4.05e-08
2362.4, -3.635e-08
2364.4, -3.604e-08
2366.4, -3.591e-08
2368.4, -3.042e-08
2370.4, -3.637e-08
2372.4, -3.539e-08
2374.4, -3.438e-08
2376.4, -3.358e-08
2378.4, -3.944e-08
2380.4, -3.94e-08
2382.4, -3.54e-08
2384.4, -3.375e-08
2386.4, -3.807e-08
2388.4, -3.61e-08
2390.4, -3.46e-08
2392.4, -3.195e-08
2394.4, -3.585e-08
2396.4, -3.506e-08
2398.4, -3.261e-08
2400.4, -3.14e-08
2402.4, -3.333e-08
2404.4, -3.113e-08
2406.4, -3.036e-08
2408.4, -3.344e-08
2410.4, -3.08e-08
2412.4, -3.22e-08
2414.4, -3.382e-08
2416.4, -2.877e-08
2418.4, -3.091e-08
2420.4, -3.367e-08
2422.4, -3.055e-08
2424.4, -2.951e-08
2426.4, -3.162e-08
2428.4, -3.2e-08
2430.4, -3.485e-08
2432.4, -3.308e-08
2434.4, -2.883e-08
2436.4, -3.136e-08
2438.4, -3.293e-08
2440.4, -3.095e-08
2442.4, -3.535e-08
2444.4, -3.291e-08
2446.4, -3.177e-08
2448.4, -3.266e-08
2450.4, -3.496e-08
2452.4, -3.326e-08
2454.5, -3.2e-08
2456.5, -3.63e-08
2458.5, -3.651e-08
2460.5, -3.775e-08
2462.5, -3.359e-08
2464.5, -3.74e-08
2466.5, -3.486e-08
2468.5, -3.857e-08
2470.5, -3.602e-08
2472.5, -3.313e-08
2474.5, -3.558e-08
2476.5, -3.603e-08
2478.5, -3.309e-08
2480.5, -3.44e-08
2482.5, -3.435e-08
2484.5, -3.388e-08
2486.5, -3.66e-08
2488.5, -3.823e-08
2490.5, -3.56e-08
2492.5, -3.539e-08
2494.5, -3.338e-08
2496.5, -3.235e-08
2498.5, -3.65e-08
2500.5, -3.512e-08
2502.5, -3.435e-08
2504.5, -3.282e-08
2506.5, -3.511e-08
2508.5, -3.164e-08
2510.5, -3.241e-08
2512.5, -3.359e-08
2514.5, -2.996e-08
2516.5, -3.381e-08
2518.5, -3.52e-08
2520.5, -3.385e-08
2522.5, -3.392e-08
2524.5, -3.274e-08
2526.5, -3.56e-08
2528.5, -3.72e-08
2530.5, -3.449e-08
2532.5, -3.058e-08
2534.5, -3.366e-08
2536.5, -3.452e-08
2538.5, -3.558e-08
2540.5, -3.241e-08
2542.5, -3.106e-08
2544.5, -3.237e-08
2546.5, -3.185e-08
2548.5, -3.346e-08
2550.5, -3.341e-08
2552.5, -3.338e-08
2554.6, -3.551e-08
2556.6, -3.545e-08
2558.6, -3.501e-08
2560.6, -3.353e-08
2562.6, -3.426e-08
2564.6, -3.808e-08
2566.6, -3.426e-08
2568.6, -3.468e-08
2570.6, -3.653e-08
2572.6, -3.033e-08
2574.6, -3.421e-08
2576.6, -3.536e-08
2578.6, -3.19e-08
2580.6, -3.067e-08
2582.6, -3.304e-08
2584.6, -3.22e-08
2586.6, -3.188e-08
2588.6, -3.777e-08
2590.6, -3.132e-08
2592.6, -3.642e-08
2594.6, -3.608e-08
2596.6, -3.408e-08
2598.6, -3.357e-08
2600.6, -3.188e-08
2602.6, -3.634e-08
2604.6, -3.464e-08
2606.6, -3.817e-08
2608.6, -3.637e-08
2610.6, -3.614e-08
2612.6, -3.38e-08
2614.6, -3.223e-08
2616.6, -3.182e-08
2618.6, -3.688e-08
2620.6, -3.312e-08
2622.6, -3.619e-08
2624.6, -3.623e-08
2626.6, -3.436e-08
2628.6, -3.415e-08
2630.6, -3.382e-08
2632.6, -3.754e-08
2634.6, -3.339e-08
2636.6, -3.613e-08
2638.6, -3.575e-08
2640.6, -3.318e-08
2642.6, -3.735e-08
2644.6, -3.389e-08
2646.6, -3.281e-08
2648.6, -3.405e-08
2650.6, -3.255e-08
2652.6, -3.086e-08
2654.7, -3.682e-08
2656.7, -3.453e-08
2658.7, -3.379e-08
2660.7, -3.624e-08
2662.7, -3.273e-08
2664.7, -3.697e-08
2666.7, -3.84e-08
2668.7, -3.678e-08
2670.7, -3.726e-08
2672.7, -3.426e-08
2674.7, -3.565e-08
2676.7, -3.285e-08
2678.7, -3.552e-08
2680.7, -3.27e-08
2682.7, -3.353e-08
2684.7, -3.574e-08
2686.7, -3.771e-08
2688.7, -3.62e-08
2690.7, -3.618e-08
2692.7, -3.444e-08
2694.7, -3.56e-08
2696.7, -3.491e-08
2698.7, -3.149e-08
2700.7, -2.885e-08
2702.7, -3.347e-08
2704.7, -3.444e-08
2706.7, -3.384e-08
2708.7, -3.33e-08
2710.7, -3.282e-08
2712.7, -3.126e-08
2714.7, -3.222e-08
2716.7, -3.294e-08
2718.7, -3.504e-08
2720.7, -3.31e-08
2722.7, -3.485e-08
2724.7, -3.548e-08
2726.7, -3.408e-08
2728.7, -3.708e-08
2730.7, -3.225e-08
2732.7, -3.412e-08
2734.7, -3.185e-08
2736.7, -3.721e-08
2738.7, -3.427e-08
2740.7, -3.396e-08
2742.7, -3.396e-08
2744.7, -3.384e-08
2746.7, -3.572e-08
2748.7, -3.361e-08
2750.7, -3.536e-08
2752.7, -3.482e-08
2754.8, -3.264e-08
2756.8, -3.346e-08
2758.8, -3.356e-08
2760.8, -3.695e-08
2762.8, -3.748e-08
2764.8, -3.685e-08
2766.8, -3.273e-08
2768.8, -3.372e-08
2770.8, -3.257e-08
2772.8, -3.298e-08
2774.8, -3.437e-08
2776.8, -3.158e-08
2778.8, -3.323e-08
2780.8, -3.353e-08
2782.8, -3.642e-08
2784.8, -3.34e-08
2786.8, -3.053e-08
2788.8, -2.967e-08
2790.8, -2.958e-08
2792.8, -2.944e-08
2794.8, -3.232e-08
2796.8, -3.243e-08
2798.8, -3.106e-08
2800.8, -3.218e-08
2802.8, -3.082e-08
2804.8, -3.338e-08
2806.8, -3.094e-08
2808.8, -3.124e-08
2810.8, -2.96e-08
2812.8, -2.966e-08
2814.8, -3.515e-08
2816.8, -3.119e-08
2818.8, -3.411e-08
2820.8, -3.614e-08
2822.8, -3.53e-08
2824.8, -3.113e-08
2826.8, -3.044e-08
2828.8, -3.052e-08
2830.8, -3.221e-08
2832.8, -3.54e-08
2834.8, -3.495e-08
2836.8, -3.171e-08
2838.8, -3.329e-08
2840.8, -2.863e-08
2842.8, -2.929e-08
2844.8, -2.955e-08
2846.8, -2.809e-08
2848.8, -3.4e-08
2850.8, -3.503e-08
2852.8, -3.55e-08
2854.9, -3.622e-08
2856.9, -3.37e-08
2858.9, -3.066e-08
2860.9, -3.131e-08
2862.9, -2.922e-08
2864.9, -2.865e-08
2866.9, -3.202e-08
2868.9, -3.318e-08
2870.9, -3.496e-08
2872.9, -2.795e-08
2874.9, -2.769e-08
2876.9, -2.776e-08
2878.9, -2.401e-08
2880.9, -2.55e-08
2882.9, -2.531e-08
2884.9, -2.849e-08
2886.9, -2.938e-08
2888.9, -3.039e-08
2890.9, -3.114e-08
2892.9, -2.711e-08
2894.9, -2.885e-08
2896.9, -3.117e-08
2898.9, -3.186e-08
2900.9, -2.943e-08
2902.9, -2.919e-08
2904.9, -2.72e-08
2906.9, -2.917e-08
2908.9, -2.746e-08
2910.9, -2.837e-08
2912.9, -2.973e-08
2914.9, -2.966e-08
2916.9, -3.026e-08
2918.9, -3.253e-08
2920.9, -3.093e-08
2922.9, -3.292e-08
2924.9, -3.382e-08
2926.9, -3.441e-08
2928.9, -3.104e-08
2930.9, -3.279e-08
2932.9, -3.351e-08
2934.9, -3.36e-08
2936.9, -3.202e-08
2938.9, -3.131e-08
2940.9, -3.348e-08
2942.9, -3.425e-08
2944.9, -3.28e-08
2946.9, -3.222e-08
2948.9, -3.175e-08
2950.9, -3.08e-08
2952.9, -2.901e-08
2955.0, -3.158e-08
2957.0, -3.227e-08
2959.0, -3.542e-08
2961.0, -3.199e-08
2963.0, -2.871e-08
2965.0, -3.262e-08
2967.0, -3.146e-08
2969.0, -3.231e-08
2971.0, -3.198e-08
2973.0, -3.402e-08
2975.0, -3.151e-08
2977.0, -3.212e-08
2979.0, -3.389e-08
2981.0, -3.234e-08
2983.0, -3.438e-08
2985.0, -2.697e-08
2987.0, -3.141e-08
2989.0, -2.669e-08
2991.0, -3.05e-08
2993.0, -2.757e-08
2995.0, -2.782e-08
2997.0, -3.119e-08
2999.0, -3.336e-08
3001.0, -3.403e-08
3003.0, -3.084e-08
3005.0, -2.85e-08
3007.0, -3.007e-08
3009.0, -3.551e-08
3011.0, -3.261e-08
3013.0, -3.296e-08
3015.0, -3.468e-08
3017.0, -3.514e-08
3019.0, -3.402e-08
3021.0, -3.532e-08
3023.0, -3.053e-08
3025.0, -3.148e-08
3027.0, -3.23e-08
3029.0, -3.153e-08
3031.0, -3.321e-08
3033.0, -3.418e-08
3035.0, -3.453e-08
3037.0, -3.523e-08
3039.0, -3.573e-08
3041.0, -3.473e-08
3043.0, -3.712e-08
3045.0, -3.029e-08
3047.0, -2.935e-08
3049.0, -3.232e-08
3051.0, -3.438e-08
3053.0, -3.399e-08
3055.1, -3.303e-08
3057.1, -3.418e-08
3059.1, -3.226e-08
3061.1, -3.66e-08
3063.1, -3.008e-08
3065.1, -3.078e-08
3067.1, -3.291e-08
3069.1, -3.375e-08
3071.1, -3.375e-08
3073.1, -3.177e-08
3075.1, -3.225e-08
3077.1, -3.044e-08
3079.1, -3.284e-08
3081.1, -3.012e-08
3083.1, -3.116e-08
3085.1, -3.14e-08
3087.1, -2.873e-08
3089.1, -3.088e-08
3091.1, -3.308e-08
3093.1, -3.329e-08
3095.1, -3.089e-08
3097.1, -3.189e-08
3099.1, -3.504e-08
3101.1, -3.327e-08
3103.1, -3.948e-08
3105.1, -3.65e-08
3107.1, -3.559e-08
3109.1, -3.702e-08
3111.1, -3.495e-08
3113.1, -3.175e-08
3115.1, -2.989e-08
3117.1, -3.376e-08
3119.1, -3.527e-08
3121.1, -3.16e-08
3123.1, -2.929e-08
3125.1, -2.638e-08
3127.1, -2.864e-08
3129.1, -3.082e-08
3131.1, -3.036e-08
3133.1, -2.817e-08
3135.1, -3.478e-08
3137.1, -3.242e-08
3139.1, -3.511e-08
3141.1, -3.471e-08
3143.1, -2.938e-08
3145.1, -3.361e-08
3147.1, -3.432e-08
3149.1, -3.247e-08
3151.1, -3.562e-08
3153.1, -3.474e-08
3155.2, -3.051e-08
3157.2, -2.968e-08
3159.2, -3.019e-08
3161.2, -2.738e-08
3163.2, -3.075e-08
3165.2, -3.29e-08
3167.2, -2.875e-08
3169.2, -3.121e-08
3171.2, -3.194e-08
3173.2, -2.955e-08
3175.2, -3.284e-08
3177.2, -3.289e-08
3179.2, -2.871e-08
3181.2, -3.254e-08
3183.2, -3.147e-08
3185.2, -3.025e-08
3187.2, 4.591e-08
3189.2, -9.31e-09
3191.2, -6.15e-09
3193.2, -6.58e-09
3195.2, -1.313e-08
3197.2, -9.76e-09
3199.2, 2.057e-08
3201.2, 1.277e-08
3203.2, -1.083e-08
3205.2, 1.7e-09
3207.2, -1.082e-08
3209.2, -3e-10
3211.2, -1.171e-08
3213.2, 2.6e-10
3215.2, -1.172e-08
3217.2, 7e-10
3219.2, 2.46e-09
3221.2, -7.03e-09
3223.2, -7.27e-09
3225.2, -1.08e-08
3227.2, 5.38e-09
3229.2, -6.11e-09
3231.2, -1.136e-08
3233.2, 1.7e-10
3235.2, -8.12e-09
3237.2, -7e-09
3239.2, -1.366e-08
3241.2, -1.477e-08
3243.2, -1.01e-09
3245.2, -7.7e-09
3247.2, -3.83e-09
3249.2, -3e-09
3251.2, -1.228e-08
3253.2, -5.36e-09
3255.3, -1.37e-08
3257.3, 7.41e-09
3259.3, -8.57e-09
3261.3, 2.156e-08
3263.3, 2.77e-09
3265.3, -1.265e-08
3267.3, -3.78e-09
3269.3, 6e-11
3271.3, -3.17e-09
3273.3, -2.48e-09
3275.3, 3.52e-09
3277.3, -2.16e-09
3279.3, -1.148e-08
3281.3, 4.6e-09
3283.3, -6.61e-09
3285.3, 2.07e-09
3287.3, 1.44e-09
3289.3, 1.51e-09
3291.3, 1.471e-08
3293.3, -5.37e-09
3295.3, 2.055e-08
3297.3, -3.63e-09
3299.3, 5.45e-09
3301.3, 3.24e-09
3303.3, -1.12e-09
3305.3, 1.105e-08
3307.3, -6.97e-09
3309.3, -6.4e-10
3311.3, -1.59e-09
3313.3, -9.2e-09
3315.3, 4.82e-09
3317.3, 1.685e-08
3319.3, 1.539e-08
3321.3, 1.458e-08
3323.3, 1.763e-08
3325.3, 6.55e-09
3327.3, -6.59e-09
3329.3, 7.08e-09
3331.3, 1.371e-08
3333.3, 3.19e-09
3335.3, 1.376e-08
3337.3, 9.61e-09
3339.3, 1.354e-08
3341.3, 1.076e-08
3343.3, 2.056e-08
3345.3, 1.933e-08
3347.3, 1.908e-08
3349.3, 1.33e-08
3351.3, 1.286e-08
3353.3, 9.81e-09
3355.4, 2.47e-08
3357.4, 4.15e-09
3359.4, 1.39e-09
3361.4, 4.15e-09
3363.4, 7.04e-09
3365.4, 1.424e-08
3367.4, 7.74e-09
3369.4, 4e-09
3371.4, 5.17e-09
3373.4, -3.07e-09
3375.4, 5.42e-09
3377.4, -1.393e-08
3379.4, 8.56e-09
3381.4, 4.7e-10
3383.4, -1.537e-08
3385.4, 1.22e-08
3387.4, -2.92e-09
3389.4, 7.91e-09
3391.4, 8.8e-10
3393.4, 3.74e-09
3395.4, 3.8e-09
3397.4, -1.8e-09
3399.4, -1.089e-08
3401.4, -1.406e-08
3403.4, -5.17e-09
3405.4, 3.61e-08
3407.4, 1.371e-08
3409.4, 3.094e-08
3411.4, -3.3e-10
3413.4, -4.09e-09
3415.4, -7.63e-09
3417.4, 3.14e-09
3419.4, -6.44e-09
3421.4, 1.909e-08
3423.4, 1.492e-08
3425.4, 1.984e-08
3427.4, 8e-11
3429.4, 1.528e-08
3431.4, 4.7e-10
3433.4, 8.7e-09
3435.4, 1.303e-08
3437.4, 9.55e-09
3439.4, -7.4e-09
3441.4, 4.935e-08
3443.4, 1.742e-08
3445.4, 8.02e-09
3447.4, -3.44e-09
3449.4, 2.088e-08
3451.4, 1.946e-08
3453.4, 6.27e-09
3455.5, -5.09e-09
3457.5, 3.74e-09
3459.5, -2.29e-09
3461.5, 2.7e-09
3463.5, 1.915e-08
3465.5, 2.978e-08
3467.5, 2.062e-08
3469.5, -7.9e-10
3471.5, 1.59e-08
3473.5, 2.773e-08
3475.5, 1.262e-08
3477.5, -6.22e-09
3479.5, 5.77e-09
3481.5, 1.51e-08
3483.5, -1.288e-08
3485.5, -1.13e-09
3487.5, 5.64e-09
3489.5, -7.85e-09
3491.5, 1.303e-08
3493.5, 2.388e-08
3495.5, 1.09e-09
3497.5, 7.7e-09
3499.5, -9.05e-09
3501.5, -1.04e-09
3503.5, -7.44e-09
3505.5, 1.187e-08
3507.5, 2.49e-09
3509.5, 1.268e-08
3511.5, -4.6e-10
3513.5, -7.13e-09
3515.5, 1.01e-09
3517.5, -9.81e-09
3519.5, 2.244e-08
3521.5, 9.93e-09
3523.5, 1.272e-08
3525.5, 9.41e-09
3527.5, -1.104e-08
3529.5, 3.581e-08
3531.5, 3.411e-08
3533.5, -6.03e-09
3535.5, 1.56e-09
3537.5, 1.389e-08
3539.5, -3.43e-09
3541.5, 1.39e-09
3543.5, 7.3e-10
3545.5, 2.634e-08
3547.5, 6.96e-09
3549.5, 8.1e-09
3551.5, 1.491e-08
3553.5, 1.793e-08
3555.6, 1.35e-08
3557.6, 6.72e-09
3559.6, 1.36e-09
3561.6, 2.67e-08
3563.6, -3.8e-10
3565.6, 8.77e-09
3567.6, 9.2e-09
3569.6, 2.41e-09
3571.6, 2.602e-08
3573.6, -3.17e-09
3575.6, 2.338e-08
3577.6, 1.341e-08
3579.6, 1.783e-08
3581.6, 1.855e-08
3583.6, 5.7e-10
3585.6, 3.225e-08
3587.6, -1.71e-09
3589.6, 9.39e-09
3591.6, 8.51e-09
3593.6, 1.447e-08
3595.6, 1.351e-08
3597.6, 2.742e-08
3599.6, -1.86e-09
3601.6, 9.01e-09
3603.6, -1.94e-09
3605.6, 6.4e-10
3607.6, 1.658e-08
3609.6, 7.98e-09
3611.6, 1.338e-08
3613.6, 1.21e-08
3615.6, -5.52e-09
3617.6, -4.37e-09
3619.6, -7.3e-10
3621.6, 4.82e-09
3623.6, 1.48e-08
3625.6, 4.61e-09
3627.6, 2.274e-08
3629.6, -5.95e-09
3631.6, 5.4e-10
3633.6, -5.78e-09
3635.6, 3e-11
3637.6, 2.434e-08
3639.6, 2.336e-08
3641.6, -9.69e-09
3643.6, -9.99e-09
3645.6, 2.21e-09
3647.6, 8.66e-09
3649.6, -1.41e-09
3651.6, 1.513e-08
3653.6, -2e-11
3655.7, 1.641e-08
3657.7, -9.28e-09
3659.7, -3.55e-09
3661.7, 1.039e-08
3663.7, -2.74e-09
3665.7, 1.36e-09
3667.7, 1.119e-08
3669.7, 2.35e-09
3671.7, 3.563e-08
3673.7, -4e-09
3675.7, 1.095e-08
3677.7, -2.88e-09
3679.7, -4.8e-10
3681.7, 7.93e-09
3683.7, 2.8e-10
3685.7, 8.9e-09
3687.7, 3.65e-09
3689.7, 1.859e-08
3691.7, -1.31e-09
3693.7, 3.65e-09
3695.7, 2.27e-09
3697.7, -5.34e-09
3699.7, 8.01e-09
3701.7, 1.733e-08
3703.7, -8.85e-09
3705.7, -4.34e-09
3707.7, -5.21e-09
3709.7, -4.24e-09
3711.7, -3.22e-09
3713.7, -1.21e-09
3715.7, -1.289e-08
3717.7, 2.684e-08
3719.7, -2.23e-09
3721.7, 1.035e-08
3723.7, -3.23e-09
3725.7, 2.61e-09
3727.7, -7.82e-09
3729.7, 1.51e-08
3731.7, 2.023e-08
3733.7, 2.801e-08
3735.7, -3.93e-09
3737.7, 4.2e-10
3739.7, 3.57e-09
3741.7, 2.18e-09
3743.7, 1.807e-08
3745.7, 1.43e-09
3747.7, 5.2e-09
3749.7, 1.679e-08
3751.7, 3.38e-09
3753.7, 2.377e-08
3755.8, -6.37e-09
3757.8, 2.7e-10
3759.8, 9.21e-09
3761.8, 1.261e-08
3763.8, 1.424e-08
3765.8, -2.81e-09
3767.8, 1.106e-08
3769.8, 1.74e-08
3771.8, 2.78e-09
3773.8, 2.87e-09
3775.8, 2.471e-08
3777.8, 2.556e-08
3779.8, 1.264e-08
3781.8, 2.97e-09
3783.8, -5.51e-09
3785.8, 9.01e-09
3787.8, 7.39e-09
3789.8, 2.826e-08
3791.8, -3.11e-09
3793.8, 1.467e-08
3795.8, 5.7e-09
3797.8, 7.9e-09
3799.8, -5.09e-09
3801.8, -7e-10
3803.8, 1.927e-08
3805.8, 2.85e-09
3807.8, 1.272e-08
3809.8, 1.25e-08
3811.8, 3.543e-08
3813.8, 2.305e-08
3815.8, -5.54e-09
3817.8, 1.197e-08
3819.8, 3.99e-09
3821.8, 1.95e-09
3823.8, 6.14e-09
3825.8, 2.647e-08
3827.8, 9.49e-09
3829.8, 1.447e-08
3831.8, 8.59e-09
3833.8, 1.541e-08
3835.8, 2.5e-09
3837.8, -9.66e-09
3839.8, 6.1e-10
3841.8, 2.305e-08
3843.8, 1.571e-08
3845.8, 9.63e-09
3847.8, 3.47e-08
3849.8, -1.88e-09
3851.8, 1.219e-08
3853.8, -1.75e-09
3855.9, 2.69e-09
3857.9, 2.729e-08
3859.9, 1.8e-08
3861.9, 3.494e-08
3863.9, 1.149e-08
3865.9, 2.4e-10
3867.9, 2e-09
3869.9, 2.69e-09
3871.9, 1.676e-08
3873.9, -5.84e-09
3875.9, 5.74e-09
3877.9, 1.58e-08
3879.9, 2.116e-08
3881.9, -2.96e-09
3883.9, 3.7e-09
3885.9, 5.06e-09
3887.9, 4.464e-08
3889.9, 1.367e-08
3891.9, -1.377e-08
3893.9, 9.11e-09
3895.9, 2.398e-08
3897.9, 2.133e-08
3899.9, 1.63e-09
3901.9, 2.05e-09
3903.9, 5.34e-09
3905.9, 1.221e-08
3907.9, 2.19e-09
3909.9, -6.39e-09
3911.9, 1.783e-08
3913.9, 2.17e-09
3915.9, 1.082e-08
3917.9, 1.312e-08
3919.9, 4.83e-09
3921.9, 9.25e-09
3923.9, -4.3e-10
3925.9, 5.86e-09
3927.9, 2.015e-08
3929.9, 2.095e-08
3931.9, 2.22e-08
3933.9, 3.98e-09
3935.9, 7.56e-09
3937.9, 6.78e-09
3939.9, 7.62e-09
3941.9, -5.32e-09
3943.9, -1.378e-08
3945.9, 2.024e-08
3947.9, 2.391e-08
3949.9, 1.436e-08
3951.9, 2.6e-08
3953.9, 2.9e-09
3956.0, -9.03e-09
3958.0, 9.07e-09
3960.0, -1.271e-08
3962.0, 7.42e-09
3964.0, -5.99e-09
3966.0, -2.79e-09
3968.0, 6.48e-09
3970.0, -1.37e-09
3972.0, 1.409e-08
3974.0, 7.89e-09
3976.0, 1.203e-08
3978.0, 2.24e-09
3980.0, 2.94e-09
3982.0, 8.9e-10
3984.0, 4.304e-08
3986.0, 1.015e-08
3988.0, 1.223e-08
3990.0, 5.03e-09
3992.0, 2.211e-08
3994.0, -8.07e-09
3996.0, 8.6e-09
3998.0, 6.98e-09
4000.0, -5.07e-09
4002.0, 6.74e-09
4004.0, 1.244e-08
4006.0, 9.55e-09
4008.0, 3.303e-08
4010.0, -3.4e-09
4012.0, 1.284e-08
4014.0, 2.9e-09
4016.0, 1.8e-09
4018.0, 6.7e-09
4020.0, 3.76e-08
4022.0, 2.099e-08
4024.0, -7e-09
4026.0, 4.29e-09
4028.0, -2.02e-09
4030.0, 2.751e-08
4032.0, 2.262e-08
4034.0, -1.448e-08
4036.0, 7.81e-09
4038.0, 1.388e-08
4040.0, 9.64e-09
4042.0, 6.58e-09
4044.0, 3.06e-09
4046.0, 2.7e-10
4048.0, -7.8e-09
4050.0, -2.05e-09
4052.0, -7.27e-09
4054.0, 1.1e-09
4056.1, 1.48e-08
4058.1, -7.81e-09
4060.1, 2.094e-08
4062.1, -1.75e-09
4064.1, -9.1e-10
4066.1, 5.76e-09
4068.1, -3.58e-09
4070.1, -9.3e-09
4072.1, 1.393e-08
4074.1, -7.33e-09
4076.1, 1.361e-08
4078.1, -1.37e-09
4080.1, 9.49e-09
4082.1, -6.5e-09
4084.1, 1.31e-08
4086.1, 1.813e-08
4088.1, 7.73e-09
4090.1, 6.28e-09
4092.1, -8.89e-09
4094.1, 6.55e-09
4096.1, 1.36e-08
4098.1, -5.87e-09
4100.1, 1.872e-08
4102.1, 2.192e-08
4104.1, 2.008e-08
4106.1, 8.58e-09
4108.1, 9.85e-09
4110.1, 1.278e-08
4112.1, 2.071e-08
4114.1, -6.66e-09
4116.1, 1.783e-08
4118.1, 1.363e-08
4120.1, -9.66e-09
4122.1, 5.41e-09
4124.1, 7.21e-09
4126.1, -1.238e-08
4128.1, -1.411e-08
4130.1, 1.562e-08
4132.1, 1.211e-08
4134.1, -5.74e-09
4136.1, -2.14e-09
4138.1, 2.841e-08
4140.1, 4.333e-08
4142.1, 3.212e-08
4144.1, 9.74e-09
4146.1, 7.08e-09
4148.1, 2.833e-08
4150.1, 1.65e-09
4152.1, 8.81e-09
4154.1, 3.14e-09
4156.2, 6.26e-09
4158.2, -1.24e-09
4160.2, 8.79e-09
4162.2, 3.193e-08
4164.2, -1.204e-08
4166.2, 1.464e-08
4168.2, 2.824e-08
4170.2, 1.785e-08
4172.2, -1.478e-08
4174.2, 1.971e-08
4176.2, 1.029e-08
4178.2, 4.99e-09
4180.2, 6.32e-09
4182.2, -5.31e-09
4184.2, 1.893e-08
4186.2, 1.219e-08
4188.2, -3.671e-08
4190.2, -3.708e-08
4192.2, -3.474e-08
4194.2, -3.643e-08
4196.2, -3.389e-08
4198.2, -3.623e-08
4200.2, -3.617e-08
4202.2, -3.292e-08
4204.2, -3.24e-08
4206.2, -3.692e-08
4208.2, -3.646e-08
4210.2, -3.411e-08
4212.2, -3.548e-08
4214.2, -3.266e-08
4216.2, -3.274e-08
4218.2, -3.083e-08
4220.2, -3.713e-08
4222.2, -3.191e-08
4224.2, -2.93e-08
4226.2, -2.985e-08
4228.2, -3.376e-08
4230.2, -3.565e-08
4232.2, -3.609e-08
4234.2, -3.569e-08
4236.2, -3.29e-08
4238.2, -3.394e-08
4240.2, -3.97e-08
4242.2, -3.29e-08
4244.2, -3.155e-08
4246.2, -3.321e-08
4248.2, -2.948e-08
4250.2, -3.145e-08
4252.2, -3.177e-08
4254.2, -3.173e-08
4256.3, -3.304e-08
4258.3, -3.208e-08
4260.3, -3.332e-08
4262.3, -3.542e-08
4264.3, -3.536e-08
4266.3, -3.591e-08
4268.3, -3.424e-08
4270.3, -3.806e-08
4272.3, -4.111e-08
4274.3, -3.737e-08
4276.3, -3.611e-08
4278.3, -3.624e-08
4280.3, -3.681e-08
4282.3, -3.591e-08
4284.3, -3.271e-08
4286.3, -3.659e-08
4288.3, -3.653e-08
4290.3, -3.637e-08
4292.3, -3.349e-08
4294.3, -3.229e-08
4296.3, -3.274e-08
4298.3, -3.628e-08
4300.3, -3.444e-08
4302.3, -3.47e-08
4304.3, -3.363e-08
4306.3, -3.353e-08
4308.3, -3.497e-08
4310.3, -3.344e-08
4312.3, -3.366e-08
4314.3, -3.283e-08
4316.3, -3.384e-08
4318.3, -3.646e-08
4320.3, -3.554e-08
4322.3, -3.506e-08
4324.3, -3.069e-08
4326.3, -2.812e-08
4328.3, -3.392e-08
4330.3, -3.186e-08
4332.3, -3.479e-08
4334.3, -3.288e-08
4336.3, -3.12e-08
4338.3, -2.977e-08
4340.3, -3.707e-08
4342.3, -3.576e-08
4344.3, -3.579e-08
4346.3, -3.527e-08
4348.3, -3.662e-08
4350.3, -3.882e-08
4352.3, -3.404e-08
4354.3, -3.392e-08
4356.4, -3.651e-08
4358.4, -3.586e-08
4360.4, -3.344e-08
4362.4, -3.638e-08
4364.4, -3.501e-08
4366.4, -3.884e-08
4368.4, -3.255e-08
4370.4, -3.332e-08
4372.4, -3.268e-08
4374.4, -3.307e-08
4376.4, -2.919e-08
4378.4, -3.591e-08
4380.4, -3.392e-08
4382.4, -3.285e-08
4384.4, -2.824e-08
4386.4, -3.193e-08
4388.4, -3.326e-08
4390.4, -3.017e-08
4392.4, -3.425e-08
4394.4, -3.539e-08
4396.4, -3.342e-08
4398.4, -3.514e-08
4400.4, -3.598e-08
4402.4, -3.557e-08
4404.4, -3.162e-08
4406.4, -3.363e-08
4408.4, -2.948e-08
4410.4, -3.478e-08
4412.4, -3.878e-08
4414.4, -3.63e-08
4416.4, -3.481e-08
4418.4, -3.482e-08
4420.4, -3.901e-08
4422.4, -3.517e-08
4424.4, -3.766e-08
4426.4, -3.893e-08
4428.4, -3.838e-08
4430.4, -3.515e-08
4432.4, -3.515e-08
4434.4, -3.94e-08
4436.4, -3.757e-08
4438.4, -3.552e-08
4440.4, -3.322e-08
4442.4, -3.333e-08
4444.4, -3.487e-08
4446.4, -3.338e-08
4448.4, -3.549e-08
4450.4, -3.202e-08
4452.4, -3.408e-08
4454.4, -3.461e-08
4456.5, -3.366e-08
4458.5, -3.239e-08
4460.5, -3.575e-08
4462.5, -3.566e-08
4464.5, -3.496e-08
4466.5, -3.437e-08
4468.5, -3.92e-08
4470.5, -3.529e-08
4472.5, -3.206e-08
4474.5, -3.171e-08
4476.5, -2.864e-08
4478.5, -3.424e-08
4480.5, -3.079e-08
4482.5, -3.272e-08
4484.5, -3.343e-08
4486.5, -3.243e-08
4488.5, -3.433e-08
4490.5, -3.544e-08
4492.5, -3.693e-08
4494.5, -3.207e-08
4496.5, -3.542e-08
4498.5, -3.366e-08
4500.5, -3.338e-08
4502.5, -3.441e-08
4504.5, -3.355e-08
4506.5, -3.277e-08
4508.5, -3.072e-08
4510.5, -3.405e-08
4512.5, -3.238e-08
4514.5, -3.106e-08
4516.5, -3.163e-08
4518.5, -3.085e-08
4520.5, -3.273e-08
4522.5, -3.386e-08
4524.5, -3.059e-08
4526.5, -3.086e-08
4528.5, -2.942e-08
4530.5, -3.418e-08
4532.5, -3.257e-08
4534.5, -2.993e-08
4536.5, -3.414e-08
4538.5, -3.04e-08
4540.5, -2.825e-08
4542.5, -3.05e-08
4544.5, -2.967e-08
4546.5, -3.232e-08
4548.5, -3.105e-08
4550.5, -2.917e-08
4552.5, -3.053e-08
4554.5, -2.847e-08
4556.6, -2.947e-08
4558.6, -3.136e-08
4560.6, -3.333e-08
4562.6, -3.249e-08
4564.6, -3.032e-08
4566.6, -3.313e-08
4568.6, -3.31e-08
4570.6, -3.328e-08
4572.6, -3.71e-08
4574.6, -3.324e-08
4576.6, -3.678e-08
4578.6, -3.08e-08
4580.6, -3.331e-08
4582.6, -3.265e-08
4584.6, -3.384e-08
4586.6, -3.479e-08
4588.6, -3.586e-08
4590.6, -3.134e-08
4592.6, -3.402e-08
4594.6, -3.161e-08
4596.6, -3.194e-08
4598.6, -3.222e-08
4600.6, -3.484e-08
4602.6, -3.007e-08
4604.6, -3.644e-08
4606.6, -3.466e-08
4608.6, -3.227e-08
4610.6, -3.208e-08
4612.6, -3.215e-08
4614.6, -2.867e-08
4616.6, -3.224e-08
4618.6, -3.138e-08
4620.6, -3.088e-08
4622.6, -3.508e-08
4624.6, -3.093e-08
4626.6, -3.349e-08
4628.6, -3.032e-08
4630.6, -3.355e-08
4632.6, -3.457e-08
4634.6, -3.221e-08
4636.6, -3.624e-08
4638.6, -3.622e-08
4640.6, -3.216e-08
4642.6, -3.295e-08
4644.6, -3.133e-08
4646.6, -3.08e-08
4648.6, -3.286e-08
4650.6, -3.391e-08
4652.6, -3.186e-08
4654.6, -2.96e-08
4656.7, -2.875e-08
4658.7, -3.186e-08
4660.7, -3.847e-08
4662.7, -3.478e-08
4664.7, -3.646e-08
4666.7, -3.154e-08
4668.7, -3.622e-08
4670.7, -3.95e-08
4672.7, -3.425e-08
4674.7, -3.283e-08
4676.7, -3.281e-08
4678.7, -3.292e-08
4680.7, -3.642e-08
4682.7, -3.574e-08
4684.7, -3.699e-08
4686.7, -3.696e-08
4688.7, -3.776e-08
4690.7, -3.895e-08
4692.7, -3.676e-08
4694.7, -3.5e-08
4696.7, -3.659e-08
4698.7, -3.684e-08
4700.7, -3.873e-08
4702.7, -3.944e-08
4704.7, -3.833e-08
4706.7, -3.945e-08
4708.7, -4.275e-08
4710.7, -4.146e-08
4712.7, -3.852e-08
4714.7, -4.435e-08
4716.7, -3.978e-08
4718.7, -4.25e-08
4720.7, -4.095e-08
4722.7, -3.895e-08
4724.7, -3.677e-08
4726.7, -3.589e-08
4728.7, -3.61e-08
4730.7, -3.841e-08
4732.7, -3.557e-08
4734.7, -3.598e-08
4736.7, -3.468e-08
4738.7, -3.215e-08
4740.7, -3.942e-08
4742.7, -3.94e-08
4744.7, -3.556e-08
4746.7, -3.634e-08
4748.7, -3.583e-08
4750.7, -3.618e-08
4752.7, -3.691e-08
4754.7, -3.869e-08
4756.8, -3.764e-08
4758.8, -3.603e-08
4760.8, -3.88e-08
4762.8, -3.624e-08
4764.8, -3.579e-08
4766.8, -3.566e-08
4768.8, -3.857e-08
4770.8, -3.911e-08
4772.8, -4.019e-08
4774.8, -3.862e-08
4776.8, -3.767e-08
4778.8, -3.885e-08
4780.8, -4.037e-08
4782.8, -4.022e-08
4784.8, -3.694e-08
4786.8, -3.599e-08
4788.8, -3.894e-08
4790.8, -3.618e-08
4792.8, -3.79e-08
4794.8, -4.118e-08
4796.8, -3.806e-08
4798.8, -3.845e-08
4800.8, -3.654e-08
4802.8, -3.68e-08
4804.8, -3.778e-08
4806.8, -3.846e-08
4808.8, -4.007e-08
4810.8, -3.748e-08
4812.8, -3.791e-08
4814.8, -4.011e-08
4816.8, -3.569e-08
4818.8, -3.687e-08
4820.8, -3.524e-08
4822.8, -3.984e-08
4824.8, -3.695e-08
4826.8, -3.53e-08
4828.8, -3.594e-08
4830.8, -3.829e-08
4832.8, -3.707e-08
4834.8, -3.85e-08
4836.8, -3.931e-08
4838.8, -4.318e-08
4840.8, -4.235e-08
4842.8, -3.852e-08
4844.8, -3.904e-08
4846.8, -3.856e-08
4848.8, -4.043e-08
4850.8, -4.157e-08
4852.8, -3.673e-08
4854.8, -3.641e-08
4856.9, -3.458e-08
4858.9, -3.39e-08
4860.9, -3.621e-08
4862.9, -3.836e-08
4864.9, -3.898e-08
4866.9, -3.605e-08
4868.9, -3.889e-08
4870.9, -3.763e-08
4872.9, -3.816e-08
4874.9, -3.704e-08
4876.9, -3.723e-08
4878.9, -3.896e-08
4880.9, -4.061e-08
4882.9, -3.989e-08
4884.9, -4.268e-08
4886.9, -4.363e-08
4888.9, -4.405e-08
4890.9, -4.152e-08
4892.9, -3.84e-08
4894.9, -4.16e-08
4896.9, -4.074e-08
4898.9, -3.918e-08
4900.9, -4.41e-08
4902.9, -4.212e-08
4904.9, -3.691e-08
4906.9, -3.969e-08
4908.9, -3.578e-08
4910.9, -4.229e-08
4912.9, -4.074e-08
4914.9, -4.108e-08
4916.9, -3.985e-08
4918.9, -3.824e-08
4920.9, -3.906e-08
4922.9, -4.244e-08
4924.9, -4.007e-08
4926.9, -4.039e-08
4928.9, -3.792e-08
4930.9, -4.037e-08
4932.9, -4.238e-08
4934.9, -4.15e-08
4936.9, -3.817e-08
4938.9, -3.879e-08
4940.9, -4.123e-08
4942.9, -4.012e-08
4944.9, -4.029e-08
4946.9, -3.931e-08
4948.9, -3.733e-08
4950.9, -3.995e-08
4952.9, -3.847e-08
4954.9, -4.112e-08
4957.0, -3.9e-08
4959.0, -4.049e-08
4961.0, -3.853e-08
4963.0, -3.898e-08
4965.0, -3.644e-08
4967.0, -3.838e-08
4969.0, -4.123e-08
4971.0, -3.946e-08
4973.0, -4.033e-08
4975.0, -3.9e-08
4977.0, -3.696e-08
4979.0, -3.896e-08
4981.0, -3.735e-08
4983.0, -3.635e-08
4985.0, -3.409e-08
4987.0, -3.77e-08
4989.0, -3.885e-08
4991.0, -3.662e-08
4993.0, -4.13e-08
4995.0, -4.039e-08
4997.0, -4.043e-08
4999.0, -3.8e-08
5001.0, -3.897e-08
5003.0, -3.877e-08
5005.0, -3.689e-08
5007.0, -4.214e-08
5009.0, -4.211e-08
5011.0, -3.921e-08
5013.0, -4.097e-08
5015.0, -4.114e-08
5017.0, -3.813e-08
5019.0, -4.03e-08
5021.0, -4.129e-08
5023.0, -4.111e-08
5025.0, -4.277e-08
5027.0, -3.795e-08
5029.0, -3.776e-08
5031.0, -3.735e-08
5033.0, -3.582e-08
5035.0, -3.93e-08
5037.0, -4.004e-08
5039.0, -4.02e-08
5041.0, -4.212e-08
5043.0, -4.144e-08
5045.0, -3.757e-08
5047.0, -4.2e-08
5049.0, -3.936e-08
5051.0, -4.129e-08
5053.0, -3.763e-08
5055.0, -3.982e-08
5057.1, -3.91e-08
5059.1, -3.883e-08
5061.1, -3.406e-08
5063.1, -3.615e-08
5065.1, -3.677e-08
5067.1, -3.907e-08
5069.1, -3.61e-08
5071.1, -3.759e-08
5073.1, -4.091e-08
5075.1, -3.768e-08
5077.1, -3.954e-08
5079.1, -4.134e-08
5081.1, -3.966e-08
5083.1, -4.231e-08
5085.1, -4.079e-08
5087.1, -3.585e-08
5089.1, -4.442e-08
5091.1, -4.089e-08
5093.1, -3.946e-08
5095.1, -3.931e-08
5097.1, -3.749e-08
5099.1, -3.898e-08
5101.1, -4.001e-08
5103.1, -3.916e-08
5105.1, -4.127e-08
5107.1, -3.616e-08
5109.1, -4.102e-08
5111.1, -4.034e-08
5113.1, -3.723e-08
5115.1, -3.711e-08
5117.1, -4.15e-08
5119.1, -3.427e-08
5121.1, -3.749e-08
5123.1, -3.608e-08
5125.1, -4.102e-08
5127.1, -3.82e-08
5129.1, -3.868e-08
5131.1, -3.979e-08
5133.1, -3.769e-08
5135.1, -3.968e-08
5137.1, -3.855e-08
5139.1, -3.646e-08
5141.1, -3.804e-08
5143.1, -3.826e-08
5145.1, -3.953e-08
5147.1, -3.861e-08
5149.1, -3.609e-08
5151.1, -3.244e-08
5153.1, -3.752e-08
5155.1, -4.409e-08
5157.2, -4.298e-08
5159.2, -3.965e-08
5161.2, -4.235e-08
5163.2, -4.199e-08
5165.2, -3.724e-08
5167.2, -4.265e-08
5169.2, -4.018e-08
5171.2, -4.321e-08
5173.2, -4.109e-08
5175.2, -3.977e-08
5177.2, -3.721e-08
5179.2, -3.97e-08
5181.2, -3.721e-08
5183.2, -3.724e-08
5185.2, -3.978e-08
5187.2, -3.853e-08
5189.2, -3.534e-08
5191.2, -3.686e-08
5193.2, -3.956e-08
5195.2, -4.015e-08
5197.2, -3.618e-08
5199.2, -3.68e-08
5201.2, -4.047e-08
5203.2, -4.076e-08
5205.2, -4.101e-08
5207.2, -3.767e-08
5209.2, -3.83e-08
5211.2, -3.908e-08
5213.2, -4.003e-08
5215.2, -3.967e-08
5217.2, -3.736e-08
5219.2, -3.942e-08
5221.2, -3.681e-08
5223.2, -3.688e-08
5225.2, -3.873e-08
5227.2, -3.959e-08
5229.2, -3.398e-08
5231.2, -3.876e-08
5233.2, -4.067e-08
5235.2, -3.964e-08
5237.2, -3.999e-08
5239.2, -4.085e-08
5241.2, -4.291e-08
5243.2, -3.943e-08
5245.2, -3.693e-08
5247.2, -3.676e-08
5249.2, -3.99e-08
5251.2, -3.905e-08
5253.2, -3.951e-08
5255.2, -3.926e-08
5257.3, -4.032e-08
5259.3, -3.898e-08
5261.3, -3.874e-08
5263.3, -4.223e-08
5265.3, -3.854e-08
5267.3, -4.026e-08
5269.3, -3.77e-08
5271.3, -3.997e-08
5273.3, -3.581e-08
5275.3, -3.433e-08
5277.3, -3.959e-08
5279.3, -3.407e-08
5281.3, -3.752e-08
5283.3, -3.504e-08
5285.3, -3.7e-08
5287.3, -3.663e-08
5289.3, -3.361e-08
5291.3, -3.467e-08
5293.3, 1.23e-09
5295.3, -2.688e-08
5297.3, -1.414e-08
5299.3, -2.221e-08
5301.3, -2.45e-09
5303.3, 3.4e-09
5305.3, -1.969e-08
5307.3, -3.73e-09
5309.3, -1.63e-09
5311.3, -8.45e-09
5313.3, 2.78e-09
5315.3, -9.73e-09
5317.3, -8.4e-09
5319.3, -1.319e-08
5321.3, -2.81e-08
5323.3, -2.73e-09
5325.3, -7.54e-09
5327.3, 7.37e-09
5329.3, 1.211e-08
5331.3, 8.98e-09
5333.3, -1.109e-08
5335.3, -5.46e-09
5337.3, -1.795e-08
5339.3, -2.085e-08
5341.3, -1.374e-08
5343.3, -6e-09
5345.3, 2.01e-09
5347.3, -1.267e-08
5349.3, 1.95e-09
5351.3, -9.77e-09
5353.3, -6.79e-09
5355.3, 4.88e-09
5357.4, -2.039e-08
5359.4, 2.57e-09
5361.4, 2.47e-09
5363.4, -1.94e-09
5365.4, -2.181e-08
5367.4, -1.56e-08
5369.4, -1.132e-08
5371.4, -1.123e-08
5373.4, -1.271e-08
5375.4, -7.76e-09
5377.4, -2.408e-08
5379.4, -7.64e-09
5381.4, 1.574e-08
5383.4, -1.942e-08
5385.4, -1.521e-08
5387.4, -1.65e-08
5389.4, 2.45e-09
5391.4, 4.57e-09
5393.4, -6.54e-09
5395.4, -2.411e-08
5397.4, -1.411e-08
5399.4, -1.72e-09
5401.4, -8.81e-09
5403.4, -1.849e-08
5405.4, -9.24e-09
5407.4, -1.926e-08
5409.4, -3e-10
5411.4, -9.96e-09
5413.4, -5.7e-09
5415.4, 2.698e-08
5417.4, -6.98e-09
5419.4, -1.869e-08
5421.4, -8.99e-09
5423.4, -1.9e-08
5425.4, -8.44e-09
5427.4, -1.261e-08
5429.4, -5.5e-10
5431.4, -1.21e-09
5433.4, 1.385e-08
5435.4, 1.761e-08
5437.4, 1.169e-08
5439.4, -1.35e-09
5441.4, -9.81e-09
5443.4, -7.59e-09
5445.4, -2.89e-09
5447.4, 5.89e-09
5449.4, -1.73e-09
5451.4, -3.77e-09
5453.4, -4.7e-10
5455.4, 1.551e-08
5457.5, 1.87e-08
5459.5, -6.28e-09
5461.5, -6.38e-09
5463.5, -1.2e-09
5465.5, -1.146e-08
5467.5, -9.54e-09
5469.5, 1.296e-08
5471.5, -7.5e-10
5473.5, -1.05e-09
5475.5, -1.153e-08
5477.5, -8.95e-09
5479.5, 9.6e-09
5481.5, -1.671e-08
5483.5, 6.04e-09
5485.5, 9.37e-09
5487.5, -5.74e-09
5489.5, -5.09e-09
5491.5, 7.92e-09
5493.5, 1.859e-08
5495.5, -3.43e-09
5497.5, -1.46e-09
5499.5, 1.211e-08
5501.5, 9.86e-09
5503.5, 2.56e-09
5505.5, 8.14e-09
5507.5, -5.82e-09
5509.5, -3.83e-09
5511.5, 6.58e-09
5513.5, 7.53e-09
5515.5, -6.46e-09
5517.5, 8.58e-09
5519.5, -4.5e-10
5521.5, -7.31e-09
5523.5, -4.46e-09
5525.5, 1.957e-08
5527.5, 2.084e-08
5529.5, -4.08e-09
5531.5, 7.57e-09
5533.5, 3.42e-09
5535.5, 8.77e-09
5537.5, -1.519e-08
5539.5, 3.435e-08
5541.5, 5.4e-10
5543.5, -1.89e-08
5545.5, 9.9e-09
5547.5, -1.93e-09
5549.5, -4.1e-10
5551.5, -4.56e-09
5553.5, 9.92e-09
5555.5, -4.46e-09
5557.6, -9.26e-09
5559.6, -1.043e-08
5561.6, 1.595e-08
5563.6, -1.953e-08
5565.6, -2.197e-08
5567.6, 3.29e-09
5569.6, 7.27e-09
5571.6, -1.032e-08
5573.6, 6.14e-09
5575.6, -1.77e-08
5577.6, 3.19e-09
5579.6, -6.01e-09
5581.6, -1.275e-08
5583.6, -1.28e-09
5585.6, -1.598e-08
5587.6, -2.08e-08
5589.6, -1.108e-08
5591.6, 2.805e-08
5593.6, 4.57e-09
5595.6, -1.775e-08
5597.6, 2.435e-08
5599.6, 1.68e-09
5601.6, -8.45e-09
5603.6, -3.83e-09
5605.6, -1.358e-08
5607.6, -1.94e-08
5609.6, 2.05e-09
5611.6, 1.546e-08
5613.6, 8.59e-09
5615.6, -4.5e-10
5617.6, -6.1e-10
5619.6, -4.71e-09
5621.6, -3.01e-09
5623.6, -3.03e-09
5625.6, 1.802e-08
5627.6, 1.275e-08
5629.6, -1.568e-08
5631.6, 2.81e-09
5633.6, 8.16e-09
5635.6, 6.3e-10
5637.6, 6.73e-09
5639.6, 1.184e-08
5641.6, 2.48e-09
5643.6, 8.9e-10
5645.6, -4.51e-09
5647.6, 8.41e-09
5649.6, 2.01e-09
5651.6, -1.864e-08
5653.6, -1.978e-08
5655.6, -5.17e-09
5657.7, 3.82e-09
5659.7, 2.2e-08
5661.7, -6.75e-09
5663.7, -1.192e-08
5665.7, 9.58e-09
5667.7, 1.34e-09
5669.7, 2.849e-08
5671.7, 5.7e-09
5673.7, -1.147e-08
5675.7, 3.26e-09
5677.7, -4.8e-09
5679.7, 1.357e-08
5681.7, -1.395e-08
5683.7, -2.04e-09
5685.7, -1.604e-08
5687.7, 8.8e-10
5689.7, -8.15e-09
5691.7, 1.975e-08
5693.7, 3.11e-09
5695.7, 1.519e-08
5697.7, -1.948e-08
5699.7, 1.493e-08
5701.7, 1.18e-08
5703.7, 9.79e-09
5705.7, -4.28e-09
5707.7, 9.29e-09
5709.7, 8.23e-09
5711.7, -8.77e-09
5713.7, 1.314e-08
5715.7, 3.59e-09
5717.7, 2.95e-09
5719.7, 2.16e-09
5721.7, 2.1e-10
5723.7, 1.9e-10
5725.7, 6.96e-09
5727.7, 1.428e-08
5729.7, 1.244e-08
5731.7, 2.24e-09
5733.7, -1.777e-08
5735.7, -4.27e-09
5737.7, 1.37e-08
5739.7, 2.76e-09
5741.7, 6.1e-09
5743.7, -1.194e-08
5745.7, -5.78e-09
5747.7, -2.8e-09
5749.7, 4e-09
5751.7, 2.461e-08
5753.7, 7.59e-09
5755.7, -2.176e-08
5757.8, 2.115e-08
5759.8, -5.82e-09
5761.8, 1.011e-08
5763.8, -9.2e-09
5765.8, -2.08e-09
5767.8, 1.44e-08
5769.8, -9.4e-09
5771.8, 1.884e-08
5773.8, -7.68e-09
5775.8, -2.405e-08
5777.8, 3.324e-08
5779.8, -4.42e-09
5781.8, -1.451e-08
5783.8, -1.42e-09
5785.8, -4.94e-09
5787.8, -3.99e-09
5789.8, -1.886e-08
5791.8, -1.6e-09
5793.8, 2.7e-09
5795.8, -1.272e-08
5797.8, 2.087e-08
5799.8, -1.252e-08
5801.8, 1.069e-08
5803.8, 6.1e-10
5805.8, 3.84e-09
5807.8, 1.435e-08
5809.8, -3.91e-09
5811.8, -8.63e-09
5813.8, 6.89e-09
5815.8, -3.29e-09
5817.8, -8.6e-09
5819.8, -8.37e-09
5821.8, -1.443e-08
5823.8, 1.345e-08
5825.8, 2.07e-09
5827.8, -1.068e-08
5829.8, -3.25e-09
5831.8, 6.82e-09
5833.8, -1.254e-08
5835.8, 7.22e-09
5837.8, -3.35e-09
5839.8, -5.6e-09
5841.8, 1.719e-08
5843.8, 9.97e-09
5845.8, -4.68e-09
5847.8, -1.16e-09
5849.8, -1.673e-08
5851.8, 1.845e-08
5853.8, 8.95e-09
5855.8, -1.492e-08
5857.9, -2.179e-08
5859.9, -1.12e-09
5861.9, -8.96e-09
5863.9, -1.052e-08
5865.9, -1.179e-08
5867.9, -2.11e-09
5869.9, -2.327e-08
5871.9, -6.26e-09
5873.9, -1.069e-08
5875.9, -3.08e-09
5877.9, 1.123e-08
5879.9, 1.944e-08
5881.9, 2.31e-09
5883.9, 2.8e-10
5885.9, -1.509e-08
5887.9, 5.8e-10
5889.9, 7.46e-09
5891.9, 2.05e-09
5893.9, -3.65e-09
5895.9, 1.847e-08
5897.9, 8.1e-10
5899.9, -2.25e-09
5901.9, -3.59e-09
5903.9, 1.428e-08
5905.9, -8.56e-09
5907.9, 6.05e-09
5909.9, 7.8e-09
5911.9, 6.64e-09
5913.9, 2.578e-08
5915.9, 2.479e-08
5917.9, -5.72e-09
5919.9, 1.478e-08
5921.9, 9.93e-09
5923.9, -5.85e-09
5925.9, -2.17e-09
5927.9, 1.512e-08
5929.9, 4.64e-09
5931.9, 1.144e-08
5933.9, 4.55e-09
5935.9, 7.44e-09
5937.9, 2.141e-08
5939.9, 1.571e-08
5941.9, -6.13e-09
5943.9, 1.313e-08
5945.9, -1.279e-08
5947.9, 1.072e-08
5949.9, -1.447e-08
5951.9, 6.2e-10
5953.9, 5.36e-09
5955.9, 1.418e-08
5958.0, -3.1e-10
5960.0, -5.67e-09
5962.0, -1.7e-10
5964.0, 1.731e-08
5966.0, -3.92e-09
5968.0, -1.295e-08
5970.0, 2.57e-09
5972.0, 7.45e-09
5974.0, -2.25e-09
5976.0, 2.611e-08
5978.0, -3.64e-09
5980.0, -1.42e-09
5982.0, -4.43e-09
5984.0, -1.3e-08
5986.0, -1.162e-08
5988.0, -1.108e-08
5990.0, -6.47e-09
5992.0, -6.76e-09
5994.0, 1.155e-08
5996.0, -8.2e-09
5998.0, -7.26e-09
6000.0, 1.407e-08
6002.0, 4.66e-09
6004.0, 7.4e-09
6006.0, -6.5e-09
6008.0, -9.42e-09
6010.0, 9.52e-09
6012.0, -1.534e-08
6014.0, 3.65e-08
6016.0, 2.28e-09
6018.0, -9.94e-09
6020.0, 2.81e-09
6022.0, -2.21e-09
6024.0, 3.07e-09
6026.0, -5.7e-09
6028.0, 1.701e-08
6030.0, -7.06e-09
6032.0, -5.74e-09
6034.0, -2.94e-09
6036.0, 1.149e-08
6038.0, -1.437e-08
6040.0, 1.435e-08
6042.0, 1.1e-09
6044.0, 1.359e-08
6046.0, 2.411e-08
6048.0, 9.29e-09
6050.0, 1.44e-08
6052.0, 4.34e-09
6054.0, 5.4e-09
6056.0, 4.25e-09
6058.1, 8.1e-10
6060.1, 3.887e-08
6062.1, 1.168e-08
6064.1, 1.81e-08
6066.1, -1.447e-08
6068.1, -3.34e-09
6070.1, 3.305e-08
6072.1, 4.818e-08
6074.1, 1.646e-08
6076.1, -3.88e-09
6078.1, 8.2e-10
6080.1, -1.62e-09
6082.1, 3.59e-09
6084.1, 1.879e-08
6086.1, 2.168e-08
6088.1, -2.85e-09
6090.1, 8.96e-09
6092.1, 5.1e-10
6094.1, 2.1e-10
6096.1, 1.96e-09
6098.1, 6.4e-09
6100.1, 4.39e-09
6102.1, 1.142e-08
6104.1, 4.91e-09
6106.1, 2.604e-08
6108.1, 3.19e-09
6110.1, 1.377e-08
6112.1, 5.63e-09
6114.1, 2.89e-09
6116.1, 9.81e-09
6118.1, -5.5e-10
6120.1, 2.247e-08
6122.1, -1.95e-09
6124.1, -1.789e-08
6126.1, 1.4e-10
6128.1, 3.19e-09
6130.1, 2e-10
6132.1, -1.274e-08
6134.1, -2.04e-09
6136.1, -5.29e-09
6138.1, 9.66e-09
6140.1, 2.017e-08
6142.1, 5.44e-09
6144.1, -1.188e-08
6146.1, -1.318e-08
6148.1, 1.612e-08
6150.1, 7.2e-10
6152.1, 1.33e-08
6154.1, -1.896e-08
6156.1, -2.54e-09
6158.2, 4.9e-10
6160.2, 7.5e-10
6162.2, -2.8e-10
6164.2, 1.631e-08
6166.2, 1.481e-08
6168.2, 1.715e-08
6170.2, 1.111e-08
6172.2, 2.546e-08
6174.2, 1.568e-08
6176.2, -1.165e-08
6178.2, 9.83e-09
6180.2, 1.741e-08
6182.2, 8.41e-09
6184.2, 1.584e-08
6186.2, 1.522e-08
6188.2, 1.755e-08
6190.2, 9.49e-09
6192.2, 1.326e-08
6194.2, 1.041e-08
6196.2, 1.533e-08
6198.2, 1.059e-08
6200.2, -4.38e-09
6202.2, 8.92e-09
6204.2, -6.58e-09
6206.2, -2.08e-09
6208.2, -3.84e-09
6210.2, 1.333e-08
6212.2, 1.662e-08
6214.2, 4.1e-10
6216.2, 2.411e-08
6218.2, 6.6e-10
6220.2, 1.33e-09
6222.2, -3.24e-09
6224.2, -2.084e-08
6226.2, 5.221e-08
6228.2, -1.76e-09
6230.2, 7.05e-09
6232.2, 1.473e-08
6234.2, -1.313e-08
6236.2, 2.86e-09
6238.2, 6.14e-09
6240.2, -1.579e-08
6242.2, 1.759e-08
6244.2, 8.31e-09
6246.2, 1.086e-08
6248.2, 9.3e-09
6250.2, 3e-11
6252.2, 8.34e-09
6254.2, -1.638e-08
6256.2, -8.67e-09
6258.3, 6.6e-10
6260.3, -8.12e-09
6262.3, 1.262e-08
6264.3, 1.499e-08
6266.3, 1.658e-08
6268.3, 2.03e-09
6270.3, 1e-08
6272.3, 7.39e-09
6274.3, -4.24e-09
6276.3, -6.6e-10
6278.3, 2.218e-08
6280.3, 3.19e-09
6282.3, 1.373e-08
6284.3, -8.61e-09
6286.3, 1.019e-08
6288.3, -3.48e-09
6290.3, 1.194e-08
6292.3, 3.72e-09
6294.3, -3.062e-08
6296.3, -3.423e-08
6298.3, -3.603e-08
6300.3, -3.395e-08
6302.3, -3.44e-08
6304.3, -3.546e-08
6306.3, -3.376e-08
6308.3, -3.478e-08
6310.3, -3.758e-08
6312.3, -3.852e-08
6314.3, -3.449e-08
6316.3, -3.67e-08
6318.3, -3.816e-08
6320.3, -3.986e-08
6322.3, -3.779e-08
6324.3, -3.616e-08
6326.3, -3.902e-08
6328.3, -3.525e-08
6330.3, -3.877e-08
6332.3, -3.604e-08
6334.3, -3.768e-08
6336.3, -3.454e-08
6338.3, -3.746e-08
6340.3, -3.753e-08
6342.3, -4.079e-08
6344.3, -3.787e-08
6346.3, -3.318e-08
6348.3, -3.599e-08
6350.3, -3.642e-08
6352.3, -3.649e-08
6354.3, -3.689e-08
6356.3, -3.817e-08
6358.4, -3.539e-08
6360.4, -3.797e-08
6362.4, -4.148e-08
6364.4, -3.833e-08
6366.4, -3.569e-08
6368.4, -3.094e-08
6370.4, -3.541e-08
6372.4, -3.51e-08
6374.4, -3.698e-08
6376.4, -3.794e-08
6378.4, -3.657e-08
6380.4, -3.547e-08
6382.4, -3.582e-08
6384.4, -3.728e-08
6386.4, -3.508e-08
6388.4, -3.499e-08
6390.4, -3.81e-08
6392.4, -3.199e-08
6394.4, -3.798e-08
6396.4, -3.981e-08
6398.4, -3.645e-08
6400.4, -3.637e-08
6402.4, -3.781e-08
6404.4, -3.541e-08
6406.4, -4.032e-08
6408.4, -3.901e-08
6410.4, -3.946e-08
6412.4, -3.619e-08
6414.4, -3.864e-08
6416.4, -4.079e-08
6418.4, -3.291e-08
6420.4, -3.357e-08
6422.4, -3.372e-08
6424.4, -3.648e-08
6426.4, -3.974e-08
6428.4, -3.44e-08
6430.4, -3.713e-08
6432.4, -3.635e-08
6434.4, -3.666e-08
6436.4, -3.904e-08
6438.4, -4.087e-08
6440.4, -3.693e-08
6442.4, -3.236e-08
6444.4, -3.404e-08
6446.4, -4.077e-08
6448.4, -3.595e-08
6450.4, -3.967e-08
6452.4, -3.692e-08
6454.4, -3.92e-08
6456.4, -3.618e-08
6458.5, -3.861e-08
6460.5, -4.042e-08
6462.5, -3.652e-08
6464.5, -3.517e-08
6466.5, -3.867e-08
6468.5, -3.848e-08
6470.5, -3.983e-08
6472.5, -3.825e-08
6474.5, -3.671e-08
6476.5, -3.912e-08
6478.5, -3.717e-08
6480.5, -3.651e-08
6482.5, -3.808e-08
6484.5, -3.816e-08
6486.5, -3.937e-08
6488.5, -4.193e-08
6490.5, -3.876e-08
6492.5, -4.061e-08
6494.5, -4.21e-08
6496.5, -4.305e-08
6498.5, -4.208e-08
6500.5, -4.007e-08
6502.5, -3.973e-08
6504.5, -4.588e-08
6506.5, -4.126e-08
6508.5, -4.213e-08
6510.5, -3.973e-08
6512.5, -4.318e-08
6514.5, -4.216e-08
6516.5, -4.239e-08
6518.5, -4.001e-08
6520.5, -4.239e-08
6522.5, -4.541e-08
6524.5, -4.122e-08
6526.5, -4.081e-08
6528.5, -4.101e-08
6530.5, -4.021e-08
6532.5, -4.134e-08
6534.5, -4.199e-08
6536.5, -4.179e-08
6538.5, -4.163e-08
6540.5, -4.001e-08
6542.5, -4.451e-08
6544.5, -4.156e-08
6546.5, -3.956e-08
6548.5, -3.851e-08
6550.5, -3.558e-08
6552.5, -3.784e-08
6554.5, -3.873e-08
6556.5, -3.476e-08
6558.6, -3.519e-08
6560.6, -3.73e-08
6562.6, -4.045e-08
6564.6, -3.986e-08
6566.6, -4.001e-08
6568.6, -3.656e-08
6570.6, -4.143e-08
6572.6, -3.688e-08
6574.6, -4.113e-08
6576.6, -3.962e-08
6578.6, -3.536e-08
6580.6, -3.958e-08
6582.6, -3.741e-08
6584.6, -3.971e-08
6586.6, -4.084e-08
6588.6, -3.884e-08
6590.6, -4.165e-08
6592.6, -4.538e-08
6594.6, -4.278e-08
6596.6, -4.534e-08
6598.6, -4.273e-08
6600.6, -3.813e-08
6602.6, -4.064e-08
6604.6, -4.31e-08
6606.6, -4.39e-08
6608.6, -3.852e-08
6610.6, -3.866e-08
6612.6, -3.772e-08
6614.6, -3.992e-08
6616.6, -3.681e-08
6618.6, -3.746e-08
6620.6, -3.892e-08
6622.6, -4.009e-08
6624.6, -3.446e-08
6626.6, -3.781e-08
6628.6, -4.119e-08
6630.6, -3.9e-08
6632.6, -3.728e-08
6634.6, -3.972e-08
6636.6, -3.639e-08
6638.6, -3.49e-08
6640.6, -3.647e-08
6642.6, -3.723e-08
6644.6, -3.693e-08
6646.6, -3.421e-08
6648.6, -3.609e-08
6650.6, -3.793e-08
6652.6, -3.781e-08
6654.6, -3.567e-08
6656.6, -3.466e-08
6658.7, -3.454e-08
6660.7, -3.578e-08
6662.7, -3.536e-08
6664.7, -3.354e-08
6666.7, -3.37e-08
6668.7, -3.288e-08
6670.7, -3.345e-08
6672.7, -3.453e-08
6674.7, -3.77e-08
6676.7, -3.841e-08
6678.7, -3.459e-08
6680.7, -3.672e-08
6682.7, -3.628e-08
6684.7, -3.676e-08
6686.7, -3.458e-08
6688.7, -3.721e-08
6690.7, -3.681e-08
6692.7, -3.705e-08
6694.7, -3.694e-08
6696.7, -3.812e-08
6698.7, -4.187e-08
6700.7, -3.826e-08
6702.7, -4.072e-08
6704.7, -3.917e-08
6706.7, -4.088e-08
6708.7, -3.387e-08
6710.7, -3.797e-08
6712.7, -3.499e-08
6714.7, -3.555e-08
6716.7, -3.848e-08
6718.7, -3.503e-08
6720.7, -3.239e-08
6722.7, -3.188e-08
6724.7, -3.226e-08
6726.7, -3.467e-08
6728.7, -3.492e-08
6730.7, -3.259e-08
6732.7, -3.599e-08
6734.7, -3.848e-08
6736.7, -3.499e-08
6738.7, -3.68e-08
6740.7, -3.671e-08
6742.7, -3.44e-08
6744.7, -3.762e-08
6746.7, -3.691e-08
6748.7, -3.472e-08
6750.7, -3.798e-08
6752.7, -3.754e-08
6754.7, -4.086e-08
6756.7, -3.832e-08
6758.8, -3.699e-08
6760.8, -4.135e-08
6762.8, -4.236e-08
6764.8, -3.539e-08
6766.8, -3.468e-08
6768.8, -3.661e-08
6770.8, -3.709e-08
6772.8, -3.419e-08
6774.8, -3.6e-08
6776.8, -3.67e-08
6778.8, -3.801e-08
6780.8, -3.869e-08
6782.8, -3.797e-08
6784.8, -3.596e-08
6786.8, -3.724e-08
6788.8, -4.048e-08
6790.8, -3.624e-08
6792.8, -3.847e-08
6794.8, -3.782e-08
6796.8, -4.239e-08
6798.8, -3.877e-08
6800.8, -3.925e-08
6802.8, -3.498e-08
6804.8, -3.898e-08
6806.8, -3.944e-08
6808.8, -3.694e-08
6810.8, -4.124e-08
6812.8, -4.137e-08
6814.8, -3.603e-08
6816.8, -3.726e-08
6818.8, -3.357e-08
6820.8, -3.699e-08
6822.8, -3.487e-08
6824.8, -3.762e-08
6826.8, -4.074e-08
6828.8, -4.116e-08
6830.8, -3.82e-08
6832.8, -3.725e-08
6834.8, -3.797e-08
6836.8, -3.647e-08
6838.8, -3.668e-08
6840.8, -3.585e-08
6842.8, -3.501e-08
6844.8, -3.794e-08
6846.8, -3.879e-08
6848.8, -3.578e-08
6850.8, -3.693e-08
6852.8, -3.791e-08
6854.8, -3.818e-08
6856.8, -3.913e-08
6858.9, -3.65e-08
6860.9, -3.64e-08
6862.9, -3.992e-08
6864.9, -3.925e-08
6866.9, -3.63e-08
6868.9, -3.453e-08
6870.9, -3.698e-08
6872.9, -3.793e-08
6874.9, -4.059e-08
6876.9, -3.992e-08
6878.9, -3.791e-08
6880.9, -3.757e-08
6882.9, -3.587e-08
6884.9, -4.218e-08
6886.9, -3.965e-08
6888.9, -3.68e-08
6890.9, -3.766e-08
6892.9, -3.724e-08
6894.9, -4.092e-08
6896.9, -4.009e-08
6898.9, -3.99e-08
6900.9, -3.782e-08
6902.9, -3.93e-08
6904.9, -4.023e-08
6906.9, -3.988e-08
6908.9, -3.928e-08
6910.9, -3.765e-08
6912.9, -3.716e-08
6914.9, -3.491e-08
6916.9, -3.565e-08
6918.9, -3.602e-08
6920.9, -3.723e-08
6922.9, -3.792e-08
6924.9, -3.787e-08
6926.9, -3.764e-08
6928.9, -3.729e-08
6930.9, -3.708e-08
6932.9, -3.605e-08
6934.9, -4.102e-08
6936.9, -3.597e-08
6938.9, -3.528e-08
6940.9, -3.817e-08
6942.9, -3.962e-08
6944.9, -3.528e-08
6946.9, -3.726e-08
6948.9, -4.258e-08
6950.9, -4.026e-08
6952.9, -4.044e-08
6954.9, -3.89e-08
6956.9, -3.673e-08
6959.0, -3.696e-08
6961.0, -3.846e-08
6963.0, -3.578e-08
6965.0, -3.842e-08
6967.0, -3.514e-08
6969.0, -3.471e-08
6971.0, -3.637e-08
6973.0, -3.661e-08
6975.0, -3.89e-08
6977.0, -3.643e-08
6979.0, -3.768e-08
6981.0, -3.196e-08
6983.0, -3.566e-08
6985.0, -3.759e-08
6987.0, -3.834e-08
6989.0, -3.723e-08
6991.0, -3.748e-08
6993.0, -3.416e-08
6995.0, -3.823e-08
6997.0, -3.377e-08
6999.0, -3.594e-08
7001.0, -3.409e-08
7003.0, -3.659e-08
7005.0, -3.689e-08
7007.0, -3.803e-08
7009.0, -3.626e-08
7011.0, -3.8e-08
7013.0, -3.714e-08
7015.0, -3.903e-08
7017.0, -3.522e-08
7019.0, -3.625e-08
7021.0, -3.397e-08
7023.0, -3.27e-08
7025.0, -3.496e-08
7027.0, -3.03e-08
7029.0, -3.366e-08
7031.0, -3.326e-08
7033.0, -3.645e-08
7035.0, -3.919e-08
7037.0, -3.593e-08
7039.0, -3.988e-08
7041.0, -3.57e-08
7043.0, -3.275e-08
7045.0, -3.607e-08
7047.0, -3.603e-08
7049.0, -3.993e-08
7051.0, -3.592e-08
7053.0, -3.492e-08
7055.0, -3.441e-08
7057.0, -3.321e-08
7059.1, -3.733e-08
7061.1, -3.269e-08
7063.1, -3.633e-08
7065.1, -3.344e-08
7067.1, -3.403e-08
7069.1, -3.518e-08
7071.1, -3.529e-08
7073.1, -3.191e-08
7075.1, -3.46e-08
7077.1, -3.405e-08
7079.1, -3.423e-08
7081.1, -3.022e-08
7083.1, -3.04e-08
7085.1, -3.321e-08
7087.1, -3.666e-08
7089.1, -3.637e-08
7091.1, -3.333e-08
7093.1, -3.352e-08
7095.1, -3.53e-08
7097.1, -3.412e-08
7099.1, -3.421e-08
7101.1, -3.578e-08
7103.1, -3.467e-08
7105.1, -3.625e-08
7107.1, -3.654e-08
7109.1, -3.816e-08
7111.1, -3.501e-08
7113.1, -3.476e-08
7115.1, -3.529e-08
7117.1, -3.725e-08
7119.1, -3.803e-08
7121.1, -3.003e-08
7123.1, -3.14e-08
7125.1, -3.457e-08
7127.1, -3.132e-08
7129.1, -3.235e-08
7131.1, -3.659e-08
7133.1, -3.636e-08
7135.1, -3.559e-08
7137.1, -3.386e-08
7139.1, -3.425e-08
7141.1, -3.052e-08
7143.1, -3.586e-08
7145.1, -3.434e-08
7147.1, -3.246e-08
7149.1, -3.187e-08
7151.1, -3.56e-08
7153.1, -3.517e-08
7155.1, -3.768e-08
7157.1, -3.511e-08
7159.2, -3.837e-08
7161.2, -3.498e-08
7163.2, -3.525e-08
7165.2, -3.38e-08
7167.2, -3.516e-08
7169.2, -3.564e-08
7171.2, -3.517e-08
7173.2, -3.608e-08
7175.2, -3.433e-08
7177.2, -3.364e-08
7179.2, -3.14e-08
7181.2, -3.24e-08
7183.2, -3.559e-08
7185.2, -3.851e-08
7187.2, -3.894e-08
7189.2, -3.765e-08
7191.2, -3.916e-08
7193.2, -3.669e-08
7195.2, -3.956e-08
7197.2, -3.954e-08
7199.2, -3.947e-08
7201.2, -3.728e-08
7203.2, -3.52e-08
7205.2, -3.501e-08
7207.2, -3.726e-08
7209.2, -3.537e-08
7211.2, -3.861e-08
7213.2, -3.649e-08
7215.2, -4.203e-08
7217.2, -3.47e-08
7219.2, -3.956e-08
7221.2, -3.768e-08
7223.2, -3.99e-08
7225.2, -3.736e-08
7227.2, -3.862e-08
7229.2, -3.634e-08
7231.2, -4.158e-08
7233.2, -3.93e-08
7235.2, -4.003e-08
7237.2, -3.869e-08
7239.2, -4.214e-08
7241.2, -4.211e-08
7243.2, -3.881e-08
7245.2, -3.98e-08
7247.2, -3.588e-08
7249.2, -3.505e-08
7251.2, -3.557e-08
7253.2, -3.653e-08
7255.2, -3.965e-08
7257.2, -4.057e-08
7259.3, -3.843e-08
7261.3, -3.858e-08
7263.3, -3.991e-08
7265.3, -3.792e-08
7267.3, -3.782e-08
7269.3, -3.129e-08
7271.3, -3.561e-08
7273.3, -3.726e-08
7275.3, -3.452e-08
7277.3, -3.544e-08
7279.3, -3.696e-08
7281.3, -3.502e-08
7283.3, -3.501e-08
7285.3, -3.443e-08
7287.3, -3.699e-08
7289.3, -3.427e-08
7291.3, -3.895e-08
7293.3, -3.815e-08
7295.3, -3.354e-08
7297.3, -3.338e-08
7299.3, -3.423e-08
7301.3, -3.73e-08
7303.3, -3.697e-08
7305.3, -3.558e-08
7307.3, -3.701e-08
7309.3, -3.921e-08
7311.3, -3.312e-08
7313.3, -3.912e-08
7315.3, -4.087e-08
7317.3, -4.013e-08
7319.3, -3.822e-08
7321.3, -3.376e-08
7323.3, -3.498e-08
7325.3, -3.591e-08
7327.3, -4.076e-08
7329.3, -3.432e-08
7331.3, -3.674e-08
7333.3, -3.613e-08
7335.3, -3.572e-08
7337.3, -3.568e-08
7339.3, -3.19e-08
7341.3, -3.042e-08
7343.3, -3.144e-08
7345.3, -3.238e-08
7347.3, -3.421e-08
7349.3, -3.328e-08
7351.3, -3.351e-08
7353.3, -2.991e-08
7355.3, -3.443e-08
7357.3, -3.412e-08
7359.4, -2.906e-08
7361.4, -2.844e-08
7363.4, -3.62e-08
7365.4, -3.149e-08
7367.4, -3.467e-08
7369.4, -3.895e-08
7371.4, -3.566e-08
7373.4, -4.044e-08
7375.4, -3.678e-08
7377.4, -4.047e-08
7379.4, -3.528e-08
7381.4, -2.046e-08
7383.4, -1.97e-09
7385.4, 5.9e-10
7387.4, -6.77e-09
7389.4, -6.52e-09
7391.4, -2.554e-08
7393.4, -1.999e-08
7395.4, -1.541e-08
7397.4, -1.9e-09
7399.4, -2.397e-08
7401.4, -1.422e-08
7403.4, -4.18e-09
7405.4, -9.25e-09
7407.4, 1.96e-09
7409.4, -7.3e-10
7411.4, -2.97e-09
7413.4, -1.009e-08
7415.4, -1.301e-08
7417.4, -1.426e-08
7419.4, -1.988e-08
7421.4, -1.745e-08
7423.4, -1.945e-08
7425.4, 3.62e-09
7427.4, 1.026e-08
7429.4, -8.5e-09
7431.4, -6.46e-09
7433.4, 4.29e-09
7435.4, 6.79e-09
7437.4, 1.67e-09
7439.4, -1.924e-08
7441.4, 4.9e-10
7443.4, -5.69e-09
7445.4, 1.93e-09
7447.4, -1.378e-08
7449.4, -1.43e-09
7451.4, -6.7e-09
7453.4, -1.275e-08
7455.4, -1.131e-08
7457.4, -2.008e-08
7459.5, -1.979e-08
7461.5, -1e-08
7463.5, -1.855e-08
7465.5, 1.212e-08
7467.5, -1.094e-08
7469.5, -1.623e-08
7471.5, -1.174e-08
7473.5, -1.411e-08
7475.5, -3.3e-09
7477.5, 9.39e-09
7479.5, -3.99e-09
7481.5, -1.04e-09
7483.5, 6.28e-09
7485.5, -3.6e-10
7487.5, -1.62e-08
7489.5, 1.29e-09
7491.5, -1.35e-09
7493.5, -1.59e-08
7495.5, -4.78e-09
7497.5, -7.59e-09
7499.5, 1.207e-08
7501.5, -4.33e-09
7503.5, -5.75e-09
7505.5, 5.63e-09
7507.5, -1.27e-09
7509.5, -1.288e-08
7511.5, -1.137e-08
7513.5, -1.439e-08
7515.5, -4.31e-09
7517.5, 1.324e-08
7519.5, -1.878e-08
7521.5, -1.755e-08
7523.5, -9.43e-09
7525.5, -1.453e-08
7527.5, -1.074e-08
7529.5, 1.219e-08
7531.5, -2.8e-10
7533.5, 3.19e-09
7535.5, -1.85e-09
7537.5, 7.89e-09
7539.5, 8.62e-09
7541.5, 4.418e-08
7543.5, 2.57e-09
7545.5, 1.215e-08
7547.5, 6.25e-09
7549.5, -9.07e-09
7551.5, -2e-08
7553.5, 7.71e-09
7555.5, 8.4e-10
7557.5, -1.431e-08
7559.6, -1.459e-08
7561.6, 1.572e-08
7563.6, -4.5e-10
7565.6, -6.01e-09
7567.6, 7.3e-10
7569.6, -9.11e-09
7571.6, 1.95e-09
7573.6, -1.58e-09
7575.6, 4.37e-09
7577.6, 2.34e-08
7579.6, 3.48e-08
7581.6, -9.46e-09
7583.6, -1.513e-08
7585.6, 9.1e-10
7587.6, -3.2e-09
7589.6, -1.448e-08
7591.6, -8.65e-09
7593.6, 3.75e-09
7595.6, 6.7e-10
7597.6, -2.01e-09
7599.6, 6e-11
7601.6, -2.78e-09
7603.6, -8.67e-09
7605.6, -5.88e-09
7607.6, -8.84e-09
7609.6, 6.89e-09
7611.6, 1.46e-09
7613.6, 1.188e-08
7615.6, -7.76e-09
7617.6, 7.84e-09
7619.6, 2.59e-09
7621.6, -2.24e-09
7623.6, -1.023e-08
7625.6, -1.547e-08
7627.6, -1.064e-08
7629.6, -9.1e-10
7631.6, -5.08e-09
7633.6, -6.4e-09
7635.6, -5.45e-09
7637.6, -1.095e-08
7639.6, -5.77e-09
7641.6, -7.58e-09
7643.6, 2.495e-08
7645.6, 2.9e-09
7647.6, 4.71e-09
7649.6, 5.35e-09
7651.6, -7.54e-09
7653.6, -1.423e-08
7655.6, -7.17e-09
7657.6, -8.47e-09
7659.7, 5.3e-10
7661.7, -1.14e-08
7663.7, -1.987e-08
7665.7, 1.053e-08
7667.7, -1.42e-08
7669.7, -1.831e-08
7671.7, -1.234e-08
7673.7, -2.71e-09
7675.7, -1.513e-08
7677.7, -1.337e-08
7679.7, -1.393e-08
7681.7, 1.599e-08
7683.7, -1.124e-08
7685.7, 1.228e-08
7687.7, -5.1e-09
7689.7, -4.77e-09
7691.7, 5.89e-09
7693.7, 6.5e-10
7695.7, -9.21e-09
7697.7, 8.28e-09
7699.7, -1.374e-08
7701.7, 1.61e-09
7703.7, -1.25e-08
7705.7, -7.06e-09
7707.7, -5.67e-09
7709.7, 4.08e-09
7711.7, 6.7e-10
7713.7, 4.9e-10
7715.7, -8.75e-09
7717.7, 1.54e-09
7719.7, 7.99e-09
7721.7, -2.15e-09
7723.7, 6.2e-10
7725.7, 1.594e-08
7727.7, 5.54e-09
7729.7, -7.13e-09
7731.7, -1.7e-10
7733.7, -7.61e-09
7735.7, -9.05e-09
7737.7, 1.9e-10
7739.7, -1.047e-08
7741.7, 5.76e-09
7743.7, 1.418e-08
7745.7, 1.125e-08
7747.7, -1.5e-09
7749.7, 6.38e-09
7751.7, 3.841e-08
7753.7, 6.95e-09
7755.7, -1.003e-08
7757.7, 3.14e-09
7759.8, 7.5e-10
7761.8, 2.62e-09
7763.8, 1.775e-08
7765.8, 7.04e-09
7767.8, -1.266e-08
7769.8, 1.522e-08
7771.8, 8.07e-09
7773.8, 5.58e-09
7775.8, 8.68e-09
7777.8, 1.581e-08
7779.8, 1.228e-08
7781.8, 1.598e-08
7783.8, -8.26e-09
7785.8, 2.33e-09
7787.8, 1.647e-08
7789.8, 6.49e-09
7791.8, 6.6e-10
7793.8, -6.56e-09
7795.8, -1.145e-08
7797.8, -1.034e-08
7799.8, -3.94e-09
7801.8, -1.025e-08
7803.8, 1.15e-09
7805.8, 1.89e-09
7807.8, -1.039e-08
7809.8, 2.532e-08
7811.8, -8.57e-09
7813.8, 4.76e-09
7815.8, 2.91e-09
7817.8, 1.164e-08
7819.8, -3.85e-09
7821.8, -1.753e-08
7823.8, -1.05e-09
7825.8, 8.25e-09
7827.8, 7.51e-09
7829.8, 2.13e-09
7831.8, 3.233e-08
7833.8, 1.463e-08
7835.8, 1.289e-08
7837.8, -7.36e-09
7839.8, -8.85e-09
7841.8, -1.503e-08
7843.8, -8.51e-09
7845.8, 1.301e-08
7847.8, 2.2e-09
7849.8, -6.84e-09
7851.8, 7.06e-09
7853.8, 9.36e-09
7855.8, 1.838e-08
7857.8, -3.96e-09
7859.9, -1.495e-08
7861.9, -1.06e-09
7863.9, 1.389e-08
7865.9, 3.94e-09
7867.9, 1.02e-09
7869.9, -1.251e-08
7871.9, 3.67e-09
7873.9, 2.749e-08
7875.9, 3.37e-09
7877.9, 2.41e-08
7879.9, 8.77e-09
7881.9, -3.91e-09
7883.9, -1.139e-08
7885.9, 1.455e-08
7887.9, 1.5e-09
7889.9, 1.862e-08
7891.9, 5.27e-09
7893.9, -5.39e-09
7895.9, 1.13e-08
7897.9, 4.87e-09
7899.9, 6.57e-09
7901.9, -3.63e-09
7903.9, 1.015e-08
7905.9, 9.18e-09
7907.9, -4.8e-10
7909.9, -7.14e-09
7911.9, -1.772e-08
7913.9, 9.55e-09
7915.9, -1.053e-08
7917.9, -1.16e-09
7919.9, 8.87e-09
7921.9, 2.578e-08
7923.9, 1.449e-08
7925.9, 2.571e-08
7927.9, 5.7e-09
7929.9, 1.144e-08
7931.9, 2.886e-08
7933.9, 1.356e-08
7935.9, 1.569e-08
7937.9, 1.242e-08
7939.9, 1.94e-09
7941.9, 9.7e-10
7943.9, 7.32e-09
7945.9, 4.61e-09
7947.9, -5.99e-09
7949.9, 5.61e-09
7951.9, 1.346e-08
7953.9, -3.6e-10
7955.9, -1.005e-08
7957.9, -2.39e-09
7960.0, 7.27e-09
7962.0, -5.8e-09
7964.0, -6.41e-09
7966.0, 6.74e-09
7968.0, 1.3e-08
7970.0, -5.45e-09
7972.0, 8.07e-09
7974.0, 1.4e-10
7976.0, 1.486e-08
7978.0, 1.137e-08
7980.0, 9.44e-09
7982.0, 1.182e-08
7984.0, -5.34e-09
7986.0, 8.2e-09
7988.0, 4.97e-09
7990.0, -4.19e-09
7992.0, 2.728e-08
7994.0, 9.52e-09
7996.0, 3.599e-08
7998.0, 1.34e-08
8000.0, 1.94e-09
8002.0, 1.8e-09
8004.0, 2.547e-08
8006.0, 6.99e-09
8008.0, 7.58e-09
8010.0, -5.25e-09
8012.0, -8.8e-10
8014.0, 9.42e-09
8016.0, 8.25e-09
8018.0, -1.73e-09
8020.0, 4.5e-09
8022.0, 9.43e-09
8024.0, -9.6e-10
8026.0, 2.129e-08
8028.0, -4e-09
8030.0, 3.97e-09
8032.0, 1.246e-08
8034.0, 1.569e-08
8036.0, 3.94e-09
8038.0, 1.353e-08
8040.0, 6.73e-09
8042.0, 1.944e-08
8044.0, 1.88e-09
8046.0, 2.032e-08
8048.0, 1.782e-08
8050.0, 2.13e-09
8052.0, 9.12e-09
8054.0, -9e-10
8056.0, 2.59e-09
8058.0, -1.018e-08
8060.1, 1.082e-08
8062.1, -4.6e-10
8064.1, 5.5e-09
8066.1, 8.02e-09
8068.1, 5.43e-09
8070.1, -8.7e-10
8072.1, 1.873e-08
8074.1, 1.328e-08
8076.1, 3.98e-09
8078.1, 9.43e-09
8080.1, 3.14e-09
8082.1, 2.295e-08
8084.1, -9.9e-10
8086.1, 1.439e-08
8088.1, -5.28e-09
8090.1, 2.85e-09
8092.1, -8.7e-09
8094.1, 2.684e-08
8096.1, 8.7e-10
8098.1, -6.97e-09
8100.1, 5.96e-09
8102.1, 2.67e-09
8104.1, -4.36e-09
8106.1, 5.41e-09
8108.1, 3.34e-09
8110.1, 2.524e-08
8112.1, 3.171e-08
8114.1, 1.162e-08
8116.1, -5.09e-09
8118.1, 6.91e-09
8120.1, -9.59e-09
8122.1, 9.8e-09
8124.1, 3.1e-09
8126.1, 1.119e-08
8128.1, -7.07e-09
8130.1, -6.02e-09
8132.1, 6.14e-09
8134.1, 6.39e-09
8136.1, 1.772e-08
8138.1, 1.015e-08
8140.1, 6.79e-09
8142.1, 3.67e-09
8144.1, 1.13e-08
8146.1, 1.943e-08
8148.1, 8.71e-09
8150.1, -8.68e-09
8152.1, -6.76e-09
8154.1, 1e-10
8156.1, 1.357e-08
8158.1, 8.99e-09
8160.2, 4.29e-09
8162.2, 2.93e-09
8164.2, 1.523e-08
8166.2, 9.48e-09
8168.2, 6.63e-09
8170.2, 1.685e-08
8172.2, 2.569e-08
8174.2, 5.81e-09
8176.2, 9.86e-09
8178.2, 7.8e-10
8180.2, 2.8e-10
8182.2, -8.4e-10
8184.2, 3.082e-08
8186.2, 6.15e-09
8188.2, 2.169e-08
8190.2, 1.564e-08
8192.2, 1.124e-08
8194.2, 6.08e-09
8196.2, 2.58e-08
8198.2, 1.583e-08
8200.2, 1.801e-08
8202.2, 1.654e-08
8204.2, -2.18e-09
8206.2, -1.51e-09
8208.2, 8.44e-09
8210.2, 6.37e-08
8212.2, 2.092e-08
8214.2, -1.14e-09
8216.2, 1.898e-08
8218.2, -3e-11
8220.2, 1.17e-08
8222.2, 1.279e-08
8224.2, -4.13e-09
8226.2, 3.93e-09
8228.2, 1.775e-08
8230.2, 1.516e-08
8232.2, 2.655e-08
8234.2, 7.13e-09
8236.2, 8.68e-09
8238.2, 6.73e-09
8240.2, 9.01e-09
8242.2, -2.78e-09
8244.2, 5.81e-09
8246.2, 5.11e-09
8248.2, 1.659e-08
8250.2, 7.16e-09
8252.2, -4.36e-09
8254.2, 1.742e-08
8256.2, 3.04e-08
8258.2, 6.44e-09
8260.3, -2.15e-09
8262.3, 1.429e-08
8264.3, 8.67e-09
8266.3, -9.04e-09
8268.3, -2.84e-09
8270.3, 1.157e-08
8272.3, 2.075e-08
8274.3, 6.83e-09
8276.3, -2.59e-09
8278.3, 2.499e-08
8280.3, 8.98e-09
8282.3, 1.906e-08
8284.3, 1.291e-08
8286.3, 1.549e-08
8288.3, 5.31e-09
8290.3, -5.69e-09
8292.3, 3.709e-08
8294.3, -1.96e-09
8296.3, -1.88e-09
8298.3, -2.34e-09
8300.3, 2.5e-10
8302.3, 2.125e-08
8304.3, 3.794e-08
8306.3, 1.003e-08
8308.3, 3.41e-09
8310.3, 1.304e-08
8312.3, -1.13e-09
8314.3, 2.151e-08
8316.3, 1.016e-08
8318.3, -7.08e-09
8320.3, 1.555e-08
8322.3, 3.36e-09
8324.3, 1.029e-08
8326.3, 1.1e-10
8328.3, 8.75e-09
8330.3, -3.2e-10
8332.3, -1.79e-09
8334.3, -7.83e-09
8336.3, 1.091e-08
8338.3, 5.67e-09
8340.3, 1.108e-08
8342.3, 6.27e-09
8344.3, 2.671e-08
8346.3, 6e-10
8348.3, 6e-11
8350.3, -4.72e-09
8352.3, 8.98e-09
8354.3, -2.81e-09
8356.3, -3.64e-09
8358.3, 2.512e-08
8360.4, 1.977e-08
8362.4, 1.845e-08
8364.4, 1.917e-08
8366.4, 1.144e-08
8368.4, 4.747e-08
8370.4, 7.12e-09
8372.4, 4.6e-09
8374.4, 6.94e-09
8376.4, 8.89e-09
8378.4, 1.61e-09
8380.4, 1.931e-08
8382.4, -2.83e-08
8384.4, -3.26e-08
8386.4, -2.873e-08
8388.4, -3.185e-08
8390.4, -3.23e-08
8392.4, -2.986e-08
8394.4, -3.322e-08
8396.4, -3.056e-08
8398.4, -3.302e-08
8400.4, -3.283e-08
8402.4, -3.47e-08
8404.4, -3.457e-08
8406.4, -3.439e-08
8408.4, -3.307e-08
8410.4, -3.712e-08
8412.4, -3.398e-08
8414.4, -3.332e-08
8416.4, -3.167e-08
8418.4, -3.464e-08
8420.4, -3.374e-08
8422.4, -3.349e-08
8424.4, -3.013e-08
8426.4, -3.258e-08
8428.4, -3.593e-08
8430.4, -3.343e-08
8432.4, -3.569e-08
8434.4, -3.408e-08
8436.4, -2.959e-08
8438.4, -2.987e-08
8440.4, -3.015e-08
8442.4, -2.834e-08
8444.4, -3.695e-08
8446.4, -3.528e-08
8448.4, -3.523e-08
8450.4, -3.639e-08
8452.4, -3.08e-08
8454.4, -2.993e-08
8456.4, -3.617e-08
8458.4, -3.805e-08
8460.5, -3.311e-08
8462.5, -3.268e-08
8464.5, -3.392e-08
8466.5, -3.176e-08
8468.5, -3.267e-08
8470.5, -3.21e-08
8472.5, -3.482e-08
8474.5, -3.615e-08
8476.5, -3.884e-08
8478.5, -3.638e-08
8480.5, -3.957e-08
8482.5, -3.818e-08
8484.5, -3.534e-08
8486.5, -3.496e-08
8488.5, -3.725e-08
8490.5, -3.712e-08
8492.5, -3.762e-08
8494.5, -3.608e-08
8496.5, -3.729e-08
8498.5, -3.306e-08
8500.5, -3.444e-08
8502.5, -3.31e-08
8504.5, -2.912e-08
8506.5, -3.089e-08
8508.5, -3.125e-08
8510.5, -3.15e-08
8512.5, -3.17e-08
8514.5, -2.891e-08
8516.5, -3.163e-08
8518.5, -3.08e-08
8520.5, -2.95e-08
8522.5, -3.195e-08
8524.5, -2.955e-08
8526.5, -3.051e-08
8528.5, -3.136e-08
8530.5, -3.146e-08
8532.5, -2.985e-08
8534.5, -3.074e-08
8536.5, -3.206e-08
8538.5, -3.301e-08
8540.5, -3.688e-08
8542.5, -3.228e-08
8544.5, -2.886e-08
8546.5, -3.347e-08
8548.5, -3.314e-08
8550.5, -3.553e-08
8552.5, -3.406e-08
8554.5, -3.435e-08
8556.5, -3.281e-08
8558.5, -3.213e-08
8560.6, -3.136e-08
8562.6, -3.491e-08
8564.6, -3.129e-08
8566.6, -2.818e-08
8568.6, -3.337e-08
8570.6, -2.97e-08
8572.6, -3.073e-08
8574.6, -3.102e-08
8576.6, -3.082e-08
8578.6, -3.253e-08
8580.6, -2.995e-08
8582.6, -3.046e-08
8584.6, -3.073e-08
8586.6, -3.054e-08
8588.6, -2.767e-08
8590.6, -3.104e-08
8592.6, -2.463e-08
8594.6, -2.893e-08
8596.6, -2.492e-08
8598.6, -3.115e-08
8600.6, -3.026e-08
8602.6, -3.603e-08
8604.6, -3.487e-08
8606.6, -3.427e-08
8608.6, -3.102e-08
8610.6, -3.142e-08
8612.6, -3.172e-08
8614.6, -3.363e-08
8616.6, -3.443e-08
8618.6, -3.33e-08
8620.6, -3.274e-08
8622.6, -3.104e-08
8624.6, -3.685e-08
8626.6, -3.516e-08
8628.6, -3.559e-08
8630.6, -2.936e-08
8632.6, -3.14e-08
8634.6, -2.838e-08
8636.6, -2.809e-08
8638.6, -2.753e-08
8640.6, -3.013e-08
8642.6, -2.783e-08
8644.6, -2.999e-08
8646.6, -2.707e-08
8648.6, -2.935e-08
8650.6, -3.126e-08
8652.6, -3.127e-08
8654.6, -2.741e-08
8656.6, -3.229e-08
8658.6, -3.075e-08
8660.7, -3.294e-08
8662.7, -2.964e-08
8664.7, -3.204e-08
8666.7, -3.184e-08
8668.7, -2.912e-08
8670.7, -3.045e-08
8672.7, -3.427e-08
8674.7, -2.983e-08
8676.7, -3.084e-08
8678.7, -3.535e-08
8680.7, -3.285e-08
8682.7, -3.468e-08
8684.7, -3.247e-08
8686.7, -3.224e-08
8688.7, -3.379e-08
8690.7, -3.213e-08
8692.7, -3.309e-08
8694.7, -2.917e-08
8696.7, -2.768e-08
8698.7, -2.62e-08
8700.7, -2.987e-08
8702.7, -2.809e-08
8704.7, -3.059e-08
8706.7, -2.78e-08
8708.7, -2.815e-08
8710.7, -3.006e-08
8712.7, -3.204e-08
8714.7, -2.51e-08
8716.7, -2.606e-08
8718.7, -3.061e-08
8720.7, -3.012e-08
8722.7, -3.04e-08
8724.7, -2.721e-08
8726.7, -2.739e-08
8728.7, -3.316e-08
8730.7, -3.153e-08
8732.7, -3.146e-08
8734.7, -3.001e-08
8736.7, -2.911e-08
8738.7, -3.427e-08
8740.7, -2.852e-08
8742.7, -3.083e-08
8744.7, -3.121e-08
8746.7, -3.13e-08
8748.7, -3.149e-08
8750.7, -3.165e-08
8752.7, -3.169e-08
8754.7, -3.475e-08
8756.7, -3.318e-08
8758.7, -3.663e-08
8760.8, -3.549e-08
8762.8, -3.428e-08
8764.8, -3.235e-08
8766.8, -3.602e-08
8768.8, -3.505e-08
8770.8, -3.581e-08
8772.8, -3.476e-08
8774.8, -3.418e-08
8776.8, -3.234e-08
8778.8, -3.223e-08
8780.8, -3.308e-08
8782.8, -3.461e-08
8784.8, -3.222e-08
8786.8, -3.311e-08
8788.8, -3.491e-08
8790.8, -3.134e-08
8792.8, -3.167e-08
8794.8, -3.559e-08
8796.8, -3.568e-08
8798.8, -3.346e-08
8800.8, -3.689e-08
8802.8, -3.422e-08
8804.8, -3.606e-08
8806.8, -3.233e-08
8808.8, -3.673e-08
8810.8, -3.83e-08
8812.8, -3.638e-08
8814.8, -3.553e-08
8816.8, -3.648e-08
8818.8, -3.616e-08
8820.8, -3.287e-08
8822.8, -3.319e-08
8824.8, -3.08e-08
8826.8, -3.077e-08
8828.8, -3.14e-08
8830.8, -3.308e-08
8832.8, -2.698e-08
8834.8, -2.645e-08
8836.8, -2.894e-08
8838.8, -3.051e-08
8840.8, -2.815e-08
8842.8, -2.8e-08
8844.8, -3.315e-08
8846.8, -3.042e-08
8848.8, -3.096e-08
8850.8, -2.682e-08
8852.8, -2.85e-08
8854.8, -3.1e-08
8856.8, -3.431e-08
8858.8, -3.086e-08
8860.9, -3.148e-08
8862.9, -2.993e-08
8864.9, -2.997e-08
8866.9, -2.702e-08
8868.9, -3.272e-08
8870.9, -3.417e-08
8872.9, -3.158e-08
8874.9, -3.244e-08
8876.9, -3.275e-08
8878.9, -3.23e-08
8880.9, -3.613e-08
8882.9, -2.753e-08
8884.9, -3.325e-08
8886.9, -3.715e-08
8888.9, -3.137e-08
8890.9, -3.327e-08
8892.9, -3.235e-08
8894.9, -3.518e-08
8896.9, -3.558e-08
8898.9, -3.296e-08
8900.9, -3.593e-08
8902.9, -3.284e-08
8904.9, -3.297e-08
8906.9, -3.264e-08
8908.9, -3.126e-08
8910.9, -3.039e-08
8912.9, -3.136e-08
8914.9, -3.248e-08
8916.9, -3.018e-08
8918.9, -3.44e-08
8920.9, -3.169e-08
8922.9, -2.919e-08
8924.9, -2.777e-08
8926.9, -2.796e-08
8928.9, -2.986e-08
8930.9, -2.935e-08
8932.9, -3.267e-08
8934.9, -3.092e-08
8936.9, -2.851e-08
8938.9, -2.979e-08
8940.9, -3.541e-08
8942.9, -3.379e-08
8944.9, -2.854e-08
8946.9, -3.058e-08
8948.9, -2.936e-08
8950.9, -3.084e-08
8952.9, -2.763e-08
8954.9, -3.266e-08
8956.9, -3.332e-08
8958.9, -3.057e-08
8961.0, -2.799e-08
8963.0, -3.587e-08
8965.0, -3.09e-08
8967.0, -2.8e-08
8969.0, -3.158e-08
8971.0, -3.155e-08
8973.0, -2.796e-08
8975.0, -3.201e-08
8977.0, -3.492e-08
8979.0, -3.169e-08
8981.0, -3.364e-08
8983.0, -3.222e-08
8985.0, -2.952e-08
8987.0, -3.215e-08
8989.0, -3.133e-08
8991.0, -3.075e-08
8993.0, -3.235e-08
8995.0, -3.14e-08
8997.0, -3.494e-08
8999.0, -3.326e-08
9001.0, -3.545e-08
9003.0, -3.111e-08
9005.0, -3.071e-08
9007.0, -3.618e-08
9009.0, -3.811e-08
9011.0, -3.797e-08
9013.0, -3.371e-08
9015.0, -3.268e-08
9017.0, -3.19e-08
9019.0, -3.608e-08
9021.0, -3.163e-08
9023.0, -3.239e-08
9025.0, -2.997e-08
9027.0, -3.115e-08
9029.0, -3.184e-08
9031.0, -2.994e-08
9033.0, -2.623e-08
9035.0, -3.048e-08
9037.0, -3.291e-08
9039.0, -3.019e-08
9041.0, -3.381e-08
9043.0, -2.896e-08
9045.0, -3.229e-08
9047.0, -3.209e-08
9049.0, -3.281e-08
9051.0, -3.062e-08
9053.0, -2.842e-08
9055.0, -3.316e-08
9057.0, -3.299e-08
9059.0, -3.07e-08
9061.1, -3.062e-08
9063.1, -3.271e-08
9065.1, -3.011e-08
9067.1, -3.087e-08
9069.1, -2.726e-08
9071.1, -3.042e-08
9073.1, -3.179e-08
9075.1, -2.8e-08
9077.1, -2.961e-08
9079.1, -3.263e-08
9081.1, -3.433e-08
9083.1, -3.592e-08
9085.1, -3.326e-08
9087.1, -3.203e-08
9089.1, -3.054e-08
9091.1, -3.195e-08
9093.1, -2.659e-08
9095.1, -2.875e-08
9097.1, -2.835e-08
9099.1, -3.417e-08
9101.1, -2.985e-08
9103.1, -3.041e-08
9105.1, -2.92e-08
9107.1, -3.5e-08
9109.1, -3.217e-08
9111.1, -3.44e-08
9113.1, -3.588e-08
9115.1, -3.339e-08
9117.1, -3.448e-08
9119.1, -3.478e-08
9121.1, -3.411e-08
9123.1, -3.372e-08
9125.1, -3.255e-08
9127.1, -3.478e-08
9129.1, -3.795e-08
9131.1, -3.41e-08
9133.1, -3.161e-08
9135.1, -3.386e-08
9137.1, -3.165e-08
9139.1, -3.621e-08
9141.1, -3.512e-08
9143.1, -3.475e-08
9145.1, -3.51e-08
9147.1, -3.353e-08
9149.1, -3.725e-08
9151.1, -3.228e-08
9153.1, -3.073e-08
9155.1, -3.413e-08
9157.1, -3.618e-08
9159.1, -3.311e-08
9161.2, -3.314e-08
9163.2, -3.799e-08
9165.2, -3.615e-08
9167.2, -3.359e-08
9169.2, -3.642e-08
9171.2, -3.466e-08
9173.2, -3.431e-08
9175.2, -3.721e-08
9177.2, -3.392e-08
9179.2, -3.517e-08
9181.2, -3.703e-08
9183.2, -3.425e-08
9185.2, -3.144e-08
9187.2, -3.364e-08
9189.2, -3.3e-08
9191.2, -3.163e-08
9193.2, -3.681e-08
9195.2, -3.254e-08
9197.2, -3.101e-08
9199.2, -3.296e-08
9201.2, -3.336e-08
9203.2, -3.141e-08
9205.2, -3.201e-08
9207.2, -3e-08
9209.2, -3.037e-08
9211.2, -3.038e-08
9213.2, -2.734e-08
9215.2, -2.982e-08
9217.2, -3.006e-08
9219.2, -2.923e-08
9221.2, -2.783e-08
9223.2, -3.095e-08
9225.2, -3.115e-08
9227.2, -3.489e-08
9229.2, -3.318e-08
9231.2, -3.149e-08
9233.2, -3.357e-08
9235.2, -3.319e-08
9237.2, -3.608e-08
9239.2, -3.733e-08
9241.2, -3.383e-08
9243.2, -3.424e-08
9245.2, -3.338e-08
9247.2, -3.3e-08
9249.2, -3.154e-08
9251.2, -3.344e-08
9253.2, -3.039e-08
9255.2, -3.328e-08
9257.2, -3.481e-08
9259.2, -3.54e-08
9261.3, -3.563e-08
9263.3, -3.315e-08
9265.3, -3.057e-08
9267.3, -3.292e-08
9269.3, -3.257e-08
9271.3, -3.487e-08
9273.3, -3.439e-08
9275.3, -3.297e-08
9277.3, -3.199e-08
9279.3, -3.136e-08
9281.3, -3.22e-08
9283.3, -3.21e-08
9285.3, -3.627e-08
9287.3, -2.969e-08
9289.3, -3.148e-08
9291.3, -3.332e-08
9293.3, -3.417e-08
9295.3, -3.063e-08
9297.3, -3.682e-08
9299.3, -3.439e-08
9301.3, -3.463e-08
9303.3, -2.988e-08
9305.3, -3.443e-08
9307.3, -3.148e-08
9309.3, -2.834e-08
9311.3, -2.893e-08
9313.3, -3.183e-08
9315.3, -3.2e-08
9317.3, -3.104e-08
9319.3, -3.687e-08
9321.3, -3.424e-08
9323.3, -3.375e-08
9325.3, -2.959e-08
9327.3, -3.148e-08
9329.3, -3.078e-08
9331.3, -3.016e-08
9333.3, -3.024e-08
9335.3, -3.459e-08
9337.3, -3.383e-08
9339.3, -2.975e-08
9341.3, -3.363e-08
9343.3, -3.312e-08
9345.3, -3.174e-08
9347.3, -3.215e-08
9349.3, -3.188e-08
9351.3, -3.306e-08
9353.3, -3.026e-08
9355.3, -2.864e-08
9357.3, -2.665e-08
9359.3, -3.396e-08
9361.4, -3.196e-08
9363.4, -3.281e-08
9365.4, -3.637e-08
9367.4, -3.206e-08
9369.4, -3.498e-08
9371.4, -2.877e-08
9373.4, -3.063e-08
9375.4, -3.014e-08
9377.4, -3.223e-08
9379.4, -3.451e-08
9381.4, -3.482e-08
9383.4, -3.583e-08
9385.4, -3.241e-08
9387.4, -3.398e-08
9389.4, -3.261e-08
9391.4, -3.232e-08
9393.4, -3.104e-08
9395.4, -3.375e-08
9397.4, -3.378e-08
9399.4, -3.426e-08
9401.4, -3.688e-08
9403.4, -2.93e-08
9405.4, -3.005e-08
9407.4, -3.159e-08
9409.4, -3.569e-08
9411.4, -3.082e-08
9413.4, -3.28e-08
9415.4, -3.467e-08
9417.4, -3.439e-08
9419.4, -3.403e-08
9421.4, -3.226e-08
9423.4, -3.591e-08
9425.4, -3.45e-08
9427.4, -2.619e-08
9429.4, -2.899e-08
9431.4, -3.194e-08
9433.4, -3.652e-08
9435.4, -3.487e-08
9437.4, -3.378e-08
9439.4, -3.711e-08
9441.4, -3.724e-08
9443.4, -3.742e-08
9445.4, -3.33e-08
9447.4, -3.461e-08
9449.4, -3.443e-08
9451.4, -3.268e-08
9453.4, -3.338e-08
9455.4, -3.337e-08
9457.4, -3.699e-08
9459.4, -3.561e-08
9461.5, -3.809e-08
9463.5, -3.234e-08
9465.5, -3.223e-08
9467.5, -3.99e-09
9469.5, -1.878e-08
9471.5, 1.153e-08
9473.5, -1.777e-08
9475.5, -1.457e-08
9477.5, -1.122e-08
9479.5, -1.493e-08
9481.5, -2.568e-08
9483.5, -1.107e-08
9485.5, -1.014e-08
9487.5, -2.108e-08
9489.5, -1.075e-08
9491.5, -1.023e-08
9493.5, -5e-10
9495.5, -1.441e-08
9497.5, 1.01e-08
9499.5, -1.533e-08
9501.5, -1.439e-08
9503.5, -1.875e-08
9505.5, -1.167e-08
9507.5, -2.374e-08
9509.5, -2.132e-08
9511.5, -1.484e-08
9513.5, 1.984e-08
9515.5, 8.93e-09
9517.5, -1.61e-09
9519.5, -3.14e-09
9521.5, -2.002e-08
9523.5, -1.413e-08
9525.5, 1.997e-08
9527.5, -7.74e-09
9529.5, -1.873e-08
9531.5, 1.28e-09
9533.5, -5.26e-09
9535.5, -4.2e-10
9537.5, 7.03e-09
9539.5, -1.748e-08
9541.5, -5.38e-09
9543.5, -1.842e-08
9545.5, 8.96e-09
9547.5, -9.17e-09
9549.5, -1.91e-09
9551.5, -4.33e-09
9553.5, -5.56e-09
9555.5, 9.3e-10
9557.5, -6.74e-09
9559.5, -1.667e-08
9561.6, -5.29e-09
9563.6, 6.08e-09
9565.6, -1.076e-08
9567.6, -1.1e-10
9569.6, -1.546e-08
9571.6, 1.523e-08
9573.6, 1.874e-08
9575.6, -1.97e-09
9577.6, -1.048e-08
9579.6, -2.026e-08
9581.6, 5.44e-09
9583.6, -1.479e-08
9585.6, -4.12e-09
9587.6, -6.81e-09
9589.6, -1.39e-08
9591.6, 9.55e-09
9593.6, 7.61e-09
9595.6, 8.51e-09
9597.6, -4.79e-09
9599.6, 1.511e-08
9601.6, -5.9e-10
9603.6, -7.63e-09
9605.6, 9.2e-10
9607.6, -5.83e-09
9609.6, -4.22e-09
9611.6, -2.175e-08
9613.6, -4.98e-09
9615.6, -1.428e-08
9617.6, -1.002e-08
9619.6, -5.67e-09
9621.6, -1.961e-08
9623.6, -2.42e-09
9625.6, -1.175e-08
9627.6, -1.82e-09
9629.6, 1.97e-09
9631.6, -1.715e-08
9633.6, -6.62e-09
9635.6, -2.073e-08
9637.6, -7.47e-09
9639.6, -1.481e-08
9641.6, 8.3e-10
9643.6, 3.95e-09
9645.6, 2.235e-08
9647.6, -1.314e-08
9649.6, -1.265e-08
9651.6, 4.23e-09
9653.6, 7.35e-09
9655.6, -9.74e-09
9657.6, -7.88e-09
9659.6, 1.267e-08
9661.7, 7e-10
9663.7, -9.84e-09
9665.7, -1.57e-09
9667.7, 1.056e-08
9669.7, -1.55e-09
9671.7, 9.44e-09
9673.7, 1.433e-08
9675.7, 9.74e-09
9677.7, 4.88e-09
9679.7, -3.3e-10
9681.7, 2.38e-09
9683.7, 5.8e-10
9685.7, 2.9e-10
9687.7, -1.209e-08
9689.7, 8.67e-09
9691.7, -1.02e-08
9693.7, -3.31e-09
9695.7, -8.06e-09
9697.7, 6.65e-09
9699.7, -9.44e-09
9701.7, 1.635e-08
9703.7, 2.1e-10
9705.7, -1.249e-08
9707.7, -6.21e-09
9709.7, 2.956e-08
9711.7, 1.01e-09
9713.7, -9.02e-09
9715.7, -1.263e-08
9717.7, -2.3e-10
9719.7, -9.17e-09
9721.7, -1.179e-08
9723.7, -6.48e-09
9725.7, -2.211e-08
9727.7, 1.36e-09
9729.7, 1.177e-08
9731.7, 1.4e-10
9733.7, 7.02e-09
9735.7, 4.07e-09
9737.7, 1.028e-08
9739.7, -1.383e-08
9741.7, -6.15e-09
9743.7, 3.84e-09
9745.7, 1.978e-08
9747.7, -2.34e-09
9749.7, 1.042e-08
9751.7, -1.265e-08
9753.7, 1.352e-08
9755.7, 1.114e-08
9757.7, 7.03e-09
9759.7, -1.556e-08
9761.8, 1.722e-08
9763.8, 1.018e-08
9765.8, -1.19e-09
9767.8, 9.51e-09
9769.8, 1.47e-08
9771.8, 1.659e-08
9773.8, -8.17e-09
9775.8, -4.5e-10
9777.8, -2.65e-09
9779.8, -3.77e-09
9781.8, -8.45e-09
9783.8, -1.902e-08
9785.8, 1.102e-08
9787.8, -1.17e-08
9789.8, 1.345e-08
9791.8, -4.9e-10
9793.8, -5.26e-09
9795.8, -3.78e-09
9797.8, 1.497e-08
9799.8, -2.97e-09
9801.8, -5.65e-09
9803.8, -1.308e-08
9805.8, -3.99e-09
9807.8, 8.72e-09
9809.8, 1.634e-08
9811.8, 5.42e-09
9813.8, -1.02e-09
9815.8, -3.74e-09
9817.8, 2.79e-09
9819.8, 1.415e-08
9821.8, 7.61e-09
9823.8, -1.009e-08
9825.8, -1.558e-08
9827.8, 2.923e-08
9829.8, 6.02e-09
9831.8, -7.78e-09
9833.8, 8.72e-09
9835.8, -1.053e-08
9837.8, 1.096e-08
9839.8, 4.23e-09
9841.8, 2.15e-08
9843.8, -6.02e-09
9845.8, 1.668e-08
9847.8, -1.043e-08
9849.8, 1.323e-08
9851.8, 9e-09
9853.8, 1.62e-08
9855.8, 2.01e-08
9857.8, 1.968e-08
9859.8, 1.114e-08
9861.9, -4.3e-10
9863.9, 1.769e-08
9865.9, -5.21e-09
9867.9, 5.37e-09
9869.9, -3.82e-09
9871.9, -6.69e-09
9873.9, 1.537e-08
9875.9, -4.5e-09
9877.9, 1.208e-08
9879.9, -2.5e-09
9881.9, -2.835e-08
9883.9, -3.21e-09
9885.9, 5.96e-09
9887.9, -6.5e-10
9889.9, 1.373e-08
9891.9, 6.82e-09
9893.9, -2.55e-09
9895.9, -1.26e-08
9897.9, -3.25e-09
9899.9, -1.894e-08
9901.9, 1.793e-08
9903.9, 1.25e-09
9905.9, -5.19e-09
9907.9, 2.597e-08
9909.9, 6.17e-09
9911.9, 1.652e-08
9913.9, -3.46e-09
9915.9, 2.732e-08
9917.9, 6.29e-09
9919.9, 1.369e-08
9921.9, 3.07e-09
9923.9, -5.2e-09
9925.9, 2.556e-08
9927.9, 2.037e-08
9929.9, -1.298e-08
9931.9, -7.11e-09
9933.9, 2.342e-08
9935.9, 8.65e-09
9937.9, 2.719e-08
9939.9, -3.61e-09
9941.9, 1.004e-08
9943.9, 1.01e-08
9945.9, 8.5e-10
9947.9, -8.3e-09
9949.9, -1.183e-08
9951.9, -5.63e-09
9953.9, 2.28e-09
9955.9, -1.111e-08
9957.9, 1.09e-08
9959.9, -1.631e-08
9962.0, 2.95e-09
9964.0, 2.55e-09
9966.0, 3.765e-08
9968.0, 2.5e-09
9970.0, 4.7e-09
9972.0, -4.52e-09
9974.0, 5.01e-09
9976.0, 9.27e-09
9978.0, 8.87e-09
9980.0, 6.13e-09
9982.0, 2.184e-08
9984.0, -1.53e-09
9986.0, 1.284e-08
9988.0, -5.97e-09
9990.0, -8.9e-09
9992.0, -8.87e-09
9994.0, 9.82e-09
9996.0, 2.766e-08
9998.0, -3.35e-09
10000.0, 2.66e-09
10002.0, 1.35e-09
10004.0, 4.34e-09
10006.0, 9.65e-09
10008.0, 9.95e-09
10010.0, 9.66e-09
10012.0, 1.073e-08
10014.0, -5.39e-09
10016.0, -1.283e-08
10018.0, 5.61e-09
10020.0, -1.026e-08
10022.0, 1.487e-08
10024.0, 1.781e-08
10026.0, 9.9e-10
10028.0, 3.156e-08
10030.0, 2.43e-09
10032.0, 7.95e-09
10034.0, 2.73e-08
10036.0, 2.95e-09
10038.0, 5.82e-09
10040.0, 4.059e-08
10042.0, -2.85e-09
10044.0, 2.55e-09
10046.0, 1.236e-08
10048.0, 2.912e-08
10050.0, -8.17e-09
10052.0, -3.27e-09
10054.0, -1.011e-08
10056.0, 3.96e-09
10058.0, 1.762e-08
10060.0, -2.86e-09
10062.0, 2.4e-08
10064.0, 2.457e-08
10066.0, 4e-09
10068.0, -1.26e-09
10070.0, 1.74e-09
10072.0, 1.518e-08
10074.0, 1.525e-08
10076.0, 1.813e-08
10078.0, 2.932e-08
10080.0, 1.24e-09
10082.0, 2.177e-08
10084.0, -1.916e-08
10086.0, 1.952e-08
10088.0, 1.167e-08
10090.0, 8.6e-10
10092.0, 2.94e-08
10094.0, 5.4e-10
10096.0, 1.047e-08
10098.0, 2.149e-08
10100.0, 8.88e-09
10102.0, 1.795e-08
10104.0, 1.62e-08
10106.0, 3.414e-08
10108.0, 1.226e-08
10110.0, 7.19e-09
10112.0, 5.03e-09
10114.0, 2.087e-08
10116.0, 2.442e-08
10118.0, 2.078e-08
10120.0, 1.014e-08
10122.0, -1.7e-10
10124.0, 2.125e-08
10126.0, 9.8e-10
10128.0, 2.05e-09
10130.0, 1.202e-08
10132.0, -5.42e-09
10134.0, 2.068e-08
10136.0, 7.2e-10
10138.0, -2.08e-09
10140.0, 1.692e-08
10142.0, 1.546e-08
10144.0, 2.637e-08
10146.0, -3.33e-09
10148.0, 1.541e-08
10150.0, 4.63e-09
10152.0, 1.3e-10
10154.0, 4.15e-09
10156.0, 1.498e-08
10158.0, -5.26e-09
10160.0, 1.095e-08
10162.0, -5.22e-09
10164.0, 2.695e-08
10166.0, 2.277e-08
10168.0, 2.99e-08
10170.0, 1.2e-08
10172.0, 3.6e-09
10174.0, 8.51e-09
10176.0, -1.42e-09
10178.0, 1.942e-08
10180.0, 6.37e-09
10182.0, 1.318e-08
10184.0, 1.574e-08
10186.0, 2.632e-08
10188.0, 1.079e-08
10190.0, 1.065e-08
10192.0, 2.682e-08
10194.0, -2.4e-09
10196.0, 1.525e-08
10198.0, -4e-11
10200.0, 1.759e-08
10202.0, 1.682e-08
10204.0, 1.537e-08
10206.0, 9.47e-09
10208.0, 1.935e-08
10210.0, -4.59e-09
10212.0, 8.85e-09
10214.0, 2.665e-08
10216.0, 4.77e-09
10218.0, 4.29e-09
10220.0, 2.647e-08
10222.0, 1.575e-08
10224.0, 2.146e-08
10226.0, 1.704e-08
10228.0, 4.08e-09
10230.0, -2.51e-09
10232.0, 1.609e-08
10234.0, -6.6e-10
10236.0, 1.613e-08
10238.0, 8.93e-09
10240.0, 1.528e-08
10242.0, 2.786e-08
10244.0, 8.47e-09
10246.0, 1.702e-08
10248.0, 1.455e-08
10250.0, 6.88e-09
10252.0, 2.209e-08
10254.0, 9.79e-09
10256.0, 1.302e-08
10258.0, 4.01e-09
10260.0, -1.49e-08
10262.0, 2.3e-09
10264.0, 1.33e-08
10266.0, 2.126e-08
10268.0, 1.304e-08
10270.0, -4.01e-09
10272.0, 8.67e-09
10274.0, 2.683e-08
10276.0, -5.65e-09
10278.0, 5.32e-09
10280.0, -1.714e-08
10282.0, -5.25e-09
10284.0, -3.02e-09
10286.0, 1.662e-08
10288.0, 1.026e-08
10290.0, 2.02e-09
10292.0, 2.984e-08
10294.0, -1.078e-08
10296.0, 3.661e-08
10298.0, 2.13e-08
10300.0, -6.69e-09
10302.0, 2.115e-08
10304.0, 1.4e-09
10306.0, 2.531e-08
10308.0, 3.397e-08
10310.0, 2.249e-08
10312.0, 1.731e-08
10314.0, 6.1e-09
10316.0, 3.833e-08
10318.0, 9.39e-09
10320.0, 8.82e-09
10322.0, 9.08e-09
10324.0, 2.54e-09
10326.0, 2.148e-08
10328.0, 8.88e-09
10330.0, 1.475e-08
10332.0, -3.7e-09
10334.0, 1.576e-08
10336.0, 2.527e-08
10338.0, 8e-11
10340.0, 1.38e-08
10342.0, -3.26e-09
10344.0, -2.33e-09
10346.0, 7.89e-09
10348.0, 1.621e-08
10350.0, 4.94e-09
10352.0, 2.622e-08
10354.0, 8.54e-09
10356.0, 7.78e-09
10358.0, 1.991e-08
10360.0, -2.71e-09
10362.0, 1.121e-08
10364.0, 1.17e-08
10366.0, 8.18e-09
10368.0, 1.079e-08
10370.0, 8.39e-09
10372.0, 5.86e-09
10374.0, -4.44e-09
10376.0, 3.3e-09
10378.0, 9.05e-09
10380.0, -3.3e-09
10382.0, -1.307e-08
10384.0, 9.05e-09
10386.0, 6.09e-09
10388.0, -1.69e-09
10390.0, 6.65e-09
10392.0, 3.01e-09
10394.0, 3.05e-09
10396.0, -8.18e-09
10398.0, 1.548e-08
10400.0, 1.113e-08
10402.0, 1.282e-08
10404.0, 6.72e-09
10406.0, 2.322e-08
10408.0, 1.018e-08
10410.0, 6.27e-09
10412.0, 6.85e-09
10414.0, 3.226e-08
10416.0, 1.097e-08
10418.0, 1.62e-09
10420.0, 3.77e-09
10422.0, 1.456e-08
10424.0, 6.12e-09
10426.0, -5.2e-10
10428.0, -7.2e-09
10430.0, 1.041e-08
10432.0, 1.43e-08
10434.0, 1.221e-08
10436.0, 1.924e-08
10438.0, -1.5e-10
10440.0, 1.275e-08
10442.0, 9.5e-09
10444.0, 9.85e-09
10446.0, 1.027e-08
10448.0, 1.965e-08
10450.0, 1.373e-08
10452.0, 1.493e-08
10454.0, -7.1e-09
10456.0, 1.528e-08
10458.0, -2.46e-09
10460.0, 5.75e-09
10462.0, 1.472e-08
10464.0, 3.13e-09
10466.0, 2.291e-08
10468.0, -1.65e-08
10470.0, -3.451e-08
10472.0, -3.198e-08
10474.0, -3.301e-08
10476.0, -3.168e-08
10478.0, -3.348e-08
10480.0, -3.073e-08
10482.0, -3.526e-08
10484.0, -3.218e-08
10486.0, -3.637e-08
10488.0, -3.547e-08
10490.0, -3.65e-08
10492.0, -3.617e-08
10494.0, -3.114e-08
10496.0, -3.44e-08
10498.0, -3.424e-08
10500.0, -3.578e-08
10502.0, -3.428e-08
10504.0, -3.185e-08
10506.0, -3.216e-08
10508.0, -3.2e-08
10510.0, -3.37e-08
10513.0, -3.458e-08
10515.0, -3.305e-08
10517.0, -3.386e-08
10519.0, -3.553e-08
10521.0, -3.348e-08
10523.0, -3.278e-08
10525.0, -3.329e-08
10527.0, -3.028e-08
10529.0, -3.16e-08
10531.0, -3.137e-08
10533.0, -3.474e-08
10535.0, -3.367e-08
10537.0, -3.031e-08
10539.0, -2.962e-08
10541.0, -3.233e-08
10543.0, -3.215e-08
10545.0, -3.184e-08
10547.0, -2.935e-08
10549.0, -3.481e-08
10551.0, -3.55e-08
10553.0, -3.344e-08
10555.0, -3.429e-08
10557.0, -3.144e-08
10559.0, -3.09e-08
10561.0, -3.499e-08
10563.0, -3.121e-08
10565.0, -2.666e-08
10567.0, -3.078e-08
10569.0, -3.092e-08
10571.0, -3.345e-08
10573.0, -3.212e-08
10575.0, -3.01e-08
10577.0, -2.979e-08
10579.0, -2.946e-08
10581.0, -2.868e-08
10583.0, -3.414e-08
10585.0, -3.383e-08
10587.0, -2.869e-08
10589.0, -3.156e-08
10591.0, -3.064e-08
10593.0, -3.131e-08
10595.0, -3.039e-08
10597.0, -3.255e-08
10599.0, -3.273e-08
10601.0, -3.238e-08
10603.0, -3.019e-08
10605.0, -3.262e-08
10607.0, -3.121e-08
10609.0, -2.963e-08
10611.0, -2.67e-08
10613.0, -2.937e-08
10615.0, -3.314e-08
10617.0, -3.173e-08
10619.0, -3.291e-08
10621.0, -3.409e-08
10623.0, -3.249e-08
10625.0, -3.267e-08
10627.0, -2.884e-08
10629.0, -3.303e-08
10631.0, -3.202e-08
10633.0, -3.46e-08
10635.0, -3.51e-08
10637.0, -3.266e-08
10639.0, -3.616e-08
10641.0, -3.514e-08
10643.0, -3.565e-08
10645.0, -3.616e-08
10647.0, -3.806e-08
10649.0, -3.651e-08
10651.0, -3.646e-08
10653.0, -3.613e-08
10655.0, -3.448e-08
10657.0, -3.434e-08
10659.0, -3.432e-08
10661.0, -3.825e-08
10663.0, -3.658e-08
10665.0, -3.75e-08
10667.0, -3.509e-08
10669.0, -3.837e-08
10671.0, -3.433e-08
10673.0, -3.741e-08
10675.0, -3.529e-08
10677.0, -3.48e-08
10679.0, -3.008e-08
10681.0, -3.265e-08
10683.0, -3.125e-08
10685.0, -3.095e-08
10687.0, -2.79e-08
10689.0, -3.128e-08
10691.0, -3.506e-08
10693.0, -3.162e-08
10695.0, -3.404e-08
10697.0, -3.431e-08
10699.0, -3.345e-08
10701.0, -3.354e-08
10703.0, -3.374e-08
10705.0, -3.355e-08
10707.0, -2.803e-08
10709.0, -3.39e-08
10711.0, -3.408e-08
10713.0, -3.636e-08
10715.0, -4.014e-08
10717.0, -3.563e-08
10719.0, -3.405e-08
10721.0, -3.133e-08
10723.0, -3.255e-08
10725.0, -3.49e-08
10727.0, -3.308e-08
10729.0, -3.174e-08
10731.0, -3.645e-08
10733.0, -3.706e-08
10735.0, -3.502e-08
10737.0, -3.208e-08
10739.0, -3.239e-08
10741.0, -3.599e-08
10743.0, -3.505e-08
10745.0, -3.393e-08
10747.0, -3.37e-08
10749.0, -3.208e-08
10751.0, -3.27e-08
10753.0, -3.393e-08
10755.0, -3.566e-08
10757.0, -3.454e-08
10759.0, -3.513e-08
10761.0, -3.683e-08
10763.0, -3.664e-08
10765.0, -3.277e-08
10767.0, -3.247e-08
10769.0, -2.899e-08
10771.0, -3.296e-08
10773.0, -3.086e-08
10775.0, -3.376e-08
10777.0, -2.946e-08
10779.0, -3.033e-08
10781.0, -2.866e-08
10783.0, -3.203e-08
10785.0, -3.277e-08
10787.0, -3.135e-08
10789.0, -2.878e-08
10791.0, -2.968e-08
10793.0, -3.463e-08
10795.0, -3.406e-08
10797.0, -3.115e-08
10799.0, -3.262e-08
10801.0, -3.325e-08
10803.0, -3.174e-08
10805.0, -3.227e-08
10807.0, -3.715e-08
10809.0, -3.454e-08
10811.0, -3.711e-08
10813.0, -3.781e-08
10815.0, -3.358e-08
10817.0, -3.435e-08
10819.0, -3.816e-08
10821.0, -3.681e-08
10823.0, -3.57e-08
10825.0, -3.721e-08
10827.0, -3.557e-08
10829.0, -3.433e-08
10831.0, -3.746e-08
10833.0, -3.247e-08
10835.0, -3.475e-08
10837.0, -2.954e-08
10839.0, -3.224e-08
10841.0, -3.141e-08
10843.0, -3.218e-08
10845.0, -3.226e-08
10847.0, -3.049e-08
10849.0, -3.312e-08
10851.0, -3.491e-08
10853.0, -3.399e-08
10855.0, -3.236e-08
10857.0, -3.282e-08
10859.0, -3.434e-08
10861.0, -3.42e-08
10863.0, -3.329e-08
10865.0, -3.33e-08
10867.0, -2.965e-08
10869.0, -3.445e-08
10871.0, -3.161e-08
10873.0, -3.035e-08
10875.0, -2.994e-08
10877.0, -2.957e-08
10879.0, -2.938e-08
10881.0, -3.163e-08
10883.0, -3.223e-08
10885.0, -3.203e-08
10887.0, -2.856e-08
10889.0, -3.02e-08
10891.0, -3.082e-08
10893.0, -3.124e-08
10895.0, -3.312e-08
10897.0, -2.837e-08
10899.0, -3.422e-08
10901.0, -3.157e-08
10903.0, -3.428e-08
10905.0, -3e-08
10907.0, -3.063e-08
10909.0, -3.493e-08
10911.0, -3.097e-08
10913.0, -3.32e-08
10915.0, -3.366e-08
10917.0, -3.253e-08
10919.0, -3.143e-08
10921.0, -2.97e-08
10923.0, -3.321e-08
10925.0, -3.202e-08
10927.0, -3.316e-08
10929.0, -3.468e-08
10931.0, -3.324e-08
10933.0, -3.205e-08
10935.0, -3.307e-08
10937.0, -3.229e-08
10939.0, -3.558e-08
10941.0, -3.567e-08
10943.0, -3.357e-08
10945.0, -3.16e-08
10947.0, -3.131e-08
10949.0, -3.23e-08
10951.0, -3.401e-08
10953.0, -3.206e-08
10955.0, -3.3e-08
10957.0, -3.363e-08
10959.0, -3.439e-08
10961.0, -3.562e-08
10963.0, -3.741e-08
10965.0, -3.696e-08
10967.0, -3.401e-08
10969.0, -3.515e-08
10971.0, -3.268e-08
10973.0, -3.38e-08
10975.0, -3.515e-08
10977.0, -3.465e-08
10979.0, -3.728e-08
10981.0, -3.357e-08
10983.0, -3.5e-08
10985.0, -3.57e-08
10987.0, -3.587e-08
10989.0, -3.394e-08
10991.0, -3.334e-08
10993.0, -3.401e-08
10995.0, -3.559e-08
10997.0, -3.387e-08
10999.0, -3.53e-08
11001.0, -3.832e-08
11003.0, -3.709e-08
11005.0, -3.574e-08
11007.0, -3.203e-08
11009.0, -3.435e-08
