Time sep (ms?), Current (A)
0.0, -4.248e-08
2.002, -3.965e-08
4.004, -4.021e-08
6.006, -4.218e-08
8.008, -4.256e-08
10.01, -3.858e-08
12.012, -3.888e-08
14.014, -4.3e-08
16.016, -4.16e-08
18.018, -4.094e-08
20.02, -3.95e-08
22.022, -4.138e-08
24.024, -4.105e-08
26.026, -3.838e-08
28.028, -4.114e-08
30.03, -4.194e-08
32.032, -4.158e-08
34.034, -4.178e-08
36.036, -4.385e-08
38.038, -3.636e-08
40.04, -3.56e-08
42.042, -4.108e-08
44.044, -4.087e-08
46.046, -3.815e-08
48.048, -4.117e-08
50.05, -3.849e-08
52.052, -4.009e-08
54.054, -4.081e-08
56.056, -4.006e-08
58.058, -4.008e-08
60.06, -3.722e-08
62.062, -3.829e-08
64.064, -4.114e-08
66.066, -4.185e-08
68.068, -3.845e-08
70.07, -3.843e-08
72.072, -4.021e-08
74.074, -4.165e-08
76.076, -4.091e-08
78.078, -3.816e-08
80.08, -4.259e-08
82.082, -4.099e-08
84.084, -4.096e-08
86.086, -4.101e-08
88.088, -3.811e-08
90.09, -3.74e-08
92.092, -4.294e-08
94.094, -3.913e-08
96.096, -3.583e-08
98.098, -3.76e-08
100.1, -3.665e-08
102.1, -3.941e-08
104.1, -3.991e-08
106.11, -3.593e-08
108.11, -4.058e-08
110.11, -3.708e-08
112.11, -4.29e-08
114.11, -3.822e-08
116.12, -3.724e-08
118.12, -3.99e-08
120.12, -3.806e-08
122.12, -3.949e-08
124.12, -4.082e-08
126.13, -4.096e-08
128.13, -4.079e-08
130.13, -3.649e-08
132.13, -3.659e-08
134.13, -4.168e-08
136.14, -3.66e-08
138.14, -3.715e-08
140.14, -3.706e-08
142.14, -3.805e-08
144.14, -3.854e-08
146.15, -3.877e-08
148.15, -3.761e-08
150.15, -3.663e-08
152.15, -3.955e-08
154.15, -3.846e-08
156.16, -3.507e-08
158.16, -3.238e-08
160.16, -3.828e-08
162.16, -3.827e-08
164.16, -3.621e-08
166.17, -3.556e-08
168.17, -3.483e-08
170.17, -3.669e-08
172.17, -3.547e-08
174.17, -3.501e-08
176.18, -3.308e-08
178.18, -3.179e-08
180.18, -3.029e-08
182.18, -3.503e-08
184.18, -3.643e-08
186.19, -3.683e-08
188.19, -3.393e-08
190.19, -3.522e-08
192.19, -3.798e-08
194.19, -3.704e-08
196.2, -3.453e-08
198.2, -3.927e-08
200.2, -3.839e-08
202.2, -3.862e-08
204.2, -3.878e-08
206.21, -4.04e-08
208.21, -3.579e-08
210.21, -3.442e-08
212.21, -3.52e-08
214.21, -3.545e-08
216.22, -3.474e-08
218.22, -3.338e-08
220.22, -3.32e-08
222.22, -3.473e-08
224.22, -3.219e-08
226.23, -3.2e-08
228.23, -3.746e-08
230.23, -3.67e-08
232.23, -3.697e-08
234.23, -3.431e-08
236.24, -3.582e-08
238.24, -3.396e-08
240.24, -3.489e-08
242.24, -3.66e-08
244.24, -3.963e-08
246.25, -3.782e-08
248.25, -3.756e-08
250.25, -3.97e-08
252.25, -3.936e-08
254.25, -3.891e-08
256.26, -3.44e-08
258.26, -3.236e-08
260.26, -3.485e-08
262.26, -3.508e-08
264.26, -3.448e-08
266.27, -3.977e-08
268.27, -3.732e-08
270.27, -3.648e-08
272.27, -3.446e-08
274.27, -3.981e-08
276.28, -3.718e-08
278.28, -3.586e-08
280.28, -3.716e-08
282.28, -3.353e-08
284.28, -3.733e-08
286.29, -3.595e-08
288.29, -3.804e-08
290.29, -3.712e-08
292.29, -3.786e-08
294.29, -3.868e-08
296.3, -3.852e-08
298.3, -3.676e-08
300.3, -3.746e-08
302.3, -3.634e-08
304.3, -4.189e-08
306.31, -4.31e-08
308.31, -3.996e-08
310.31, -4.187e-08
312.31, -4.15e-08
314.31, -3.85e-08
316.32, -3.963e-08
318.32, -4.025e-08
320.32, -3.989e-08
322.32, -4.024e-08
324.32, -3.839e-08
326.33, -4.288e-08
328.33, -3.937e-08
330.33, -3.772e-08
332.33, -3.981e-08
334.33, -3.696e-08
336.34, -3.812e-08
338.34, -3.791e-08
340.34, -4.031e-08
342.34, -4.201e-08
344.34, -3.834e-08
346.35, -3.684e-08
348.35, -3.75e-08
350.35, -3.915e-08
352.35, -4.01e-08
354.35, -3.971e-08
356.36, -4.141e-08
358.36, -3.637e-08
360.36, -4.118e-08
362.36, -4.204e-08
364.36, -4.427e-08
366.37, -4.152e-08
368.37, -3.536e-08
370.37, -3.786e-08
372.37, -4.06e-08
374.37, -3.752e-08
376.38, -3.822e-08
378.38, -4.115e-08
380.38, -3.959e-08
382.38, -3.919e-08
384.38, -4.099e-08
386.39, -3.852e-08
388.39, -3.98e-08
390.39, -3.563e-08
392.39, -3.985e-08
394.39, -3.947e-08
396.4, -4.089e-08
398.4, -3.941e-08
400.4, -3.879e-08
402.4, -3.868e-08
404.4, -3.941e-08
406.41, -4.006e-08
408.41, -4.341e-08
410.41, -3.825e-08
412.41, -3.665e-08
414.41, -3.794e-08
416.42, -3.836e-08
418.42, -4.214e-08
420.42, -4.116e-08
422.42, -4.25e-08
424.42, -3.721e-08
426.43, -3.976e-08
428.43, -3.957e-08
430.43, -4.221e-08
432.43, -4.367e-08
434.43, -4.18e-08
436.44, -4.165e-08
438.44, -4.241e-08
440.44, -3.957e-08
442.44, -4.336e-08
444.44, -4.607e-08
446.45, -4.202e-08
448.45, -4.357e-08
450.45, -4.369e-08
452.45, -4.659e-08
454.45, -4.481e-08
456.46, -4.715e-08
458.46, -4.064e-08
460.46, -4.314e-08
462.46, -4.091e-08
464.46, -4.226e-08
466.47, -3.787e-08
468.47, -3.948e-08
470.47, -4.182e-08
472.47, -3.983e-08
474.47, -4.138e-08
476.48, -3.733e-08
478.48, -4.38e-08
480.48, -4.129e-08
482.48, -4.453e-08
484.48, -4.046e-08
486.49, -4.246e-08
488.49, -4.294e-08
490.49, -4.113e-08
492.49, -4.087e-08
494.49, -4.172e-08
496.5, -4.164e-08
498.5, -4.16e-08
500.5, -4.116e-08
502.5, -4.078e-08
504.5, -4.37e-08
506.51, -3.858e-08
508.51, -4.064e-08
510.51, -3.988e-08
512.51, -4.182e-08
514.51, -3.801e-08
516.52, -3.573e-08
518.52, -3.907e-08
520.52, -3.817e-08
522.52, -3.65e-08
524.52, -3.941e-08
526.53, -3.91e-08
528.53, -4.113e-08
530.53, -3.741e-08
532.53, -3.903e-08
534.53, -3.733e-08
536.54, -3.7e-08
538.54, -3.53e-08
540.54, -3.424e-08
542.54, -3.757e-08
544.54, -3.877e-08
546.55, -3.869e-08
548.55, -4.148e-08
550.55, -3.752e-08
552.55, -3.888e-08
554.55, -3.949e-08
556.56, -3.626e-08
558.56, -3.57e-08
560.56, -3.891e-08
562.56, -3.907e-08
564.56, -3.615e-08
566.57, -3.818e-08
568.57, -4.048e-08
570.57, -3.975e-08
572.57, -4.456e-08
574.57, -4.205e-08
576.58, -4.356e-08
578.58, -4.202e-08
580.58, -4.118e-08
582.58, -4.156e-08
584.58, -3.923e-08
586.59, -4.255e-08
588.59, -4.22e-08
590.59, -4.151e-08
592.59, -4.253e-08
594.59, -3.814e-08
596.6, -3.87e-08
598.6, -4.029e-08
600.6, -3.898e-08
602.6, -3.633e-08
604.6, -3.984e-08
606.61, -3.921e-08
608.61, -4.008e-08
610.61, -3.875e-08
612.61, -3.641e-08
614.61, -3.962e-08
616.62, -4.052e-08
618.62, -4.276e-08
620.62, -4.168e-08
622.62, -4.471e-08
624.62, -4.179e-08
626.63, -3.88e-08
628.63, -3.894e-08
630.63, -4.016e-08
632.63, -4.285e-08
634.63, -3.889e-08
636.64, -4.042e-08
638.64, -3.887e-08
640.64, -3.802e-08
642.64, -3.777e-08
644.64, -4.271e-08
646.65, -4.328e-08
648.65, -4.046e-08
650.65, -3.58e-08
652.65, -3.993e-08
654.65, -3.713e-08
656.66, -3.895e-08
658.66, -4.067e-08
660.66, -4.011e-08
662.66, -4.275e-08
664.66, -4.096e-08
666.67, -4.293e-08
668.67, -4.154e-08
670.67, -4.181e-08
672.67, -4.511e-08
674.67, -4.645e-08
676.68, -4.289e-08
678.68, -4.087e-08
680.68, -3.78e-08
682.68, -3.942e-08
684.68, -3.856e-08
686.69, -4.135e-08
688.69, -4.062e-08
690.69, -3.868e-08
692.69, -4.216e-08
694.69, -4.18e-08
696.7, -4.457e-08
698.7, -4.173e-08
700.7, -3.896e-08
702.7, -4.235e-08
704.7, -4.333e-08
706.71, -3.823e-08
708.71, -4.188e-08
710.71, -3.903e-08
712.71, -3.932e-08
714.71, -4.045e-08
716.72, -4.137e-08
718.72, -4.036e-08
720.72, -3.73e-08
722.72, -4.035e-08
724.72, -3.949e-08
726.73, -4.069e-08
728.73, -3.907e-08
730.73, -4.167e-08
732.73, -3.869e-08
734.73, -3.879e-08
736.74, -3.66e-08
738.74, -3.634e-08
740.74, -4.036e-08
742.74, -4.13e-08
744.74, -3.915e-08
746.75, -3.647e-08
748.75, -3.9e-08
750.75, -3.569e-08
752.75, -3.9e-08
754.75, -3.761e-08
756.76, -3.622e-08
758.76, -3.954e-08
760.76, -3.839e-08
762.76, -3.791e-08
764.76, -4.271e-08
766.77, -3.854e-08
768.77, -3.611e-08
770.77, -3.473e-08
772.77, -3.704e-08
774.77, -3.961e-08
776.78, -3.595e-08
778.78, -3.887e-08
780.78, -3.732e-08
782.78, -3.98e-08
784.78, -3.769e-08
786.79, -3.786e-08
788.79, -3.9e-08
790.79, -3.547e-08
792.79, -3.586e-08
794.79, -3.991e-08
796.8, -3.949e-08
798.8, -3.803e-08
800.8, -3.879e-08
802.8, -3.754e-08
804.8, -3.986e-08
806.81, -4.106e-08
808.81, -3.788e-08
810.81, -4.017e-08
812.81, -3.873e-08
814.81, -3.892e-08
816.82, -4.078e-08
818.82, -3.972e-08
820.82, -3.772e-08
822.82, -3.963e-08
824.82, -3.636e-08
826.83, -3.412e-08
828.83, -3.58e-08
830.83, -3.813e-08
832.83, -3.579e-08
834.83, -3.836e-08
836.84, -3.851e-08
838.84, -3.809e-08
840.84, -3.671e-08
842.84, -3.767e-08
844.84, -3.744e-08
846.85, -4.028e-08
848.85, -3.648e-08
850.85, -3.655e-08
852.85, -3.458e-08
854.85, -3.577e-08
856.86, -3.645e-08
858.86, -3.914e-08
860.86, -4.232e-08
862.86, -4.308e-08
864.86, -4.116e-08
866.87, -3.931e-08
868.87, -4.412e-08
870.87, -4.477e-08
872.87, -4.09e-08
874.87, -4.305e-08
876.88, -4.348e-08
878.88, -4.138e-08
880.88, -4.166e-08
882.88, -3.986e-08
884.88, -4.428e-08
886.89, -4.052e-08
888.89, -4.116e-08
890.89, -3.96e-08
892.89, -4.283e-08
894.89, -4.054e-08
896.9, -4.063e-08
898.9, -4.244e-08
900.9, -3.952e-08
902.9, -4.454e-08
904.9, -4.057e-08
906.91, -3.712e-08
908.91, -3.705e-08
910.91, -3.744e-08
912.91, -3.571e-08
914.91, -3.401e-08
916.92, -3.64e-08
918.92, -3.905e-08
920.92, -3.91e-08
922.92, -3.711e-08
924.92, -3.759e-08
926.93, -3.868e-08
928.93, -3.589e-08
930.93, -3.856e-08
932.93, -4.383e-08
934.93, -4.111e-08
936.94, -4.434e-08
938.94, -4.039e-08
940.94, -4.146e-08
942.94, -4.34e-08
944.94, -4.254e-08
946.95, -3.931e-08
948.95, -4.127e-08
950.95, -4.134e-08
952.95, -4.193e-08
954.95, -3.839e-08
956.96, -4.066e-08
958.96, -3.914e-08
960.96, -3.739e-08
962.96, -3.773e-08
964.96, -3.951e-08
966.97, -3.916e-08
968.97, -3.735e-08
970.97, -3.672e-08
972.97, -3.569e-08
974.97, -3.699e-08
976.98, -3.494e-08
978.98, -3.594e-08
980.98, -4.061e-08
982.98, -3.799e-08
984.98, -3.927e-08
986.99, -3.378e-08
988.99, -3.739e-08
990.99, -3.435e-08
992.99, -3.674e-08
994.99, -3.911e-08
997.0, -3.617e-08
999.0, -3.583e-08
1001.0, -3.788e-08
1003.0, -3.725e-08
1005.0, -3.821e-08
1007.0, -4.002e-08
1009.0, -3.522e-08
1011.0, -4.038e-08
1013.0, -4.014e-08
1015.0, -3.932e-08
1017.0, -3.92e-08
1019.0, -4.056e-08
1021.0, -4.021e-08
1023.0, -3.768e-08
1025.0, -4.247e-08
1027.0, -3.435e-08
1029.0, -3.747e-08
1031.0, -3.438e-08
1033.0, -3.557e-08
1035.0, -3.648e-08
1037.0, -3.805e-08
1039.0, -3.829e-08
1041.0, -3.828e-08
1043.0, -3.838e-08
1045.0, -4.39e-08
1047.0, -4.193e-08
1049.0, -3.782e-08
1051.0, -4.086e-08
1053.1, -3.855e-08
1055.1, -3.83e-08
1057.1, -3.467e-08
1059.1, -3.444e-08
1061.1, -3.599e-08
1063.1, -3.492e-08
1065.1, -3.389e-08
1067.1, -3.481e-08
1069.1, -3.209e-08
1071.1, -3.327e-08
1073.1, -3.574e-08
1075.1, -3.493e-08
1077.1, -3.795e-08
1079.1, -3.916e-08
1081.1, -3.376e-08
1083.1, -3.56e-08
1085.1, -3.647e-08
1087.1, -3.715e-08
1089.1, -3.455e-08
1091.1, -3.496e-08
1093.1, -3.713e-08
1095.1, -3.46e-08
1097.1, -3.432e-08
1099.1, -3.634e-08
1101.1, -3.459e-08
1103.1, -3.694e-08
1105.1, -3.674e-08
1107.1, -3.717e-08
1109.1, -3.615e-08
1111.1, 1.0512e-06
1113.1, 1.947e-06
1115.1, 1.2263e-06
1117.1, 1.616e-06
1119.1, 1.7396e-06
1121.1, 1.5156e-06
1123.1, 1.8918e-06
1125.1, 1.9645e-06
1127.1, 1.5297e-06
1129.1, 2.0038e-06
1131.1, 1.8779e-06
1133.1, 1.5979e-06
1135.1, 1.6293e-06
1137.1, 1.6872e-06
1139.1, 1.5816e-06
1141.1, 1.775e-06
1143.1, 1.9459e-06
1145.1, 1.54e-06
1147.1, 1.9135e-06
1149.1, 1.4547e-06
1151.1, 1.5672e-06
1153.2, 1.5526e-06
1155.2, 1.7175e-06
1157.2, 1.7261e-06
1159.2, 1.778e-06
1161.2, 1.7313e-06
1163.2, 1.3421e-06
1165.2, 1.6725e-06
1167.2, 1.5197e-06
1169.2, 1.7748e-06
1171.2, 1.9189e-06
1173.2, 1.9342e-06
1175.2, 1.7602e-06
1177.2, 2.1204e-06
1179.2, 1.8287e-06
1181.2, 1.8723e-06
1183.2, 1.9241e-06
1185.2, 2.2109e-06
1187.2, 1.9309e-06
1189.2, 1.7869e-06
1191.2, 1.8197e-06
1193.2, 1.7691e-06
1195.2, 1.5208e-06
1197.2, 1.8008e-06
1199.2, 1.7777e-06
1201.2, 1.9403e-06
1203.2, 1.7152e-06
1205.2, 1.8024e-06
1207.2, 1.8524e-06
1209.2, 1.9905e-06
1211.2, 1.8527e-06
1213.2, 1.7127e-06
1215.2, 1.8529e-06
1217.2, 1.8304e-06
1219.2, 1.8989e-06
1221.2, 2.1046e-06
1223.2, 1.8563e-06
1225.2, 2.0026e-06
1227.2, 1.8697e-06
1229.2, 1.8702e-06
1231.2, 1.9638e-06
1233.2, 1.7816e-06
1235.2, 2.223e-06
1237.2, 2.0928e-06
1239.2, 1.7459e-06
1241.2, 1.5845e-06
1243.2, 1.8525e-06
1245.2, 2.0186e-06
1247.2, 1.6985e-06
1249.2, 1.7385e-06
1251.2, 1.8145e-06
1253.3, 1.8212e-06
1255.3, 1.4356e-06
1257.3, 1.7478e-06
1259.3, 2.1337e-06
1261.3, 1.7886e-06
1263.3, 1.8062e-06
1265.3, 2.1472e-06
1267.3, 1.5255e-06
1269.3, 2.0019e-06
1271.3, 1.7462e-06
1273.3, 1.797e-06
1275.3, 1.9528e-06
1277.3, 2.0652e-06
1279.3, 1.5579e-06
1281.3, 1.7196e-06
1283.3, 1.9069e-06
1285.3, 2.1847e-06
1287.3, 1.8984e-06
1289.3, 1.5775e-06
1291.3, 1.6397e-06
1293.3, 1.5796e-06
1295.3, 1.7827e-06
1297.3, 1.8655e-06
1299.3, 2.008e-06
1301.3, 1.964e-06
1303.3, 1.7155e-06
1305.3, 2.0155e-06
1307.3, 1.7166e-06
1309.3, 2.3801e-06
1311.3, 2.4234e-06
1313.3, 1.7477e-06
1315.3, 2.0237e-06
1317.3, 1.9937e-06
1319.3, 1.965e-06
1321.3, 1.9606e-06
1323.3, 1.9692e-06
1325.3, 2.0534e-06
1327.3, 1.9241e-06
1329.3, 1.9162e-06
1331.3, 2.2691e-06
1333.3, 2.1349e-06
1335.3, 1.6996e-06
1337.3, 2.0374e-06
1339.3, 2.1433e-06
1341.3, 1.954e-06
1343.3, 1.844e-06
1345.3, 2.0991e-06
1347.3, 2.1932e-06
1349.3, 1.8234e-06
1351.3, 1.8178e-06
1353.4, 2.2077e-06
1355.4, 1.8597e-06
1357.4, 2.2634e-06
1359.4, 2.01e-06
1361.4, 1.944e-06
1363.4, 2.3026e-06
1365.4, 2.132e-06
1367.4, 1.9492e-06
1369.4, 2.2196e-06
1371.4, 1.9415e-06
1373.4, 2.1233e-06
1375.4, 2.4081e-06
1377.4, 1.9782e-06
1379.4, 2.3408e-06
1381.4, 1.9231e-06
1383.4, 1.703e-06
1385.4, 2.0964e-06
1387.4, 1.9647e-06
1389.4, 2.1035e-06
1391.4, 1.4848e-06
1393.4, 2.1809e-06
1395.4, 1.7321e-06
1397.4, 1.9098e-06
1399.4, 2.0864e-06
1401.4, 2.5349e-06
1403.4, 2.15e-06
1405.4, 1.9248e-06
1407.4, 1.8874e-06
1409.4, 2.146e-06
1411.4, 2.1819e-06
1413.4, 1.886e-06
1415.4, 1.9752e-06
1417.4, 1.7613e-06
1419.4, 2.1732e-06
1421.4, 1.9332e-06
1423.4, 1.7717e-06
1425.4, 1.9148e-06
1427.4, 2.3692e-06
1429.4, 1.9579e-06
1431.4, 2.0604e-06
1433.4, 2.1935e-06
1435.4, 2.1409e-06
1437.4, 2.2574e-06
1439.4, 2.0148e-06
1441.4, 1.9508e-06
1443.4, 2.0612e-06
1445.4, 1.7967e-06
1447.4, 2.089e-06
1449.4, 2.1758e-06
1451.4, 2.0631e-06
1453.5, 1.8661e-06
1455.5, 2.2325e-06
1457.5, 2.1991e-06
1459.5, 2.1651e-06
1461.5, 2.1589e-06
1463.5, 2.3218e-06
1465.5, 1.8e-06
1467.5, 2.4706e-06
1469.5, 2.2139e-06
1471.5, 2.1682e-06
1473.5, 2.3046e-06
1475.5, 2.3924e-06
1477.5, 1.8921e-06
1479.5, 1.827e-06
1481.5, 1.5991e-06
1483.5, 1.7046e-06
1485.5, 2.3863e-06
1487.5, 2.0247e-06
1489.5, 2.1499e-06
1491.5, 2.2312e-06
1493.5, 2.1855e-06
1495.5, 2.085e-06
1497.5, 1.9499e-06
1499.5, 2.0886e-06
1501.5, 1.9944e-06
1503.5, 1.9002e-06
1505.5, 2.0995e-06
1507.5, 2.0091e-06
1509.5, 2.3749e-06
1511.5, 2.062e-06
1513.5, 2.1191e-06
1515.5, 2.1e-06
1517.5, 1.7626e-06
1519.5, 2.0644e-06
1521.5, 1.8443e-06
1523.5, 1.7991e-06
1525.5, 1.8943e-06
1527.5, 1.7345e-06
1529.5, 1.8454e-06
1531.5, 1.9457e-06
1533.5, 2.051e-06
1535.5, 2.0442e-06
1537.5, 2.0345e-06
1539.5, 1.9208e-06
1541.5, 1.8745e-06
1543.5, 2.0548e-06
1545.5, 1.692e-06
1547.5, 2.2296e-06
1549.5, 2.0412e-06
1551.5, 2.0881e-06
1553.6, 1.9943e-06
1555.6, 1.7207e-06
1557.6, 2.2431e-06
1559.6, 2.0519e-06
1561.6, 2.1496e-06
1563.6, 2.143e-06
1565.6, 1.9396e-06
1567.6, 2.2584e-06
1569.6, 1.8817e-06
1571.6, 2.1385e-06
1573.6, 2.291e-06
1575.6, 2.3219e-06
1577.6, 2.3333e-06
1579.6, 2.4711e-06
1581.6, 2.1608e-06
1583.6, 2.0423e-06
1585.6, 2.273e-06
1587.6, 1.7944e-06
1589.6, 2.2917e-06
1591.6, 1.978e-06
1593.6, 2.1072e-06
1595.6, 2.074e-06
1597.6, 2.2604e-06
1599.6, 2.1966e-06
1601.6, 2.211e-06
1603.6, 2.1066e-06
1605.6, 2.4383e-06
1607.6, 2.0835e-06
1609.6, 2.1116e-06
1611.6, 1.9872e-06
1613.6, 1.8925e-06
1615.6, 2.043e-06
1617.6, 1.8825e-06
1619.6, 2.1076e-06
1621.6, 2.4125e-06
1623.6, 2.0636e-06
1625.6, 2.414e-06
1627.6, 1.9901e-06
1629.6, 1.9939e-06
1631.6, 2.0219e-06
1633.6, 2.2774e-06
1635.6, 2.2326e-06
1637.6, 1.9001e-06
1639.6, 2.0904e-06
1641.6, 2.3652e-06
1643.6, 2.2042e-06
1645.6, 2.3637e-06
1647.6, 1.9987e-06
1649.6, 1.9521e-06
1651.6, 2.0316e-06
1653.7, 1.8799e-06
1655.7, 1.9671e-06
1657.7, 1.9912e-06
1659.7, 2.0731e-06
1661.7, 2.0833e-06
1663.7, 1.9077e-06
1665.7, 1.9413e-06
1667.7, 1.8526e-06
1669.7, 2.3131e-06
1671.7, 2.0372e-06
1673.7, 2.4331e-06
1675.7, 2.3191e-06
1677.7, 2.1346e-06
1679.7, 1.993e-06
1681.7, 2.3438e-06
1683.7, 2.0822e-06
1685.7, 2.2588e-06
1687.7, 2.1581e-06
1689.7, 2.1296e-06
1691.7, 2.4852e-06
1693.7, 1.717e-06
1695.7, 2.0488e-06
1697.7, 2.5213e-06
1699.7, 1.9599e-06
1701.7, 2.2348e-06
1703.7, 1.9777e-06
1705.7, 2.0088e-06
1707.7, 2.1698e-06
1709.7, 2.2628e-06
1711.7, 2.2117e-06
1713.7, 1.9944e-06
1715.7, 2.0048e-06
1717.7, 2.1197e-06
1719.7, 2.0387e-06
1721.7, 1.9764e-06
1723.7, 2.1976e-06
1725.7, 2.0894e-06
1727.7, 2.0025e-06
1729.7, 2.2011e-06
1731.7, 2.2789e-06
1733.7, 1.8667e-06
1735.7, 2.2606e-06
1737.7, 2.346e-06
1739.7, 2.1008e-06
1741.7, 2.2431e-06
1743.7, 1.9172e-06
1745.7, 2.4828e-06
1747.7, 1.9875e-06
1749.7, 2.1831e-06
1751.7, 1.9575e-06
1753.8, 2.1289e-06
1755.8, 2.0039e-06
1757.8, 2.1056e-06
1759.8, 1.9127e-06
1761.8, 2.0611e-06
1763.8, 2.0497e-06
1765.8, 2.0601e-06
1767.8, 2.1717e-06
1769.8, 2.0566e-06
1771.8, 2.0855e-06
1773.8, 1.9529e-06
1775.8, 2.4097e-06
1777.8, 2.1465e-06
1779.8, 2.2431e-06
1781.8, 2.3544e-06
1783.8, 2.1577e-06
1785.8, 2.0229e-06
1787.8, 2.4764e-06
1789.8, 2.0393e-06
1791.8, 2.0085e-06
1793.8, 2.1046e-06
1795.8, 2.357e-06
1797.8, 2.2418e-06
1799.8, 2.0614e-06
1801.8, 2.048e-06
1803.8, 1.9691e-06
1805.8, 2.192e-06
1807.8, 1.9244e-06
1809.8, 2.4482e-06
1811.8, 2.1355e-06
1813.8, 1.7535e-06
1815.8, 2.1531e-06
1817.8, 2.1447e-06
1819.8, 2.0979e-06
1821.8, 2.0449e-06
1823.8, 2.261e-06
1825.8, 2.3986e-06
1827.8, 2.0179e-06
1829.8, 2.2107e-06
1831.8, 1.9627e-06
1833.8, 1.956e-06
1835.8, 2.1694e-06
1837.8, 2.1973e-06
1839.8, 2.0358e-06
1841.8, 2.1675e-06
1843.8, 2.4735e-06
1845.8, 1.9271e-06
1847.8, 2.1965e-06
1849.8, 2.1942e-06
1851.8, 2.1175e-06
1853.9, 2.2476e-06
1855.9, 2.0021e-06
1857.9, 2.0261e-06
1859.9, 2.4252e-06
1861.9, 2.1283e-06
1863.9, 2.0459e-06
1865.9, 2.0877e-06
1867.9, 2.0997e-06
1869.9, 2.2317e-06
1871.9, 1.8429e-06
1873.9, 2.3148e-06
1875.9, 2.3799e-06
1877.9, 2.245e-06
1879.9, 2.2288e-06
1881.9, 1.7938e-06
1883.9, 1.9872e-06
1885.9, 2.1581e-06
1887.9, 2.3638e-06
1889.9, 2.105e-06
1891.9, 2.2008e-06
1893.9, 2.1835e-06
1895.9, 2.2022e-06
1897.9, 2.1857e-06
1899.9, 2.0994e-06
1901.9, 2.0037e-06
1903.9, 2.186e-06
1905.9, 1.9552e-06
1907.9, 2.0964e-06
1909.9, 2.2767e-06
1911.9, 2.1031e-06
1913.9, 2.1484e-06
1915.9, 2.2605e-06
1917.9, 2.0937e-06
1919.9, 2.2634e-06
1921.9, 2.1289e-06
1923.9, 1.6777e-06
1925.9, 2.1608e-06
1927.9, 1.8953e-06
1929.9, 1.9147e-06
1931.9, 2.3063e-06
1933.9, 1.6995e-06
1935.9, 2.0987e-06
1937.9, 2.0445e-06
1939.9, 1.9604e-06
1941.9, 1.7859e-06
1943.9, 1.9405e-06
1945.9, 1.9758e-06
1947.9, 2.1691e-06
1949.9, 2.1593e-06
1951.9, 2.3543e-06
1954.0, 2.0811e-06
1956.0, 2.169e-06
1958.0, 2.2111e-06
1960.0, 2.3882e-06
1962.0, 2.1415e-06
1964.0, 2.2864e-06
1966.0, 2.363e-06
1968.0, 2.2381e-06
1970.0, 1.9457e-06
1972.0, 1.9762e-06
1974.0, 1.9949e-06
1976.0, 1.997e-06
1978.0, 2.3187e-06
1980.0, 2.0451e-06
1982.0, 2.0471e-06
1984.0, 1.7896e-06
1986.0, 1.9945e-06
1988.0, 2.1417e-06
1990.0, 2.2391e-06
1992.0, 1.8806e-06
1994.0, 2.2322e-06
1996.0, 2.1483e-06
1998.0, 1.8307e-06
2000.0, 2.199e-06
2002.0, 2.0658e-06
2004.0, 2.1699e-06
2006.0, 2.1871e-06
2008.0, 1.9697e-06
2010.0, 1.9974e-06
2012.0, 2.2273e-06
2014.0, 2.6445e-06
2016.0, 2.0531e-06
2018.0, 2.4039e-06
2020.0, 2.2627e-06
2022.0, 2.3229e-06
2024.0, 1.9799e-06
2026.0, 2.4255e-06
2028.0, 2.0043e-06
2030.0, 1.9945e-06
2032.0, 2.2231e-06
2034.0, 1.8704e-06
2036.0, 2.2846e-06
2038.0, 2.1929e-06
2040.0, 2.0525e-06
2042.0, 1.8813e-06
2044.0, 2.0797e-06
2046.0, 2.4788e-06
2048.0, 2.129e-06
2050.0, 2.0532e-06
2052.0, 1.7373e-06
2054.1, 2.0839e-06
2056.1, 2.4378e-06
2058.1, 2.0214e-06
2060.1, 1.9882e-06
2062.1, 2.2189e-06
2064.1, 2.1673e-06
2066.1, 2.3213e-06
2068.1, 2.0852e-06
2070.1, 2.7262e-06
2072.1, 2.0096e-06
2074.1, 2.2257e-06
2076.1, 2.1185e-06
2078.1, 2.1445e-06
2080.1, 2.038e-06
2082.1, 2.0224e-06
2084.1, 1.744e-06
2086.1, 1.9883e-06
2088.1, 1.9255e-06
2090.1, 2.2464e-06
2092.1, 2.1521e-06
2094.1, 1.8315e-06
2096.1, 2.2652e-06
2098.1, 1.9629e-06
2100.1, 1.9455e-06
2102.1, 2.1354e-06
2104.1, 1.9924e-06
2106.1, 2.0988e-06
2108.1, 2.2037e-06
2110.1, 1.9678e-06
2112.1, 1.1764e-06
2114.1, -3.733e-08
2116.1, -3.84e-08
2118.1, -4.086e-08
2120.1, -3.945e-08
2122.1, -3.864e-08
2124.1, -4.305e-08
2126.1, -3.87e-08
2128.1, -3.763e-08
2130.1, -4.011e-08
2132.1, -4.259e-08
2134.1, -4.273e-08
2136.1, -4.201e-08
2138.1, -3.903e-08
2140.1, -3.959e-08
2142.1, -4.137e-08
2144.1, -4.079e-08
2146.1, -4.047e-08
2148.1, -3.841e-08
2150.1, -3.848e-08
2152.1, -3.837e-08
2154.2, -3.659e-08
2156.2, -3.841e-08
2158.2, -4.246e-08
2160.2, -3.749e-08
2162.2, -4.056e-08
2164.2, -4.101e-08
2166.2, -3.858e-08
2168.2, -4.176e-08
2170.2, -3.643e-08
2172.2, -3.517e-08
2174.2, -3.485e-08
2176.2, -3.924e-08
2178.2, -3.709e-08
2180.2, -3.884e-08
2182.2, -3.961e-08
2184.2, -4.072e-08
2186.2, -3.97e-08
2188.2, -3.951e-08
2190.2, -3.668e-08
2192.2, -3.564e-08
2194.2, -3.9e-08
2196.2, -4.08e-08
2198.2, -3.994e-08
2200.2, -3.656e-08
2202.2, -3.599e-08
2204.2, -3.366e-08
2206.2, -4.198e-08
2208.2, -3.872e-08
2210.2, -4.242e-08
2212.2, -3.979e-08
2214.2, -4.153e-08
2216.2, -4.242e-08
2218.2, -4.206e-08
2220.2, -3.99e-08
2222.2, -4.2e-08
2224.2, -4.291e-08
2226.2, -4.245e-08
2228.2, -3.76e-08
2230.2, -4.177e-08
2232.2, -3.896e-08
2234.2, -3.74e-08
2236.2, -3.748e-08
2238.2, -3.793e-08
2240.2, -3.817e-08
2242.2, -4.271e-08
2244.2, -4.366e-08
2246.2, -4.065e-08
2248.2, -4.024e-08
2250.2, -3.924e-08
2252.2, -4.26e-08
2254.3, -4.185e-08
2256.3, -3.666e-08
2258.3, -3.927e-08
2260.3, -3.919e-08
2262.3, -3.727e-08
2264.3, -4.001e-08
2266.3, -3.946e-08
2268.3, -4.282e-08
2270.3, -3.788e-08
2272.3, -3.818e-08
2274.3, -3.936e-08
2276.3, -4.098e-08
2278.3, -3.813e-08
2280.3, -3.876e-08
2282.3, -3.778e-08
2284.3, -4.269e-08
2286.3, -3.664e-08
2288.3, -3.886e-08
2290.3, -4.271e-08
2292.3, -4.007e-08
2294.3, -4.609e-08
2296.3, -4.235e-08
2298.3, -4.051e-08
2300.3, -4.075e-08
2302.3, -4.064e-08
2304.3, -3.816e-08
2306.3, -3.883e-08
2308.3, -3.882e-08
2310.3, -3.651e-08
2312.3, -3.774e-08
2314.3, -3.723e-08
2316.3, -3.734e-08
2318.3, -3.648e-08
2320.3, -3.718e-08
2322.3, -3.498e-08
2324.3, -3.979e-08
2326.3, -3.885e-08
2328.3, -4.293e-08
2330.3, -4.277e-08
2332.3, -4.001e-08
2334.3, -3.666e-08
2336.3, -4.186e-08
2338.3, -4.207e-08
2340.3, -4.064e-08
2342.3, -3.823e-08
2344.3, -4.031e-08
2346.3, -4.226e-08
2348.3, -4.05e-08
2350.3, -3.977e-08
2352.3, -3.867e-08
2354.4, -3.784e-08
2356.4, -4.012e-08
2358.4, -4.09e-08
2360.4, -3.857e-08
2362.4, -3.769e-08
2364.4, -4.073e-08
2366.4, -4.282e-08
2368.4, -3.964e-08
2370.4, -3.708e-08
2372.4, -4.126e-08
2374.4, -3.867e-08
2376.4, -3.876e-08
2378.4, -3.878e-08
2380.4, -4.371e-08
2382.4, -4.303e-08
2384.4, -4.284e-08
2386.4, -4.342e-08
2388.4, -4.433e-08
2390.4, -3.954e-08
2392.4, -4.144e-08
2394.4, -4.084e-08
2396.4, -3.755e-08
2398.4, -3.995e-08
2400.4, -3.447e-08
2402.4, -3.746e-08
2404.4, -3.839e-08
2406.4, -4.12e-08
2408.4, -3.733e-08
2410.4, -3.979e-08
2412.4, -3.759e-08
2414.4, -3.597e-08
2416.4, -3.382e-08
2418.4, -4.04e-08
2420.4, -3.632e-08
2422.4, -4.161e-08
2424.4, -4.107e-08
2426.4, -4.331e-08
2428.4, -4.337e-08
2430.4, -4.43e-08
2432.4, -4.338e-08
2434.4, -3.961e-08
2436.4, -4.218e-08
2438.4, -4.132e-08
2440.4, -4.326e-08
2442.4, -4.004e-08
2444.4, -4.231e-08
2446.4, -4.353e-08
2448.4, -4.238e-08
2450.4, -3.967e-08
2452.4, -4.22e-08
2454.5, -4.302e-08
2456.5, -4.176e-08
2458.5, -4.219e-08
2460.5, -4.136e-08
2462.5, -4.026e-08
2464.5, -3.765e-08
2466.5, -3.543e-08
2468.5, -3.829e-08
2470.5, -4.2e-08
2472.5, -4.1e-08
2474.5, -4.041e-08
2476.5, -4.046e-08
2478.5, -4.422e-08
2480.5, -4.023e-08
2482.5, -3.965e-08
2484.5, -3.673e-08
2486.5, -3.954e-08
2488.5, -3.937e-08
2490.5, -3.929e-08
2492.5, -4.028e-08
2494.5, -4.026e-08
2496.5, -3.68e-08
2498.5, -3.661e-08
2500.5, -4.156e-08
2502.5, -4.115e-08
2504.5, -3.975e-08
2506.5, -3.344e-08
2508.5, -4.067e-08
2510.5, -3.682e-08
2512.5, -3.987e-08
2514.5, -3.846e-08
2516.5, -3.629e-08
2518.5, -3.774e-08
2520.5, -3.546e-08
2522.5, -3.818e-08
2524.5, -3.825e-08
2526.5, -3.87e-08
2528.5, -4.104e-08
2530.5, -3.527e-08
2532.5, -3.962e-08
2534.5, -3.617e-08
2536.5, -4.044e-08
2538.5, -3.655e-08
2540.5, -3.764e-08
2542.5, -3.956e-08
2544.5, -4.07e-08
2546.5, -4.146e-08
2548.5, -3.601e-08
2550.5, -4.017e-08
2552.5, -4.18e-08
2554.6, -4.206e-08
2556.6, -3.816e-08
2558.6, -3.853e-08
2560.6, -3.846e-08
2562.6, -4.008e-08
2564.6, -3.794e-08
2566.6, -3.708e-08
2568.6, -3.813e-08
2570.6, -3.759e-08
2572.6, -3.842e-08
2574.6, -3.962e-08
2576.6, -3.707e-08
2578.6, -3.654e-08
2580.6, -3.929e-08
2582.6, -3.823e-08
2584.6, -3.782e-08
2586.6, -4.135e-08
2588.6, -4.036e-08
2590.6, -4.334e-08
2592.6, -3.944e-08
2594.6, -4.2e-08
2596.6, -3.665e-08
2598.6, -3.711e-08
2600.6, -3.825e-08
2602.6, -3.915e-08
2604.6, -3.833e-08
2606.6, -4.241e-08
2608.6, -4.144e-08
2610.6, -4.348e-08
2612.6, -3.891e-08
2614.6, -4.131e-08
2616.6, -4.135e-08
2618.6, -3.916e-08
2620.6, -3.765e-08
2622.6, -3.733e-08
2624.6, -3.978e-08
2626.6, -4.029e-08
2628.6, -4.053e-08
2630.6, -3.993e-08
2632.6, -3.93e-08
2634.6, -4.23e-08
2636.6, -4.176e-08
2638.6, -3.868e-08
2640.6, -3.547e-08
2642.6, -3.86e-08
2644.6, -4.138e-08
2646.6, -4.16e-08
2648.6, -4.209e-08
2650.6, -3.792e-08
2652.6, -3.825e-08
2654.7, -4.287e-08
2656.7, -4.462e-08
2658.7, -3.953e-08
2660.7, -4.125e-08
2662.7, -4.229e-08
2664.7, -4.044e-08
2666.7, -4.015e-08
2668.7, -4.255e-08
2670.7, -3.782e-08
2672.7, -3.852e-08
2674.7, -3.986e-08
2676.7, -4.081e-08
2678.7, -4.183e-08
2680.7, -4.071e-08
2682.7, -4.031e-08
2684.7, -3.87e-08
2686.7, -4.058e-08
2688.7, -3.755e-08
2690.7, -4.141e-08
2692.7, -3.953e-08
2694.7, -3.974e-08
2696.7, -3.981e-08
2698.7, -4.327e-08
2700.7, -4.009e-08
2702.7, -4.385e-08
2704.7, -3.998e-08
2706.7, -4.145e-08
2708.7, -4.403e-08
2710.7, -4.364e-08
2712.7, -4.553e-08
2714.7, -4.894e-08
2716.7, -4.595e-08
2718.7, -3.988e-08
2720.7, -4.267e-08
2722.7, -4.453e-08
2724.7, -4.522e-08
2726.7, -4.638e-08
2728.7, -4.361e-08
2730.7, -4.307e-08
2732.7, -4.235e-08
2734.7, -4.265e-08
2736.7, -4.423e-08
2738.7, -4.454e-08
2740.7, -4.219e-08
2742.7, -4.502e-08
2744.7, -4.251e-08
2746.7, -4.332e-08
2748.7, -4.068e-08
2750.7, -3.928e-08
2752.7, -4.419e-08
2754.8, -4.103e-08
2756.8, -3.851e-08
2758.8, -4.115e-08
2760.8, -3.75e-08
2762.8, -4.137e-08
2764.8, -4.093e-08
2766.8, -4.215e-08
2768.8, -4.166e-08
2770.8, -3.893e-08
2772.8, -4.009e-08
2774.8, -4.097e-08
2776.8, -4.182e-08
2778.8, -4.121e-08
2780.8, -3.569e-08
2782.8, -3.597e-08
2784.8, -4.67e-08
2786.8, -4.604e-08
2788.8, -3.835e-08
2790.8, -4.032e-08
2792.8, -4.503e-08
2794.8, -4.167e-08
2796.8, -4.056e-08
2798.8, -3.951e-08
2800.8, -3.856e-08
2802.8, -4.305e-08
2804.8, -4.062e-08
2806.8, -4.485e-08
2808.8, -4.287e-08
2810.8, -4.296e-08
2812.8, -4.28e-08
2814.8, -4.74e-08
2816.8, -4.635e-08
2818.8, -4.522e-08
2820.8, -4.272e-08
2822.8, -4.692e-08
2824.8, -4.351e-08
2826.8, -4.324e-08
2828.8, -4.245e-08
2830.8, -4.06e-08
2832.8, -3.636e-08
2834.8, -3.913e-08
2836.8, -3.821e-08
2838.8, -3.895e-08
2840.8, -3.873e-08
2842.8, -3.424e-08
2844.8, -3.709e-08
2846.8, -3.646e-08
2848.8, -3.784e-08
2850.8, -3.881e-08
2852.8, -4.213e-08
2854.9, -4.013e-08
2856.9, -4.057e-08
2858.9, -4.384e-08
2860.9, -4.024e-08
2862.9, -3.929e-08
2864.9, -3.804e-08
2866.9, -4.224e-08
2868.9, -4.169e-08
2870.9, -4.119e-08
2872.9, -4.435e-08
2874.9, -4.176e-08
2876.9, -3.822e-08
2878.9, -3.77e-08
2880.9, -4.138e-08
2882.9, -4.393e-08
2884.9, -4.103e-08
2886.9, -4.21e-08
2888.9, -3.999e-08
2890.9, -4.463e-08
2892.9, -4.363e-08
2894.9, -4.528e-08
2896.9, -4.252e-08
2898.9, -4.127e-08
2900.9, -3.958e-08
2902.9, -4.314e-08
2904.9, -4.566e-08
2906.9, -4.624e-08
2908.9, -4.564e-08
2910.9, -4.084e-08
2912.9, -4.339e-08
2914.9, -4.277e-08
2916.9, -4.373e-08
2918.9, -4.008e-08
2920.9, -4.148e-08
2922.9, -4.223e-08
2924.9, -3.921e-08
2926.9, -4.168e-08
2928.9, -4.058e-08
2930.9, -4.744e-08
2932.9, -4.236e-08
2934.9, -4.15e-08
2936.9, -4.269e-08
2938.9, -4.137e-08
2940.9, -3.834e-08
2942.9, -4.233e-08
2944.9, -4.125e-08
2946.9, -4.454e-08
2948.9, -4.344e-08
2950.9, -4.329e-08
2952.9, -4.644e-08
2955.0, -4.431e-08
2957.0, -4.591e-08
2959.0, -4.262e-08
2961.0, -4.415e-08
2963.0, -4.33e-08
2965.0, -4.358e-08
2967.0, -4.499e-08
2969.0, -4.286e-08
2971.0, -4.188e-08
2973.0, -4.441e-08
2975.0, -4.698e-08
2977.0, -4.383e-08
2979.0, -4.308e-08
2981.0, -4.325e-08
2983.0, -4.336e-08
2985.0, -3.817e-08
2987.0, -4.277e-08
2989.0, -4.05e-08
2991.0, -4.332e-08
2993.0, -3.86e-08
2995.0, -3.995e-08
2997.0, -4.064e-08
2999.0, -3.903e-08
3001.0, -4.298e-08
3003.0, -4.007e-08
3005.0, -4.136e-08
3007.0, -4.744e-08
3009.0, -3.984e-08
3011.0, -4.006e-08
3013.0, -3.989e-08
3015.0, -3.971e-08
3017.0, -4.136e-08
3019.0, -4.229e-08
3021.0, -4.252e-08
3023.0, -4.377e-08
3025.0, -4.609e-08
3027.0, -4.625e-08
3029.0, -4.392e-08
3031.0, -4.131e-08
3033.0, -4.587e-08
3035.0, -4.349e-08
3037.0, -4.468e-08
3039.0, -4.775e-08
3041.0, -4.435e-08
3043.0, -4.323e-08
3045.0, -4.444e-08
3047.0, -4.769e-08
3049.0, -4.577e-08
3051.0, -4.038e-08
3053.0, -4.273e-08
3055.1, -4.421e-08
3057.1, -4.646e-08
3059.1, -4.481e-08
3061.1, -4.363e-08
3063.1, -4.371e-08
3065.1, -4.359e-08
3067.1, -4.865e-08
3069.1, -4.414e-08
3071.1, -4.276e-08
3073.1, -4.463e-08
3075.1, -4.401e-08
3077.1, -4.589e-08
3079.1, -4.38e-08
3081.1, -4.441e-08
3083.1, -4.43e-08
3085.1, -4.652e-08
3087.1, -4.338e-08
3089.1, -4.471e-08
3091.1, -4.322e-08
3093.1, -4.293e-08
3095.1, -4.301e-08
3097.1, -4.323e-08
3099.1, -3.775e-08
3101.1, -4.486e-08
3103.1, -4.052e-08
3105.1, -4.586e-08
3107.1, -4.526e-08
3109.1, -4.659e-08
3111.1, -4.322e-08
3113.1, -4.563e-08
3115.1, -4.842e-08
3117.1, -4.597e-08
3119.1, -4.297e-08
3121.1, -4.371e-08
3123.1, -4.579e-08
3125.1, -4.678e-08
3127.1, -4.255e-08
3129.1, -4.236e-08
3131.1, -4.149e-08
3133.1, -4.548e-08
3135.1, -4.66e-08
3137.1, -4.029e-08
3139.1, -4.042e-08
3141.1, -4.076e-08
3143.1, -4.353e-08
3145.1, -4.457e-08
3147.1, -4.558e-08
3149.1, -4.546e-08
3151.1, -3.763e-08
3153.1, -4.342e-08
3155.2, -4.015e-08
3157.2, -3.904e-08
3159.2, -4.033e-08
3161.2, -4.163e-08
3163.2, -4.33e-08
3165.2, -4.345e-08
3167.2, -4.155e-08
3169.2, -4.018e-08
3171.2, -4.069e-08
3173.2, -4.13e-08
3175.2, -4.226e-08
3177.2, -4.272e-08
3179.2, -4.223e-08
3181.2, -4.084e-08
3183.2, -4.277e-08
3185.2, 9.9808e-07
3187.2, 1.5124e-06
3189.2, 1.1843e-06
3191.2, 1.2447e-06
3193.2, 1.7139e-06
3195.2, 1.4553e-06
3197.2, 1.3618e-06
3199.2, 2.275e-06
3201.2, 1.5814e-06
3203.2, 1.321e-06
3205.2, 1.3239e-06
3207.2, 1.3063e-06
3209.2, 1.5977e-06
3211.2, 1.7433e-06
3213.2, 1.6043e-06
3215.2, 1.7755e-06
3217.2, 1.908e-06
3219.2, 1.8989e-06
3221.2, 1.7585e-06
3223.2, 1.7e-06
3225.2, 1.9131e-06
3227.2, 1.5224e-06
3229.2, 1.6002e-06
3231.2, 1.7548e-06
3233.2, 2.1426e-06
3235.2, 1.7073e-06
3237.2, 1.7551e-06
3239.2, 1.7519e-06
3241.2, 1.5469e-06
3243.2, 1.6922e-06
3245.2, 1.5245e-06
3247.2, 1.4768e-06
3249.2, 1.5564e-06
3251.2, 1.8272e-06
3253.2, 1.592e-06
3255.3, 1.5725e-06
3257.3, 2.0103e-06
3259.3, 1.5165e-06
3261.3, 1.7376e-06
3263.3, 1.7196e-06
3265.3, 1.6904e-06
3267.3, 1.8639e-06
3269.3, 1.6183e-06
3271.3, 1.9453e-06
3273.3, 1.7496e-06
3275.3, 1.5346e-06
3277.3, 1.9809e-06
3279.3, 1.8695e-06
3281.3, 1.8387e-06
3283.3, 1.7408e-06
3285.3, 1.9248e-06
3287.3, 2.0498e-06
3289.3, 1.6409e-06
3291.3, 1.8863e-06
3293.3, 1.9289e-06
3295.3, 1.9312e-06
3297.3, 1.7758e-06
3299.3, 1.778e-06
3301.3, 1.7191e-06
3303.3, 1.6718e-06
3305.3, 1.6733e-06
3307.3, 1.8686e-06
3309.3, 1.6995e-06
3311.3, 1.6951e-06
3313.3, 1.8587e-06
3315.3, 1.8524e-06
3317.3, 2.0983e-06
3319.3, 1.9048e-06
3321.3, 1.7224e-06
3323.3, 2.3266e-06
3325.3, 1.8456e-06
3327.3, 2.139e-06
3329.3, 1.7726e-06
3331.3, 2.1269e-06
3333.3, 2.1148e-06
3335.3, 1.8662e-06
3337.3, 1.9693e-06
3339.3, 1.7837e-06
3341.3, 2.161e-06
3343.3, 1.9619e-06
3345.3, 1.9177e-06
3347.3, 1.8036e-06
3349.3, 1.9369e-06
3351.3, 1.7812e-06
3353.3, 2.1757e-06
3355.4, 1.8919e-06
3357.4, 2.1967e-06
3359.4, 2.0545e-06
3361.4, 1.8677e-06
3363.4, 2.1463e-06
3365.4, 1.9901e-06
3367.4, 1.9536e-06
3369.4, 1.9425e-06
3371.4, 2.1212e-06
3373.4, 1.8226e-06
3375.4, 1.6866e-06
3377.4, 1.9813e-06
3379.4, 1.8051e-06
3381.4, 1.9471e-06
3383.4, 1.8372e-06
3385.4, 2.0894e-06
3387.4, 1.8387e-06
3389.4, 1.9217e-06
3391.4, 2.0159e-06
3393.4, 2.0972e-06
3395.4, 1.7609e-06
3397.4, 1.878e-06
3399.4, 1.8399e-06
3401.4, 1.8925e-06
3403.4, 2.1365e-06
3405.4, 2.1917e-06
3407.4, 1.7588e-06
3409.4, 1.8982e-06
3411.4, 1.8913e-06
3413.4, 1.6831e-06
3415.4, 2.0874e-06
3417.4, 2.0399e-06
3419.4, 2.0585e-06
3421.4, 1.7752e-06
3423.4, 1.7854e-06
3425.4, 1.782e-06
3427.4, 1.9441e-06
3429.4, 2.0233e-06
3431.4, 1.5151e-06
3433.4, 1.9773e-06
3435.4, 2.1398e-06
3437.4, 2.0849e-06
3439.4, 1.7659e-06
3441.4, 2.3012e-06
3443.4, 2.4678e-06
3445.4, 1.983e-06
3447.4, 2.2134e-06
3449.4, 1.987e-06
3451.4, 2.048e-06
3453.4, 1.9423e-06
3455.5, 2.0501e-06
3457.5, 2.0398e-06
3459.5, 2.0403e-06
3461.5, 2.1293e-06
3463.5, 2.0348e-06
3465.5, 2.0178e-06
3467.5, 1.6693e-06
3469.5, 1.9549e-06
3471.5, 1.9373e-06
3473.5, 2.2259e-06
3475.5, 1.9709e-06
3477.5, 1.8e-06
3479.5, 1.6908e-06
3481.5, 1.8504e-06
3483.5, 1.9643e-06
3485.5, 2.1428e-06
3487.5, 1.7908e-06
3489.5, 2.0602e-06
3491.5, 1.8886e-06
3493.5, 2.1417e-06
3495.5, 1.9811e-06
3497.5, 1.9467e-06
3499.5, 2.047e-06
3501.5, 2.0017e-06
3503.5, 2.2748e-06
3505.5, 1.9993e-06
3507.5, 2.122e-06
3509.5, 2.1143e-06
3511.5, 1.7569e-06
3513.5, 2.0193e-06
3515.5, 2.3332e-06
3517.5, 1.7515e-06
3519.5, 2.2582e-06
3521.5, 1.685e-06
3523.5, 2.1788e-06
3525.5, 2.2116e-06
3527.5, 2.1954e-06
3529.5, 2.0769e-06
3531.5, 2.0104e-06
3533.5, 2.4436e-06
3535.5, 1.9994e-06
3537.5, 2.0563e-06
3539.5, 1.9604e-06
3541.5, 1.8858e-06
3543.5, 1.9927e-06
3545.5, 1.91e-06
3547.5, 1.892e-06
3549.5, 2.1063e-06
3551.5, 2.0473e-06
3553.5, 1.9204e-06
3555.6, 2.2224e-06
3557.6, 1.9637e-06
3559.6, 2.1638e-06
3561.6, 2.3853e-06
3563.6, 1.9806e-06
3565.6, 1.7386e-06
3567.6, 2.0363e-06
3569.6, 1.9269e-06
3571.6, 2.1849e-06
3573.6, 2.1192e-06
3575.6, 1.8845e-06
3577.6, 2.351e-06
3579.6, 1.7097e-06
3581.6, 2.2794e-06
3583.6, 1.7889e-06
3585.6, 1.6842e-06
3587.6, 2.3967e-06
3589.6, 2.0053e-06
3591.6, 2.0021e-06
3593.6, 2.0851e-06
3595.6, 2.2965e-06
3597.6, 1.9244e-06
3599.6, 2.1441e-06
3601.6, 2.1812e-06
3603.6, 1.9105e-06
3605.6, 1.9351e-06
3607.6, 2.1667e-06
3609.6, 2.283e-06
3611.6, 2.293e-06
3613.6, 2.022e-06
3615.6, 2.3041e-06
3617.6, 2.317e-06
3619.6, 2.0193e-06
3621.6, 2.032e-06
3623.6, 2.5047e-06
3625.6, 1.6816e-06
3627.6, 2.0972e-06
3629.6, 2.3881e-06
3631.6, 2.5123e-06
3633.6, 2.1441e-06
3635.6, 1.8259e-06
3637.6, 1.981e-06
3639.6, 2.0761e-06
3641.6, 2.56e-06
3643.6, 2.1151e-06
3645.6, 1.7577e-06
3647.6, 1.9229e-06
3649.6, 2.1755e-06
3651.6, 2.1434e-06
3653.6, 2.1117e-06
3655.7, 2.0813e-06
3657.7, 2.4349e-06
3659.7, 1.9132e-06
3661.7, 2.3307e-06
3663.7, 2.0596e-06
3665.7, 1.96e-06
3667.7, 2.121e-06
3669.7, 2.027e-06
3671.7, 2.1159e-06
3673.7, 2.0369e-06
3675.7, 2.2571e-06
3677.7, 2.1418e-06
3679.7, 2.0916e-06
3681.7, 1.7884e-06
3683.7, 2.2837e-06
3685.7, 1.9524e-06
3687.7, 2.2599e-06
3689.7, 1.9096e-06
3691.7, 2.4164e-06
3693.7, 1.8724e-06
3695.7, 2.3619e-06
3697.7, 2.1803e-06
3699.7, 2.058e-06
3701.7, 1.8504e-06
3703.7, 2.3788e-06
3705.7, 2.2847e-06
3707.7, 1.9794e-06
3709.7, 2.15e-06
3711.7, 1.9265e-06
3713.7, 2.1635e-06
3715.7, 2.2118e-06
3717.7, 1.7773e-06
3719.7, 2.1645e-06
3721.7, 2.3439e-06
3723.7, 2.0098e-06
3725.7, 2.0102e-06
3727.7, 2.1821e-06
3729.7, 2.0369e-06
3731.7, 2.1379e-06
3733.7, 2.2782e-06
3735.7, 2.1986e-06
3737.7, 2.1039e-06
3739.7, 1.9469e-06
3741.7, 1.8143e-06
3743.7, 2.3907e-06
3745.7, 1.8929e-06
3747.7, 2.1323e-06
3749.7, 2.1595e-06
3751.7, 1.9795e-06
3753.7, 1.9919e-06
3755.8, 2.3677e-06
3757.8, 2.2474e-06
3759.8, 2.1162e-06
3761.8, 2.1519e-06
3763.8, 2.0878e-06
3765.8, 2.0268e-06
3767.8, 2.3724e-06
3769.8, 1.7694e-06
3771.8, 1.9699e-06
3773.8, 2.0221e-06
3775.8, 2.2117e-06
3777.8, 1.9412e-06
3779.8, 2.06e-06
3781.8, 2.1099e-06
3783.8, 2.4096e-06
3785.8, 2.0439e-06
3787.8, 2.0285e-06
3789.8, 2.0742e-06
3791.8, 2.6705e-06
3793.8, 2.0991e-06
3795.8, 2.1057e-06
3797.8, 2.434e-06
3799.8, 2.1536e-06
3801.8, 2.2178e-06
3803.8, 2.2553e-06
3805.8, 1.998e-06
3807.8, 2.1537e-06
3809.8, 1.979e-06
3811.8, 2.1587e-06
3813.8, 1.9507e-06
3815.8, 2.1675e-06
3817.8, 2.194e-06
3819.8, 2.0736e-06
3821.8, 2.135e-06
3823.8, 2.1724e-06
3825.8, 2.4264e-06
3827.8, 1.9703e-06
3829.8, 2.0962e-06
3831.8, 2.2172e-06
3833.8, 1.9551e-06
3835.8, 2.0855e-06
3837.8, 2.087e-06
3839.8, 2.0447e-06
3841.8, 2.2422e-06
3843.8, 2.2974e-06
3845.8, 2.1721e-06
3847.8, 1.8785e-06
3849.8, 2.0504e-06
3851.8, 1.9372e-06
3853.8, 1.7981e-06
3855.9, 2.0741e-06
3857.9, 2.311e-06
3859.9, 2.2705e-06
3861.9, 2.3326e-06
3863.9, 2.1294e-06
3865.9, 2.2539e-06
3867.9, 1.9254e-06
3869.9, 2.1539e-06
3871.9, 2.078e-06
3873.9, 2.2491e-06
3875.9, 2.4227e-06
3877.9, 2.245e-06
3879.9, 2.1292e-06
3881.9, 2.206e-06
3883.9, 2.029e-06
3885.9, 2.1805e-06
3887.9, 1.9925e-06
3889.9, 2.0509e-06
3891.9, 1.8662e-06
3893.9, 1.9754e-06
3895.9, 2.175e-06
3897.9, 1.9617e-06
3899.9, 2.3327e-06
3901.9, 1.7529e-06
3903.9, 2.0275e-06
3905.9, 2.0528e-06
3907.9, 2.0041e-06
3909.9, 2.1905e-06
3911.9, 2.181e-06
3913.9, 1.8718e-06
3915.9, 2.252e-06
3917.9, 2.3038e-06
3919.9, 2.2865e-06
3921.9, 2.1868e-06
3923.9, 2.1042e-06
3925.9, 2.0119e-06
3927.9, 2.045e-06
3929.9, 1.9435e-06
3931.9, 1.9662e-06
3933.9, 2.1082e-06
3935.9, 2.0492e-06
3937.9, 2.3998e-06
3939.9, 2.1317e-06
3941.9, 2.0368e-06
3943.9, 2.0009e-06
3945.9, 2.159e-06
3947.9, 2.0939e-06
3949.9, 2.0165e-06
3951.9, 1.8397e-06
3953.9, 2.2366e-06
3956.0, 2.3786e-06
3958.0, 2.469e-06
3960.0, 2.279e-06
3962.0, 2.1815e-06
3964.0, 1.9939e-06
3966.0, 1.9317e-06
3968.0, 2.0772e-06
3970.0, 2.4597e-06
3972.0, 2.3012e-06
3974.0, 2.2328e-06
3976.0, 1.9286e-06
3978.0, 2.1889e-06
3980.0, 2.11e-06
3982.0, 2.1871e-06
3984.0, 2.348e-06
3986.0, 1.9969e-06
3988.0, 1.9571e-06
3990.0, 2.0924e-06
3992.0, 2.2274e-06
3994.0, 1.8671e-06
3996.0, 2.2104e-06
3998.0, 2.202e-06
4000.0, 1.939e-06
4002.0, 2.1757e-06
4004.0, 1.8636e-06
4006.0, 2.042e-06
4008.0, 2.2912e-06
4010.0, 1.9596e-06
4012.0, 1.7553e-06
4014.0, 1.9848e-06
4016.0, 2.0461e-06
4018.0, 1.984e-06
4020.0, 2.1867e-06
4022.0, 2.0383e-06
4024.0, 2.4813e-06
4026.0, 2.4561e-06
4028.0, 2.1649e-06
4030.0, 1.9405e-06
4032.0, 1.9468e-06
4034.0, 2.512e-06
4036.0, 2.2475e-06
4038.0, 2.0645e-06
4040.0, 2.0297e-06
4042.0, 2.4092e-06
4044.0, 2.3587e-06
4046.0, 2.1854e-06
4048.0, 2.3381e-06
4050.0, 1.9773e-06
4052.0, 2.0087e-06
4054.0, 2.0154e-06
4056.1, 2.3924e-06
4058.1, 2.4091e-06
4060.1, 2.275e-06
4062.1, 2.2211e-06
4064.1, 2.3289e-06
4066.1, 2.2306e-06
4068.1, 2.0064e-06
4070.1, 1.94e-06
4072.1, 1.9414e-06
4074.1, 1.9845e-06
4076.1, 2.1874e-06
4078.1, 2.1902e-06
4080.1, 1.8624e-06
4082.1, 2.2872e-06
4084.1, 2.1179e-06
4086.1, 2.2437e-06
4088.1, 1.802e-06
4090.1, 2.2011e-06
4092.1, 2.0453e-06
4094.1, 2.14e-06
4096.1, 2.1474e-06
4098.1, 2.1272e-06
4100.1, 2.1135e-06
4102.1, 2.0056e-06
4104.1, 2.3691e-06
4106.1, 1.9643e-06
4108.1, 2.3352e-06
4110.1, 2.201e-06
4112.1, 1.6604e-06
4114.1, 2.0395e-06
4116.1, 2.2713e-06
4118.1, 2.0075e-06
4120.1, 2.5132e-06
4122.1, 1.7701e-06
4124.1, 1.9506e-06
4126.1, 2.2856e-06
4128.1, 2.0724e-06
4130.1, 1.847e-06
4132.1, 2.4378e-06
4134.1, 1.918e-06
4136.1, 1.9343e-06
4138.1, 2.4849e-06
4140.1, 1.9732e-06
4142.1, 2.2481e-06
4144.1, 1.7715e-06
4146.1, 2.5502e-06
4148.1, 2.0152e-06
4150.1, 2.157e-06
4152.1, 2.3283e-06
4154.1, 1.9921e-06
4156.2, 1.7514e-06
4158.2, 1.9367e-06
4160.2, 2.2114e-06
4162.2, 1.9783e-06
4164.2, 2.1103e-06
4166.2, 1.8604e-06
4168.2, 1.6944e-06
4170.2, 2.1397e-06
4172.2, 2.0362e-06
4174.2, 2.0399e-06
4176.2, 2.2923e-06
4178.2, 2.2167e-06
4180.2, 2.3497e-06
4182.2, 2.1145e-06
4184.2, 2.1044e-06
4186.2, 9.7823e-07
4188.2, -3.765e-08
4190.2, -3.724e-08
4192.2, -3.725e-08
4194.2, -3.791e-08
4196.2, -3.646e-08
4198.2, -3.746e-08
4200.2, -3.746e-08
4202.2, -3.742e-08
4204.2, -3.9e-08
4206.2, -4.164e-08
4208.2, -3.731e-08
4210.2, -3.898e-08
4212.2, -4.192e-08
4214.2, -4.454e-08
4216.2, -4.186e-08
4218.2, -4.292e-08
4220.2, -3.693e-08
4222.2, -4.262e-08
4224.2, -4.167e-08
4226.2, -4.182e-08
4228.2, -4.205e-08
4230.2, -4.093e-08
4232.2, -4.245e-08
4234.2, -4.3e-08
4236.2, -4.311e-08
4238.2, -4.065e-08
4240.2, -4.286e-08
4242.2, -3.68e-08
4244.2, -4.223e-08
4246.2, -3.935e-08
4248.2, -4.312e-08
4250.2, -4.463e-08
4252.2, -4.417e-08
4254.2, -4.228e-08
4256.3, -4.534e-08
4258.3, -4.31e-08
4260.3, -4.242e-08
4262.3, -4.242e-08
4264.3, -4.4e-08
4266.3, -4.419e-08
4268.3, -3.968e-08
4270.3, -4.114e-08
4272.3, -3.772e-08
4274.3, -4.236e-08
4276.3, -3.904e-08
4278.3, -4.138e-08
4280.3, -4.06e-08
4282.3, -4.089e-08
4284.3, -4.201e-08
4286.3, -3.826e-08
4288.3, -3.911e-08
4290.3, -3.96e-08
4292.3, -3.728e-08
4294.3, -3.87e-08
4296.3, -4.412e-08
4298.3, -3.476e-08
4300.3, -4.018e-08
4302.3, -4.15e-08
4304.3, -4.205e-08
4306.3, -3.998e-08
4308.3, -4.161e-08
4310.3, -3.903e-08
4312.3, -3.989e-08
4314.3, -3.961e-08
4316.3, -3.952e-08
4318.3, -4.257e-08
4320.3, -4.2e-08
4322.3, -3.517e-08
4324.3, -3.848e-08
4326.3, -3.917e-08
4328.3, -3.825e-08
4330.3, -3.922e-08
4332.3, -3.895e-08
4334.3, -3.622e-08
4336.3, -3.709e-08
4338.3, -3.915e-08
4340.3, -3.601e-08
4342.3, -3.721e-08
4344.3, -3.552e-08
4346.3, -3.941e-08
4348.3, -4.114e-08
4350.3, -3.741e-08
4352.3, -3.887e-08
4354.3, -3.414e-08
4356.4, -3.8e-08
4358.4, -3.758e-08
4360.4, -3.492e-08
4362.4, -3.542e-08
4364.4, -3.689e-08
4366.4, -4.096e-08
4368.4, -3.904e-08
4370.4, -3.824e-08
4372.4, -3.791e-08
4374.4, -3.504e-08
4376.4, -3.943e-08
4378.4, -3.744e-08
4380.4, -3.997e-08
4382.4, -3.938e-08
4384.4, -4.071e-08
4386.4, -4.264e-08
4388.4, -4.059e-08
4390.4, -4.052e-08
4392.4, -4.076e-08
4394.4, -3.98e-08
4396.4, -3.758e-08
4398.4, -3.579e-08
4400.4, -3.749e-08
4402.4, -4.006e-08
4404.4, -3.648e-08
4406.4, -3.586e-08
4408.4, -3.743e-08
4410.4, -3.549e-08
4412.4, -3.66e-08
4414.4, -3.556e-08
4416.4, -3.462e-08
4418.4, -3.612e-08
4420.4, -3.581e-08
4422.4, -2.994e-08
4424.4, -3.783e-08
4426.4, -3.946e-08
4428.4, -3.844e-08
4430.4, -3.481e-08
4432.4, -4.082e-08
4434.4, -4.195e-08
4436.4, -3.938e-08
4438.4, -4.129e-08
4440.4, -4.47e-08
4442.4, -4.159e-08
4444.4, -4.374e-08
4446.4, -4.387e-08
4448.4, -4.538e-08
4450.4, -4.618e-08
4452.4, -3.973e-08
4454.4, -4.331e-08
4456.5, -4.309e-08
4458.5, -4.356e-08
4460.5, -4.378e-08
4462.5, -4.15e-08
4464.5, -3.904e-08
4466.5, -4.134e-08
4468.5, -4.194e-08
4470.5, -4.019e-08
4472.5, -3.889e-08
4474.5, -3.915e-08
4476.5, -3.851e-08
4478.5, -3.983e-08
4480.5, -3.764e-08
4482.5, -4.269e-08
4484.5, -3.795e-08
4486.5, -4.046e-08
4488.5, -3.844e-08
4490.5, -3.927e-08
4492.5, -3.717e-08
4494.5, -4.141e-08
4496.5, -3.904e-08
4498.5, -4.2e-08
4500.5, -3.845e-08
4502.5, -3.856e-08
4504.5, -4.003e-08
4506.5, -4.135e-08
4508.5, -3.816e-08
4510.5, -3.927e-08
4512.5, -4.096e-08
4514.5, -4.331e-08
4516.5, -4.082e-08
4518.5, -4.378e-08
4520.5, -3.789e-08
4522.5, -3.689e-08
4524.5, -3.963e-08
4526.5, -4.242e-08
4528.5, -3.89e-08
4530.5, -3.902e-08
4532.5, -3.893e-08
4534.5, -3.777e-08
4536.5, -4.307e-08
4538.5, -3.792e-08
4540.5, -3.924e-08
4542.5, -3.699e-08
4544.5, -3.989e-08
4546.5, -4.217e-08
4548.5, -3.783e-08
4550.5, -3.838e-08
4552.5, -3.97e-08
4554.5, -4e-08
4556.6, -4.36e-08
4558.6, -4.169e-08
4560.6, -3.917e-08
4562.6, -4.105e-08
4564.6, -4.043e-08
4566.6, -3.936e-08
4568.6, -3.934e-08
4570.6, -3.857e-08
4572.6, -3.692e-08
4574.6, -3.801e-08
4576.6, -4.144e-08
4578.6, -4.135e-08
4580.6, -3.951e-08
4582.6, -3.878e-08
4584.6, -4.122e-08
4586.6, -3.741e-08
4588.6, -3.935e-08
4590.6, -3.95e-08
4592.6, -4.381e-08
4594.6, -4.269e-08
4596.6, -4.545e-08
4598.6, -4.092e-08
4600.6, -4.184e-08
4602.6, -4.203e-08
4604.6, -4.208e-08
4606.6, -4.305e-08
4608.6, -4.386e-08
4610.6, -4.196e-08
4612.6, -3.972e-08
4614.6, -3.699e-08
4616.6, -4.005e-08
4618.6, -4.016e-08
4620.6, -4.212e-08
4622.6, -3.738e-08
4624.6, -3.846e-08
4626.6, -4.146e-08
4628.6, -4.326e-08
4630.6, -3.867e-08
4632.6, -4.258e-08
4634.6, -4.302e-08
4636.6, -3.986e-08
4638.6, -4.22e-08
4640.6, -3.963e-08
4642.6, -3.74e-08
4644.6, -3.736e-08
4646.6, -4.119e-08
4648.6, -4.076e-08
4650.6, -3.742e-08
4652.6, -3.881e-08
4654.6, -4.223e-08
4656.7, -4.129e-08
4658.7, -3.726e-08
4660.7, -3.902e-08
4662.7, -4.327e-08
4664.7, -4.072e-08
4666.7, -4.38e-08
4668.7, -4.447e-08
4670.7, -4.549e-08
4672.7, -4.265e-08
4674.7, -4.125e-08
4676.7, -4.079e-08
4678.7, -3.982e-08
4680.7, -4.23e-08
4682.7, -4.056e-08
4684.7, -4.278e-08
4686.7, -4.224e-08
4688.7, -3.742e-08
4690.7, -4.271e-08
4692.7, -3.731e-08
4694.7, -3.959e-08
4696.7, -4.3e-08
4698.7, -3.971e-08
4700.7, -3.738e-08
4702.7, -3.804e-08
4704.7, -3.695e-08
4706.7, -3.616e-08
4708.7, -3.666e-08
4710.7, -3.893e-08
4712.7, -3.808e-08
4714.7, -3.968e-08
4716.7, -3.967e-08
4718.7, -3.786e-08
4720.7, -3.784e-08
4722.7, -4.217e-08
4724.7, -3.279e-08
4726.7, -3.499e-08
4728.7, -3.496e-08
4730.7, -3.72e-08
4732.7, -3.2e-08
4734.7, -3.825e-08
4736.7, -3.672e-08
4738.7, -3.784e-08
4740.7, -4.021e-08
4742.7, -3.905e-08
4744.7, -3.494e-08
4746.7, -3.403e-08
4748.7, -3.717e-08
4750.7, -3.845e-08
4752.7, -3.496e-08
4754.7, -3.436e-08
4756.8, -3.922e-08
4758.8, -3.966e-08
4760.8, -3.948e-08
4762.8, -4.047e-08
4764.8, -4.069e-08
4766.8, -3.644e-08
4768.8, -3.999e-08
4770.8, -3.762e-08
4772.8, -3.924e-08
4774.8, -3.693e-08
4776.8, -4.171e-08
4778.8, -4.228e-08
4780.8, -3.965e-08
4782.8, -4.103e-08
4784.8, -4.009e-08
4786.8, -3.692e-08
4788.8, -4.007e-08
4790.8, -3.912e-08
4792.8, -3.952e-08
4794.8, -3.72e-08
4796.8, -3.983e-08
4798.8, -4e-08
4800.8, -4.221e-08
4802.8, -3.913e-08
4804.8, -3.627e-08
4806.8, -4.03e-08
4808.8, -3.919e-08
4810.8, -3.824e-08
4812.8, -3.962e-08
4814.8, -4.272e-08
4816.8, -4.116e-08
4818.8, -4.001e-08
4820.8, -3.75e-08
4822.8, -3.959e-08
4824.8, -3.831e-08
4826.8, -3.862e-08
4828.8, -3.943e-08
4830.8, -3.877e-08
4832.8, -3.216e-08
4834.8, -3.931e-08
4836.8, -4.084e-08
4838.8, -3.701e-08
4840.8, -3.821e-08
4842.8, -3.905e-08
4844.8, -3.665e-08
4846.8, -4.162e-08
4848.8, -3.89e-08
4850.8, -4.322e-08
4852.8, -4.084e-08
4854.8, -4.212e-08
4856.9, -3.906e-08
4858.9, -4.454e-08
4860.9, -3.907e-08
4862.9, -3.92e-08
4864.9, -3.756e-08
4866.9, -3.812e-08
4868.9, -3.604e-08
4870.9, -4.042e-08
4872.9, -4.102e-08
4874.9, -3.758e-08
4876.9, -4.181e-08
4878.9, -4.345e-08
4880.9, -4.205e-08
4882.9, -4.172e-08
4884.9, -4.065e-08
4886.9, -4.148e-08
4888.9, -3.537e-08
4890.9, -4.019e-08
4892.9, -4.109e-08
4894.9, -3.903e-08
4896.9, -4.033e-08
4898.9, -3.846e-08
4900.9, -4.14e-08
4902.9, -3.987e-08
4904.9, -3.678e-08
4906.9, -4.066e-08
4908.9, -3.965e-08
4910.9, -3.735e-08
4912.9, -3.503e-08
4914.9, -3.536e-08
4916.9, -4.016e-08
4918.9, -4.015e-08
4920.9, -3.738e-08
4922.9, -4.219e-08
4924.9, -3.939e-08
4926.9, -4.162e-08
4928.9, -4.227e-08
4930.9, -4.062e-08
4932.9, -3.77e-08
4934.9, -3.465e-08
4936.9, -3.807e-08
4938.9, -3.596e-08
4940.9, -4.048e-08
4942.9, -3.962e-08
4944.9, -4.075e-08
4946.9, -3.622e-08
4948.9, -3.942e-08
4950.9, -3.957e-08
4952.9, -3.829e-08
4954.9, -4.026e-08
4957.0, -3.988e-08
4959.0, -3.669e-08
4961.0, -3.273e-08
4963.0, -3.763e-08
4965.0, -3.809e-08
4967.0, -3.817e-08
4969.0, -4.138e-08
4971.0, -3.98e-08
4973.0, -4.133e-08
4975.0, -3.767e-08
4977.0, -4.007e-08
4979.0, -3.758e-08
4981.0, -3.625e-08
4983.0, -4.077e-08
4985.0, -3.527e-08
4987.0, -3.691e-08
4989.0, -3.622e-08
4991.0, -3.51e-08
4993.0, -3.669e-08
4995.0, -3.593e-08
4997.0, -3.31e-08
4999.0, -3.615e-08
5001.0, -3.677e-08
5003.0, -3.677e-08
5005.0, -3.484e-08
5007.0, -3.85e-08
5009.0, -3.745e-08
5011.0, -3.65e-08
5013.0, -3.659e-08
5015.0, -3.657e-08
5017.0, -3.387e-08
5019.0, -3.797e-08
5021.0, -3.786e-08
5023.0, -3.502e-08
5025.0, -3.829e-08
5027.0, -3.995e-08
5029.0, -4.105e-08
5031.0, -3.928e-08
5033.0, -3.597e-08
5035.0, -3.505e-08
5037.0, -3.717e-08
5039.0, -4.143e-08
5041.0, -4.126e-08
5043.0, -4.28e-08
5045.0, -4.583e-08
5047.0, -4.27e-08
5049.0, -4.389e-08
5051.0, -4.06e-08
5053.0, -3.95e-08
5055.0, -3.599e-08
5057.1, -3.975e-08
5059.1, -4.044e-08
5061.1, -3.883e-08
5063.1, -3.76e-08
5065.1, -3.805e-08
5067.1, -3.97e-08
5069.1, -3.717e-08
5071.1, -3.832e-08
5073.1, -4.058e-08
5075.1, -3.695e-08
5077.1, -4.348e-08
5079.1, -4.189e-08
5081.1, -4.188e-08
5083.1, -4.239e-08
5085.1, -4.333e-08
5087.1, -4.193e-08
5089.1, -4.522e-08
5091.1, -4.03e-08
5093.1, -4.063e-08
5095.1, -3.971e-08
5097.1, -3.783e-08
5099.1, -3.88e-08
5101.1, -3.519e-08
5103.1, -3.97e-08
5105.1, -4.103e-08
5107.1, -4.401e-08
5109.1, -3.836e-08
5111.1, -4.116e-08
5113.1, -3.71e-08
5115.1, -3.896e-08
5117.1, -4.106e-08
5119.1, -3.886e-08
5121.1, -3.88e-08
5123.1, -3.646e-08
5125.1, -3.849e-08
5127.1, -3.837e-08
5129.1, -3.664e-08
5131.1, -3.77e-08
5133.1, -3.788e-08
5135.1, -3.876e-08
5137.1, -4.213e-08
5139.1, -3.784e-08
5141.1, -3.765e-08
5143.1, -3.753e-08
5145.1, -3.743e-08
5147.1, -3.852e-08
5149.1, -3.842e-08
5151.1, -3.825e-08
5153.1, -3.742e-08
5155.1, -3.7e-08
5157.2, -3.848e-08
5159.2, -3.577e-08
5161.2, -3.949e-08
5163.2, -3.919e-08
5165.2, -4.27e-08
5167.2, -3.735e-08
5169.2, -4.09e-08
5171.2, -3.455e-08
5173.2, -3.272e-08
5175.2, -3.555e-08
5177.2, -3.599e-08
5179.2, -3.699e-08
5181.2, -3.325e-08
5183.2, -3.62e-08
5185.2, -4.328e-08
5187.2, -3.999e-08
5189.2, -4.288e-08
5191.2, -3.772e-08
5193.2, -3.657e-08
5195.2, -4.011e-08
5197.2, -4.042e-08
5199.2, -3.647e-08
5201.2, -3.96e-08
5203.2, -3.567e-08
5205.2, -3.899e-08
5207.2, -3.604e-08
5209.2, -4.138e-08
5211.2, -3.855e-08
5213.2, -4.057e-08
5215.2, -3.97e-08
5217.2, -4.297e-08
5219.2, -4.043e-08
5221.2, -4.271e-08
5223.2, -4.027e-08
5225.2, -4.147e-08
5227.2, -4.186e-08
5229.2, -3.934e-08
5231.2, -3.809e-08
5233.2, -4.158e-08
5235.2, -4.117e-08
5237.2, -4.328e-08
5239.2, -4.455e-08
5241.2, -4.707e-08
5243.2, -4.061e-08
5245.2, -4.374e-08
5247.2, -4.308e-08
5249.2, -4.346e-08
5251.2, -4.216e-08
5253.2, -4.149e-08
5255.2, -4.398e-08
5257.3, -4.249e-08
5259.3, -4.198e-08
5261.3, -4.238e-08
5263.3, -4.179e-08
5265.3, -4.035e-08
5267.3, -3.92e-08
5269.3, -3.823e-08
5271.3, -4.008e-08
5273.3, -3.693e-08
5275.3, -3.345e-08
5277.3, -3.964e-08
5279.3, -4.029e-08
5281.3, -3.973e-08
5283.3, -3.771e-08
5285.3, -3.938e-08
5287.3, -3.773e-08
5289.3, -3.873e-08
5291.3, -4.19e-08
5293.3, 8.0466e-07
5295.3, 1.3361e-06
5297.3, 1.365e-06
5299.3, 1.2483e-06
5301.3, 1.7451e-06
5303.3, 1.4305e-06
5305.3, 1.7913e-06
5307.3, 1.3872e-06
5309.3, 1.6927e-06
5311.3, 1.8012e-06
5313.3, 1.9675e-06
5315.3, 1.4528e-06
5317.3, 1.5985e-06
5319.3, 1.7586e-06
5321.3, 1.5478e-06
5323.3, 1.4934e-06
5325.3, 1.6623e-06
5327.3, 1.6346e-06
5329.3, 1.6952e-06
5331.3, 1.701e-06
5333.3, 1.648e-06
5335.3, 1.7059e-06
5337.3, 1.9548e-06
5339.3, 1.744e-06
5341.3, 2.0099e-06
5343.3, 1.6677e-06
5345.3, 1.9676e-06
5347.3, 1.6663e-06
5349.3, 1.5189e-06
5351.3, 1.5859e-06
5353.3, 1.373e-06
5355.3, 1.652e-06
5357.4, 1.5285e-06
5359.4, 1.582e-06
5361.4, 1.7654e-06
5363.4, 1.7478e-06
5365.4, 1.9969e-06
5367.4, 1.9318e-06
5369.4, 1.7914e-06
5371.4, 1.5855e-06
5373.4, 1.8516e-06
5375.4, 1.8432e-06
5377.4, 1.4761e-06
5379.4, 1.7402e-06
5381.4, 1.4569e-06
5383.4, 1.752e-06
5385.4, 1.8165e-06
5387.4, 1.7537e-06
5389.4, 1.8195e-06
5391.4, 2.2499e-06
5393.4, 1.7059e-06
5395.4, 1.7527e-06
5397.4, 1.7059e-06
5399.4, 1.7029e-06
5401.4, 1.5682e-06
5403.4, 1.6248e-06
5405.4, 1.6873e-06
5407.4, 1.9084e-06
5409.4, 1.4462e-06
5411.4, 1.8002e-06
5413.4, 1.7184e-06
5415.4, 1.7905e-06
5417.4, 1.6007e-06
5419.4, 2.0287e-06
5421.4, 2.0353e-06
5423.4, 2.0388e-06
5425.4, 1.6514e-06
5427.4, 1.7803e-06
5429.4, 1.8844e-06
5431.4, 1.6777e-06
5433.4, 1.7122e-06
5435.4, 1.8116e-06
5437.4, 1.7591e-06
5439.4, 1.8922e-06
5441.4, 1.8381e-06
5443.4, 1.7401e-06
5445.4, 2.0011e-06
5447.4, 1.9373e-06
5449.4, 1.7292e-06
5451.4, 1.7115e-06
5453.4, 1.6728e-06
5455.4, 2.1599e-06
5457.5, 1.6493e-06
5459.5, 1.4651e-06
5461.5, 1.9082e-06
5463.5, 2.0562e-06
5465.5, 1.8696e-06
5467.5, 1.906e-06
5469.5, 2.054e-06
5471.5, 1.8411e-06
5473.5, 2.1289e-06
5475.5, 2.0073e-06
5477.5, 1.5785e-06
5479.5, 1.7583e-06
5481.5, 1.7794e-06
5483.5, 2.0232e-06
5485.5, 1.9753e-06
5487.5, 2.104e-06
5489.5, 1.7189e-06
5491.5, 1.9437e-06
5493.5, 1.8915e-06
5495.5, 1.6825e-06
5497.5, 1.9824e-06
5499.5, 1.7227e-06
5501.5, 1.9126e-06
5503.5, 1.9277e-06
5505.5, 1.9791e-06
5507.5, 1.6515e-06
5509.5, 2.0536e-06
5511.5, 1.7754e-06
5513.5, 1.7709e-06
5515.5, 2.3406e-06
5517.5, 1.8739e-06
5519.5, 1.912e-06
5521.5, 2.3287e-06
5523.5, 1.6616e-06
5525.5, 1.8649e-06
5527.5, 1.7532e-06
5529.5, 1.9971e-06
5531.5, 1.9319e-06
5533.5, 1.7218e-06
5535.5, 1.8191e-06
5537.5, 1.788e-06
5539.5, 1.9845e-06
5541.5, 1.9304e-06
5543.5, 1.7506e-06
5545.5, 1.9292e-06
5547.5, 1.9994e-06
5549.5, 1.8287e-06
5551.5, 2.3513e-06
5553.5, 1.7715e-06
5555.5, 1.8829e-06
5557.6, 1.8403e-06
5559.6, 1.9306e-06
5561.6, 1.842e-06
5563.6, 2.0599e-06
5565.6, 1.6749e-06
5567.6, 1.7312e-06
5569.6, 1.8583e-06
5571.6, 1.848e-06
5573.6, 1.7564e-06
5575.6, 2.2059e-06
5577.6, 1.8596e-06
5579.6, 2.0487e-06
5581.6, 1.9578e-06
5583.6, 2.105e-06
5585.6, 1.9447e-06
5587.6, 1.8767e-06
5589.6, 1.6701e-06
5591.6, 1.6787e-06
5593.6, 2.0263e-06
5595.6, 1.8323e-06
5597.6, 2.1283e-06
5599.6, 2.1766e-06
5601.6, 1.5675e-06
5603.6, 1.7299e-06
5605.6, 1.5926e-06
5607.6, 1.8097e-06
5609.6, 2.143e-06
5611.6, 1.8453e-06
5613.6, 1.8314e-06
5615.6, 2.306e-06
5617.6, 1.9244e-06
5619.6, 2.1531e-06
5621.6, 1.7847e-06
5623.6, 1.9397e-06
5625.6, 2.0955e-06
5627.6, 1.9723e-06
5629.6, 1.9057e-06
5631.6, 1.9711e-06
5633.6, 1.9404e-06
5635.6, 1.7153e-06
5637.6, 1.7815e-06
5639.6, 2.0434e-06
5641.6, 2.0297e-06
5643.6, 1.9486e-06
5645.6, 1.7108e-06
5647.6, 2.0214e-06
5649.6, 2.1178e-06
5651.6, 2.1223e-06
5653.6, 2.0967e-06
5655.6, 1.8176e-06
5657.7, 1.958e-06
5659.7, 2.3003e-06
5661.7, 1.9298e-06
5663.7, 2.0236e-06
5665.7, 1.9388e-06
5667.7, 1.871e-06
5669.7, 2.0088e-06
5671.7, 1.7825e-06
5673.7, 2.2962e-06
5675.7, 2.1886e-06
5677.7, 2.1446e-06
5679.7, 2.0601e-06
5681.7, 1.9282e-06
5683.7, 1.8153e-06
5685.7, 2.088e-06
5687.7, 1.7209e-06
5689.7, 1.7677e-06
5691.7, 1.8785e-06
5693.7, 2.0051e-06
5695.7, 2.0707e-06
5697.7, 2.0545e-06
5699.7, 1.7327e-06
5701.7, 2.0412e-06
5703.7, 1.9768e-06
5705.7, 2.0523e-06
5707.7, 1.9403e-06
5709.7, 1.7297e-06
5711.7, 1.9035e-06
5713.7, 2.0293e-06
5715.7, 2.4125e-06
5717.7, 1.8751e-06
5719.7, 2.229e-06
5721.7, 2.1671e-06
5723.7, 2.0623e-06
5725.7, 1.8812e-06
5727.7, 2.1358e-06
5729.7, 2.0387e-06
5731.7, 1.8251e-06
5733.7, 2.0072e-06
5735.7, 1.7811e-06
5737.7, 1.7966e-06
5739.7, 2.1147e-06
5741.7, 1.8838e-06
5743.7, 1.9059e-06
5745.7, 1.8805e-06
5747.7, 2.1733e-06
5749.7, 1.9061e-06
5751.7, 1.9907e-06
5753.7, 1.5747e-06
5755.7, 2.1386e-06
5757.8, 2.105e-06
5759.8, 1.8924e-06
5761.8, 1.9018e-06
5763.8, 1.9413e-06
5765.8, 2.0428e-06
5767.8, 1.7982e-06
5769.8, 2.1569e-06
5771.8, 2.4268e-06
5773.8, 1.8566e-06
5775.8, 1.7961e-06
5777.8, 2.1286e-06
5779.8, 2.4558e-06
5781.8, 1.7083e-06
5783.8, 2.0193e-06
5785.8, 2.1629e-06
5787.8, 2.1226e-06
5789.8, 1.9771e-06
5791.8, 1.5526e-06
5793.8, 1.9176e-06
5795.8, 2.0913e-06
5797.8, 1.6263e-06
5799.8, 2.1172e-06
5801.8, 2.2506e-06
5803.8, 1.9523e-06
5805.8, 2.286e-06
5807.8, 1.9593e-06
5809.8, 1.9443e-06
5811.8, 2.1019e-06
5813.8, 2.0735e-06
5815.8, 1.8653e-06
5817.8, 1.9622e-06
5819.8, 2.2174e-06
5821.8, 2.0911e-06
5823.8, 1.8969e-06
5825.8, 2.4215e-06
5827.8, 1.7748e-06
5829.8, 1.9208e-06
5831.8, 2.1238e-06
5833.8, 2.1175e-06
5835.8, 2.022e-06
5837.8, 2.0409e-06
5839.8, 2.0753e-06
5841.8, 1.8364e-06
5843.8, 2.3715e-06
5845.8, 2.1214e-06
5847.8, 2.0031e-06
5849.8, 1.9238e-06
5851.8, 2.0147e-06
5853.8, 2.0914e-06
5855.8, 2.0169e-06
5857.9, 2.1923e-06
5859.9, 1.8345e-06
5861.9, 2.0772e-06
5863.9, 1.9823e-06
5865.9, 2.0587e-06
5867.9, 1.7721e-06
5869.9, 1.9327e-06
5871.9, 2.0113e-06
5873.9, 2.1195e-06
5875.9, 1.8732e-06
5877.9, 2.3077e-06
5879.9, 1.8565e-06
5881.9, 1.8248e-06
5883.9, 2.0329e-06
5885.9, 1.9825e-06
5887.9, 1.9801e-06
5889.9, 1.8749e-06
5891.9, 2.291e-06
5893.9, 1.8517e-06
5895.9, 2.0898e-06
5897.9, 2.3738e-06
5899.9, 1.681e-06
5901.9, 2.0481e-06
5903.9, 2.0274e-06
5905.9, 2.1116e-06
5907.9, 2.1418e-06
5909.9, 2.1566e-06
5911.9, 1.6983e-06
5913.9, 1.7744e-06
5915.9, 2.1846e-06
5917.9, 1.9905e-06
5919.9, 2.293e-06
5921.9, 2.0218e-06
5923.9, 1.598e-06
5925.9, 2.2639e-06
5927.9, 2.1033e-06
5929.9, 1.7388e-06
5931.9, 2.1669e-06
5933.9, 1.9636e-06
5935.9, 2.3975e-06
5937.9, 2.1163e-06
5939.9, 1.561e-06
5941.9, 2.1276e-06
5943.9, 2.3825e-06
5945.9, 2.0413e-06
5947.9, 2.1036e-06
5949.9, 1.8837e-06
5951.9, 2.2654e-06
5953.9, 1.9549e-06
5955.9, 1.936e-06
5958.0, 2.2748e-06
5960.0, 2.03e-06
5962.0, 2.6083e-06
5964.0, 2.3177e-06
5966.0, 2.1778e-06
5968.0, 1.7211e-06
5970.0, 1.6188e-06
5972.0, 1.9021e-06
5974.0, 1.8985e-06
5976.0, 2.1704e-06
5978.0, 2.3283e-06
5980.0, 1.694e-06
5982.0, 2.0993e-06
5984.0, 1.8876e-06
5986.0, 1.8263e-06
5988.0, 1.983e-06
5990.0, 1.7278e-06
5992.0, 2.4003e-06
5994.0, 2.1368e-06
5996.0, 2.0128e-06
5998.0, 2.3279e-06
6000.0, 1.747e-06
6002.0, 1.8898e-06
6004.0, 1.6979e-06
6006.0, 1.911e-06
6008.0, 2.1438e-06
6010.0, 2.3014e-06
6012.0, 1.908e-06
6014.0, 1.7034e-06
6016.0, 1.8368e-06
6018.0, 2.2219e-06
6020.0, 2.2703e-06
6022.0, 2.0662e-06
6024.0, 1.7953e-06
6026.0, 1.9575e-06
6028.0, 2.1541e-06
6030.0, 2.1448e-06
6032.0, 2.1927e-06
6034.0, 1.9814e-06
6036.0, 2.1674e-06
6038.0, 2.2573e-06
6040.0, 1.9805e-06
6042.0, 2.252e-06
6044.0, 1.9952e-06
6046.0, 1.8875e-06
6048.0, 2.0621e-06
6050.0, 2.3867e-06
6052.0, 1.8332e-06
6054.0, 1.9254e-06
6056.0, 1.9722e-06
6058.1, 2.2812e-06
6060.1, 2.3086e-06
6062.1, 2.3053e-06
6064.1, 1.7489e-06
6066.1, 1.6977e-06
6068.1, 1.9923e-06
6070.1, 2.0866e-06
6072.1, 2.1365e-06
6074.1, 2.2024e-06
6076.1, 2.1803e-06
6078.1, 2.292e-06
6080.1, 2.085e-06
6082.1, 2.194e-06
6084.1, 1.9057e-06
6086.1, 1.7271e-06
6088.1, 1.9272e-06
6090.1, 2.2159e-06
6092.1, 2.5049e-06
6094.1, 2.1722e-06
6096.1, 2.3305e-06
6098.1, 1.7727e-06
6100.1, 1.5978e-06
6102.1, 2.0307e-06
6104.1, 1.9529e-06
6106.1, 2.1443e-06
6108.1, 2.1678e-06
6110.1, 2.1031e-06
6112.1, 2.339e-06
6114.1, 2.2612e-06
6116.1, 1.7272e-06
6118.1, 2.1259e-06
6120.1, 1.8166e-06
6122.1, 2.2454e-06
6124.1, 1.8929e-06
6126.1, 2.2157e-06
6128.1, 2.1134e-06
6130.1, 2.3293e-06
6132.1, 2.1315e-06
6134.1, 1.9279e-06
6136.1, 2.0476e-06
6138.1, 1.9524e-06
6140.1, 2.1896e-06
6142.1, 1.9167e-06
6144.1, 2.2824e-06
6146.1, 2.1496e-06
6148.1, 1.9819e-06
6150.1, 2.124e-06
6152.1, 2.4606e-06
6154.1, 2.1269e-06
6156.1, 1.9581e-06
6158.2, 1.9027e-06
6160.2, 2.1442e-06
6162.2, 2.0492e-06
6164.2, 1.8831e-06
6166.2, 2.148e-06
6168.2, 2.069e-06
6170.2, 1.965e-06
6172.2, 2.4032e-06
6174.2, 1.9321e-06
6176.2, 2.01e-06
6178.2, 2.1673e-06
6180.2, 1.9935e-06
6182.2, 1.8471e-06
6184.2, 2.1541e-06
6186.2, 1.7868e-06
6188.2, 1.8413e-06
6190.2, 2.2786e-06
6192.2, 1.5856e-06
6194.2, 2.0423e-06
6196.2, 1.9031e-06
6198.2, 2.1164e-06
6200.2, 2.0026e-06
6202.2, 2.3079e-06
6204.2, 1.9743e-06
6206.2, 2.231e-06
6208.2, 2.0334e-06
6210.2, 2.2445e-06
6212.2, 1.9617e-06
6214.2, 2.1034e-06
6216.2, 2.1994e-06
6218.2, 2.2441e-06
6220.2, 1.9315e-06
6222.2, 1.8427e-06
6224.2, 2.3972e-06
6226.2, 1.8605e-06
6228.2, 1.7561e-06
6230.2, 1.9905e-06
6232.2, 1.826e-06
6234.2, 2.1665e-06
6236.2, 1.6162e-06
6238.2, 1.9739e-06
6240.2, 1.9488e-06
6242.2, 2.2797e-06
6244.2, 2.2849e-06
6246.2, 2.1207e-06
6248.2, 2.1202e-06
6250.2, 1.6536e-06
6252.2, 2.2359e-06
6254.2, 2.0621e-06
6256.2, 2.0154e-06
6258.3, 2.1271e-06
6260.3, 1.9441e-06
6262.3, 1.9758e-06
6264.3, 1.9765e-06
6266.3, 1.8753e-06
6268.3, 2.0592e-06
6270.3, 2.2033e-06
6272.3, 1.7396e-06
6274.3, 1.9681e-06
6276.3, 2.0856e-06
6278.3, 2.0807e-06
6280.3, 2.0321e-06
6282.3, 2.2839e-06
6284.3, 2.0388e-06
6286.3, 2.2471e-06
6288.3, 2.165e-06
6290.3, 1.7085e-06
6292.3, 2.2715e-06
6294.3, 1.0603e-06
6296.3, -3.628e-08
6298.3, -4.367e-08
6300.3, -4.167e-08
6302.3, -3.516e-08
6304.3, -3.77e-08
6306.3, -3.48e-08
6308.3, -3.763e-08
6310.3, -3.719e-08
6312.3, -3.579e-08
6314.3, -3.776e-08
6316.3, -3.963e-08
6318.3, -3.723e-08
6320.3, -4.126e-08
6322.3, -3.779e-08
6324.3, -3.965e-08
6326.3, -4.204e-08
6328.3, -3.522e-08
6330.3, -3.958e-08
6332.3, -3.833e-08
6334.3, -3.785e-08
6336.3, -3.729e-08
6338.3, -3.943e-08
6340.3, -3.724e-08
6342.3, -3.718e-08
6344.3, -3.754e-08
6346.3, -3.746e-08
6348.3, -3.903e-08
6350.3, -3.071e-08
6352.3, -3.747e-08
6354.3, -3.203e-08
6356.3, -3.871e-08
6358.4, -3.53e-08
6360.4, -3.782e-08
6362.4, -4.124e-08
6364.4, -3.956e-08
6366.4, -3.542e-08
6368.4, -3.987e-08
6370.4, -3.199e-08
6372.4, -3.253e-08
6374.4, -3.605e-08
6376.4, -3.535e-08
6378.4, -3.826e-08
6380.4, -4.024e-08
6382.4, -3.974e-08
6384.4, -3.989e-08
6386.4, -3.603e-08
6388.4, -3.467e-08
6390.4, -3.749e-08
6392.4, -3.592e-08
6394.4, -3.727e-08
6396.4, -3.734e-08
6398.4, -3.377e-08
6400.4, -3.482e-08
6402.4, -3.95e-08
6404.4, -3.631e-08
6406.4, -3.773e-08
6408.4, -3.342e-08
6410.4, -3.741e-08
6412.4, -3.99e-08
6414.4, -3.56e-08
6416.4, -3.609e-08
6418.4, -3.821e-08
6420.4, -3.508e-08
6422.4, -3.613e-08
6424.4, -3.666e-08
6426.4, -3.53e-08
6428.4, -3.867e-08
6430.4, -4.245e-08
6432.4, -3.938e-08
6434.4, -3.747e-08
6436.4, -3.733e-08
6438.4, -3.745e-08
6440.4, -3.697e-08
6442.4, -3.712e-08
6444.4, -3.94e-08
6446.4, -3.689e-08
6448.4, -4.004e-08
6450.4, -4.268e-08
6452.4, -4.234e-08
6454.4, -4.077e-08
6456.4, -4.316e-08
6458.5, -4.033e-08
6460.5, -4.06e-08
6462.5, -3.74e-08
6464.5, -4.173e-08
6466.5, -4.392e-08
6468.5, -4.107e-08
6470.5, -4.024e-08
6472.5, -3.976e-08
6474.5, -3.441e-08
6476.5, -3.964e-08
6478.5, -3.784e-08
6480.5, -3.336e-08
6482.5, -3.768e-08
6484.5, -3.533e-08
6486.5, -3.965e-08
6488.5, -4.133e-08
6490.5, -4.39e-08
6492.5, -3.797e-08
6494.5, -3.929e-08
6496.5, -4.151e-08
6498.5, -4.079e-08
6500.5, -4.227e-08
6502.5, -4.334e-08
6504.5, -4.049e-08
6506.5, -4.18e-08
6508.5, -3.955e-08
6510.5, -4.491e-08
6512.5, -4.516e-08
6514.5, -3.825e-08
6516.5, -4.291e-08
6518.5, -4.585e-08
6520.5, -4.147e-08
6522.5, -4.311e-08
6524.5, -4.22e-08
6526.5, -4.052e-08
6528.5, -4.725e-08
6530.5, -3.978e-08
6532.5, -4.172e-08
6534.5, -4.002e-08
6536.5, -3.944e-08
6538.5, -3.955e-08
6540.5, -3.8e-08
6542.5, -3.545e-08
6544.5, -3.742e-08
6546.5, -3.655e-08
6548.5, -3.665e-08
6550.5, -3.624e-08
6552.5, -3.455e-08
6554.5, -3.907e-08
6556.5, -3.937e-08
6558.6, -3.912e-08
6560.6, -3.91e-08
6562.6, -4.134e-08
6564.6, -3.85e-08
6566.6, -3.657e-08
6568.6, -4.007e-08
6570.6, -3.72e-08
6572.6, -4.17e-08
6574.6, -3.726e-08
6576.6, -3.795e-08
6578.6, -4.016e-08
6580.6, -3.871e-08
6582.6, -3.363e-08
6584.6, -3.839e-08
6586.6, -3.938e-08
6588.6, -3.807e-08
6590.6, -3.7e-08
6592.6, -3.942e-08
6594.6, -3.784e-08
6596.6, -4.024e-08
6598.6, -3.886e-08
6600.6, -4.196e-08
6602.6, -3.7e-08
6604.6, -4.099e-08
6606.6, -4.139e-08
6608.6, -4.253e-08
6610.6, -3.88e-08
6612.6, -3.944e-08
6614.6, -3.861e-08
6616.6, -3.902e-08
6618.6, -4.098e-08
6620.6, -3.885e-08
6622.6, -3.75e-08
6624.6, -4.247e-08
6626.6, -3.795e-08
6628.6, -4.069e-08
6630.6, -3.842e-08
6632.6, -3.901e-08
6634.6, -3.59e-08
6636.6, -3.95e-08
6638.6, -3.974e-08
6640.6, -4.011e-08
6642.6, -3.704e-08
6644.6, -3.656e-08
6646.6, -4.012e-08
6648.6, -4.04e-08
6650.6, -4.142e-08
6652.6, -3.813e-08
6654.6, -3.74e-08
6656.6, -4.4e-08
6658.7, -4.105e-08
6660.7, -3.931e-08
6662.7, -4.082e-08
6664.7, -3.961e-08
6666.7, -3.972e-08
6668.7, -4.265e-08
6670.7, -4.249e-08
6672.7, -4.091e-08
6674.7, -3.939e-08
6676.7, -3.987e-08
6678.7, -3.963e-08
6680.7, -4.21e-08
6682.7, -3.823e-08
6684.7, -3.085e-08
6686.7, -3.643e-08
6688.7, -3.419e-08
6690.7, -3.491e-08
6692.7, -3.71e-08
6694.7, -3.578e-08
6696.7, -3.315e-08
6698.7, -3.814e-08
6700.7, -3.618e-08
6702.7, -3.701e-08
6704.7, -3.594e-08
6706.7, -3.521e-08
6708.7, -3.744e-08
6710.7, -3.865e-08
6712.7, -3.582e-08
6714.7, -3.387e-08
6716.7, -3.275e-08
6718.7, -3.616e-08
6720.7, -3.842e-08
6722.7, -3.678e-08
6724.7, -3.958e-08
6726.7, -3.61e-08
6728.7, -3.638e-08
6730.7, -3.721e-08
6732.7, -3.767e-08
6734.7, -3.578e-08
6736.7, -3.49e-08
6738.7, -4.03e-08
6740.7, -3.448e-08
6742.7, -3.387e-08
6744.7, -3.533e-08
6746.7, -4.1e-08
6748.7, -3.546e-08
6750.7, -3.51e-08
6752.7, -3.485e-08
6754.7, -3.824e-08
6756.7, -3.426e-08
6758.8, -3.69e-08
6760.8, -3.641e-08
6762.8, -3.777e-08
6764.8, -4.006e-08
6766.8, -3.339e-08
6768.8, -3.538e-08
6770.8, -3.895e-08
6772.8, -3.54e-08
6774.8, -3.73e-08
6776.8, -3.452e-08
6778.8, -3.473e-08
6780.8, -3.559e-08
6782.8, -3.655e-08
6784.8, -3.828e-08
6786.8, -3.691e-08
6788.8, -3.978e-08
6790.8, -3.784e-08
6792.8, -3.435e-08
6794.8, -3.785e-08
6796.8, -3.662e-08
6798.8, -3.471e-08
6800.8, -3.874e-08
6802.8, -3.421e-08
6804.8, -3.742e-08
6806.8, -3.658e-08
6808.8, -3.743e-08
6810.8, -3.767e-08
6812.8, -3.677e-08
6814.8, -3.622e-08
6816.8, -3.772e-08
6818.8, -3.97e-08
6820.8, -3.972e-08
6822.8, -3.939e-08
6824.8, -3.684e-08
6826.8, -4.051e-08
6828.8, -3.607e-08
6830.8, -3.945e-08
6832.8, -4.013e-08
6834.8, -4.207e-08
6836.8, -4.064e-08
6838.8, -4.117e-08
6840.8, -4.119e-08
6842.8, -3.904e-08
6844.8, -3.888e-08
6846.8, -4.082e-08
6848.8, -4.084e-08
6850.8, -4.191e-08
6852.8, -3.745e-08
6854.8, -3.844e-08
6856.8, -3.826e-08
6858.9, -3.934e-08
6860.9, -4.223e-08
6862.9, -4.132e-08
6864.9, -3.89e-08
6866.9, -3.868e-08
6868.9, -4.302e-08
6870.9, -4.286e-08
6872.9, -4.032e-08
6874.9, -4.224e-08
6876.9, -4.256e-08
6878.9, -4.222e-08
6880.9, -4.161e-08
6882.9, -4.344e-08
6884.9, -4.31e-08
6886.9, -4.273e-08
6888.9, -4.156e-08
6890.9, -4.167e-08
6892.9, -3.695e-08
6894.9, -4.15e-08
6896.9, -4.121e-08
6898.9, -4.402e-08
6900.9, -4.261e-08
6902.9, -4.037e-08
6904.9, -3.999e-08
6906.9, -4.68e-08
6908.9, -4.534e-08
6910.9, -4.074e-08
6912.9, -4.345e-08
6914.9, -4.42e-08
6916.9, -3.919e-08
6918.9, -3.759e-08
6920.9, -3.852e-08
6922.9, -3.612e-08
6924.9, -3.707e-08
6926.9, -3.596e-08
6928.9, -3.842e-08
6930.9, -4.069e-08
6932.9, -3.907e-08
6934.9, -3.947e-08
6936.9, -3.951e-08
6938.9, -3.687e-08
6940.9, -4.134e-08
6942.9, -3.842e-08
6944.9, -3.833e-08
6946.9, -4.087e-08
6948.9, -4.281e-08
6950.9, -3.787e-08
6952.9, -3.669e-08
6954.9, -3.713e-08
6956.9, -3.651e-08
6959.0, -3.967e-08
6961.0, -3.577e-08
6963.0, -3.069e-08
6965.0, -3.677e-08
6967.0, -3.396e-08
6969.0, -3.906e-08
6971.0, -3.788e-08
6973.0, -3.736e-08
6975.0, -3.835e-08
6977.0, -3.938e-08
6979.0, -4.068e-08
6981.0, -4.087e-08
6983.0, -3.838e-08
6985.0, -3.658e-08
6987.0, -3.332e-08
6989.0, -3.716e-08
6991.0, -4.222e-08
6993.0, -4.117e-08
6995.0, -3.863e-08
6997.0, -4.013e-08
6999.0, -4.033e-08
7001.0, -3.79e-08
7003.0, -3.91e-08
7005.0, -3.797e-08
7007.0, -4.178e-08
7009.0, -3.714e-08
7011.0, -3.598e-08
7013.0, -3.894e-08
7015.0, -3.91e-08
7017.0, -3.663e-08
7019.0, -3.571e-08
7021.0, -3.76e-08
7023.0, -3.648e-08
7025.0, -3.44e-08
7027.0, -3.65e-08
7029.0, -3.907e-08
7031.0, -3.657e-08
7033.0, -3.524e-08
7035.0, -3.819e-08
7037.0, -3.646e-08
7039.0, -3.678e-08
7041.0, -3.895e-08
7043.0, -3.737e-08
7045.0, -3.588e-08
7047.0, -3.488e-08
7049.0, -4.052e-08
7051.0, -3.82e-08
7053.0, -3.742e-08
7055.0, -3.491e-08
7057.0, -3.852e-08
7059.1, -4.004e-08
7061.1, -3.619e-08
7063.1, -3.392e-08
7065.1, -3.134e-08
7067.1, -3.076e-08
7069.1, -3.114e-08
7071.1, -3.755e-08
7073.1, -3.457e-08
7075.1, -3.917e-08
7077.1, -3.577e-08
7079.1, -3.868e-08
7081.1, -3.859e-08
7083.1, -3.949e-08
7085.1, -4.152e-08
7087.1, -4.186e-08
7089.1, -3.823e-08
7091.1, -3.639e-08
7093.1, -3.632e-08
7095.1, -3.942e-08
7097.1, -4.059e-08
7099.1, -3.793e-08
7101.1, -3.943e-08
7103.1, -4.087e-08
7105.1, -3.775e-08
7107.1, -4.1e-08
7109.1, -4.059e-08
7111.1, -3.758e-08
7113.1, -3.52e-08
7115.1, -3.822e-08
7117.1, -4.43e-08
7119.1, -4.023e-08
7121.1, -3.848e-08
7123.1, -4.02e-08
7125.1, -3.606e-08
7127.1, -3.792e-08
7129.1, -3.807e-08
7131.1, -3.758e-08
7133.1, -3.966e-08
7135.1, -3.765e-08
7137.1, -3.806e-08
7139.1, -4.101e-08
7141.1, -3.774e-08
7143.1, -4.071e-08
7145.1, -3.873e-08
7147.1, -3.689e-08
7149.1, -3.877e-08
7151.1, -3.933e-08
7153.1, -3.871e-08
7155.1, -3.691e-08
7157.1, -3.919e-08
7159.2, -3.908e-08
7161.2, -3.89e-08
7163.2, -4.143e-08
7165.2, -3.914e-08
7167.2, -3.536e-08
7169.2, -3.64e-08
7171.2, -3.519e-08
7173.2, -3.638e-08
7175.2, -3.762e-08
7177.2, -3.927e-08
7179.2, -3.976e-08
7181.2, -4.537e-08
7183.2, -4.071e-08
7185.2, -3.926e-08
7187.2, -3.783e-08
7189.2, -3.799e-08
7191.2, -3.92e-08
7193.2, -4.154e-08
7195.2, -3.975e-08
7197.2, -4.044e-08
7199.2, -4.03e-08
7201.2, -4.248e-08
7203.2, -4.453e-08
7205.2, -4.029e-08
7207.2, -4.058e-08
7209.2, -4.141e-08
7211.2, -3.842e-08
7213.2, -3.459e-08
7215.2, -3.566e-08
7217.2, -3.725e-08
7219.2, -3.831e-08
7221.2, -3.781e-08
7223.2, -4.09e-08
7225.2, -3.828e-08
7227.2, -4.127e-08
7229.2, -3.971e-08
7231.2, -4.431e-08
7233.2, -3.742e-08
7235.2, -3.686e-08
7237.2, -4.319e-08
7239.2, -4.418e-08
7241.2, -4.183e-08
7243.2, -4.289e-08
7245.2, -4.042e-08
7247.2, -3.948e-08
7249.2, -4.076e-08
7251.2, -4.377e-08
7253.2, -4.396e-08
7255.2, -4.148e-08
7257.2, -4.08e-08
7259.3, -4.014e-08
7261.3, -4.233e-08
7263.3, -3.88e-08
7265.3, -4.079e-08
7267.3, -3.794e-08
7269.3, -3.927e-08
7271.3, -4.108e-08
7273.3, -4.243e-08
7275.3, -4.294e-08
7277.3, -3.843e-08
7279.3, -4.133e-08
7281.3, -4.123e-08
7283.3, -4.092e-08
7285.3, -4.164e-08
7287.3, -4.217e-08
7289.3, -4.189e-08
7291.3, -4.333e-08
7293.3, -4.184e-08
7295.3, -4.23e-08
7297.3, -5.137e-08
7299.3, -4.398e-08
7301.3, -3.891e-08
7303.3, -3.894e-08
7305.3, -4.054e-08
7307.3, -3.925e-08
7309.3, -4.031e-08
7311.3, -4.303e-08
7313.3, -3.739e-08
7315.3, -4.137e-08
7317.3, -4.324e-08
7319.3, -4.25e-08
7321.3, -3.954e-08
7323.3, -4.114e-08
7325.3, -3.997e-08
7327.3, -4.229e-08
7329.3, -4.096e-08
7331.3, -3.957e-08
7333.3, -3.818e-08
7335.3, -4.081e-08
7337.3, -4.195e-08
7339.3, -3.947e-08
7341.3, -4.34e-08
7343.3, -4.504e-08
7345.3, -4.466e-08
7347.3, -3.996e-08
7349.3, -4.155e-08
7351.3, -4.133e-08
7353.3, -4.19e-08
7355.3, -3.919e-08
7357.3, -3.979e-08
7359.4, -4.513e-08
7361.4, -3.81e-08
7363.4, -3.94e-08
7365.4, -3.746e-08
7367.4, -4.04e-08
7369.4, -4.099e-08
7371.4, -4.244e-08
7373.4, -4.075e-08
7375.4, -3.843e-08
7377.4, -4.178e-08
7379.4, -4.091e-08
7381.4, -3.831e-08
7383.4, -4.114e-08
7385.4, -3.947e-08
7387.4, -4.022e-08
7389.4, -4.404e-08
7391.4, 9.517e-07
7393.4, 1.212e-06
7395.4, 1.5462e-06
7397.4, 1.8154e-06
7399.4, 1.845e-06
7401.4, 1.3835e-06
7403.4, 1.8699e-06
7405.4, 1.7034e-06
7407.4, 1.6893e-06
7409.4, 1.6349e-06
7411.4, 1.5195e-06
7413.4, 1.5367e-06
7415.4, 1.4672e-06
7417.4, 1.6134e-06
7419.4, 1.6543e-06
7421.4, 1.5029e-06
7423.4, 2.0708e-06
7425.4, 1.4245e-06
7427.4, 1.6201e-06
7429.4, 1.771e-06
7431.4, 1.6592e-06
7433.4, 1.489e-06
7435.4, 1.6288e-06
7437.4, 1.9638e-06
7439.4, 1.4536e-06
7441.4, 1.926e-06
7443.4, 1.503e-06
7445.4, 2.1146e-06
7447.4, 1.8582e-06
7449.4, 1.7909e-06
7451.4, 2.0255e-06
7453.4, 1.6617e-06
7455.4, 1.6586e-06
7457.4, 1.7287e-06
7459.5, 1.5689e-06
7461.5, 1.6878e-06
7463.5, 1.5969e-06
7465.5, 1.4366e-06
7467.5, 1.717e-06
7469.5, 1.8063e-06
7471.5, 1.5955e-06
7473.5, 1.689e-06
7475.5, 1.3801e-06
7477.5, 1.9406e-06
7479.5, 2.0541e-06
7481.5, 1.6519e-06
7483.5, 1.5309e-06
7485.5, 1.5767e-06
7487.5, 1.9728e-06
7489.5, 1.7859e-06
7491.5, 1.4106e-06
7493.5, 1.6822e-06
7495.5, 1.9184e-06
7497.5, 1.7856e-06
7499.5, 1.8164e-06
7501.5, 1.543e-06
7503.5, 1.8278e-06
7505.5, 1.4329e-06
7507.5, 1.6024e-06
7509.5, 1.807e-06
7511.5, 1.5403e-06
7513.5, 1.9131e-06
7515.5, 1.9258e-06
7517.5, 2.0314e-06
7519.5, 1.714e-06
7521.5, 1.8089e-06
7523.5, 1.9831e-06
7525.5, 1.9557e-06
7527.5, 1.8612e-06
7529.5, 1.9835e-06
7531.5, 1.712e-06
7533.5, 2.1538e-06
7535.5, 1.9106e-06
7537.5, 1.8462e-06
7539.5, 1.7832e-06
7541.5, 2.1524e-06
7543.5, 1.7337e-06
7545.5, 1.6307e-06
7547.5, 1.6202e-06
7549.5, 1.9364e-06
7551.5, 2.0994e-06
7553.5, 1.4717e-06
7555.5, 2.1164e-06
7557.5, 2.2185e-06
7559.6, 1.9486e-06
7561.6, 1.9154e-06
7563.6, 1.8918e-06
7565.6, 1.7271e-06
7567.6, 1.942e-06
7569.6, 1.9677e-06
7571.6, 1.7371e-06
7573.6, 1.9337e-06
7575.6, 1.9381e-06
7577.6, 1.9691e-06
7579.6, 1.7876e-06
7581.6, 1.6157e-06
7583.6, 1.8038e-06
7585.6, 1.9614e-06
7587.6, 1.6549e-06
7589.6, 2.2162e-06
7591.6, 2.1431e-06
7593.6, 1.6925e-06
7595.6, 1.5816e-06
7597.6, 1.9485e-06
7599.6, 1.6972e-06
7601.6, 1.8091e-06
7603.6, 1.9171e-06
7605.6, 1.8977e-06
7607.6, 2.0284e-06
7609.6, 1.9411e-06
7611.6, 1.9167e-06
7613.6, 1.7249e-06
7615.6, 2.1332e-06
7617.6, 1.9972e-06
7619.6, 2.0924e-06
7621.6, 1.7268e-06
7623.6, 1.8359e-06
7625.6, 2.0286e-06
7627.6, 2.0593e-06
7629.6, 1.9117e-06
7631.6, 1.8274e-06
7633.6, 1.6512e-06
7635.6, 1.7882e-06
7637.6, 1.9289e-06
7639.6, 1.8129e-06
7641.6, 1.7477e-06
7643.6, 1.993e-06
7645.6, 1.958e-06
7647.6, 2.1828e-06
7649.6, 2.1418e-06
7651.6, 2.0076e-06
7653.6, 1.8066e-06
7655.6, 1.5031e-06
7657.6, 1.9997e-06
7659.7, 1.5625e-06
7661.7, 1.9961e-06
7663.7, 1.7498e-06
7665.7, 1.7138e-06
7667.7, 1.6836e-06
7669.7, 2.2052e-06
7671.7, 1.7529e-06
7673.7, 1.9096e-06
7675.7, 1.9007e-06
7677.7, 1.8994e-06
7679.7, 1.9298e-06
7681.7, 1.8539e-06
7683.7, 1.7947e-06
7685.7, 1.6347e-06
7687.7, 1.9995e-06
7689.7, 1.8416e-06
7691.7, 2.0263e-06
7693.7, 2.004e-06
7695.7, 1.9448e-06
7697.7, 1.9445e-06
7699.7, 2.0627e-06
7701.7, 1.8697e-06
7703.7, 1.7164e-06
7705.7, 2.0513e-06
7707.7, 2.1507e-06
7709.7, 1.9097e-06
7711.7, 1.9576e-06
7713.7, 2.3241e-06
7715.7, 2.0389e-06
7717.7, 1.7887e-06
7719.7, 1.8807e-06
7721.7, 2.2227e-06
7723.7, 1.6783e-06
7725.7, 2.09e-06
7727.7, 2.0623e-06
7729.7, 1.8489e-06
7731.7, 2.055e-06
7733.7, 2.4639e-06
7735.7, 1.8167e-06
7737.7, 2.0107e-06
7739.7, 1.8319e-06
7741.7, 1.7878e-06
7743.7, 1.9151e-06
7745.7, 2.0843e-06
7747.7, 1.8689e-06
7749.7, 2.0394e-06
7751.7, 1.7645e-06
7753.7, 1.8817e-06
7755.7, 1.9424e-06
7757.7, 2.379e-06
7759.8, 2.1786e-06
7761.8, 1.7009e-06
7763.8, 2.1432e-06
7765.8, 1.7492e-06
7767.8, 1.7758e-06
7769.8, 1.9082e-06
7771.8, 1.832e-06
7773.8, 1.6904e-06
7775.8, 1.8248e-06
7777.8, 1.75e-06
7779.8, 1.5646e-06
7781.8, 1.8194e-06
7783.8, 2.1724e-06
7785.8, 2.2104e-06
7787.8, 1.9224e-06
7789.8, 1.9494e-06
7791.8, 2.1283e-06
7793.8, 2.4807e-06
7795.8, 1.8093e-06
7797.8, 2.0619e-06
7799.8, 2.3231e-06
7801.8, 1.8846e-06
7803.8, 2.2822e-06
7805.8, 1.7516e-06
7807.8, 2.1584e-06
7809.8, 2.2246e-06
7811.8, 2.0387e-06
7813.8, 1.8236e-06
7815.8, 1.8588e-06
7817.8, 1.7642e-06
7819.8, 1.6865e-06
7821.8, 2.0156e-06
7823.8, 2.2775e-06
7825.8, 2.0102e-06
7827.8, 2.0848e-06
7829.8, 2.107e-06
7831.8, 1.9611e-06
7833.8, 2.1012e-06
7835.8, 2.1213e-06
7837.8, 2.1935e-06
7839.8, 2.1038e-06
7841.8, 1.8715e-06
7843.8, 2.1233e-06
7845.8, 2.2065e-06
7847.8, 1.9056e-06
7849.8, 1.845e-06
7851.8, 1.7892e-06
7853.8, 2.0074e-06
7855.8, 1.9228e-06
7857.8, 2.157e-06
7859.9, 2.1848e-06
7861.9, 2.0646e-06
7863.9, 1.9082e-06
7865.9, 2.128e-06
7867.9, 2.0049e-06
7869.9, 2.2704e-06
7871.9, 2.1827e-06
7873.9, 2.0192e-06
7875.9, 2.0128e-06
7877.9, 2.2756e-06
7879.9, 2.0074e-06
7881.9, 2.0638e-06
7883.9, 2.1647e-06
7885.9, 2.3715e-06
7887.9, 1.9647e-06
7889.9, 2.0243e-06
7891.9, 1.9966e-06
7893.9, 1.9292e-06
7895.9, 1.8553e-06
7897.9, 2.0377e-06
7899.9, 2.2653e-06
7901.9, 1.8957e-06
7903.9, 2.043e-06
7905.9, 2.0361e-06
7907.9, 2.0118e-06
7909.9, 1.9095e-06
7911.9, 2.3593e-06
7913.9, 2.0512e-06
7915.9, 2.1767e-06
7917.9, 1.8725e-06
7919.9, 1.9267e-06
7921.9, 2.1341e-06
7923.9, 2.0166e-06
7925.9, 2.1702e-06
7927.9, 2.1051e-06
7929.9, 2.0072e-06
7931.9, 1.8111e-06
7933.9, 2.5394e-06
7935.9, 1.9406e-06
7937.9, 1.6348e-06
7939.9, 2.1079e-06
7941.9, 1.8007e-06
7943.9, 2.1579e-06
7945.9, 2.1107e-06
7947.9, 2.0752e-06
7949.9, 1.7636e-06
7951.9, 1.8056e-06
7953.9, 2.2452e-06
7955.9, 1.8826e-06
7957.9, 2.2265e-06
7960.0, 1.9958e-06
7962.0, 2.169e-06
7964.0, 2.2511e-06
7966.0, 2.3778e-06
7968.0, 1.9237e-06
7970.0, 2.0967e-06
7972.0, 2.2848e-06
7974.0, 1.8877e-06
7976.0, 1.8979e-06
7978.0, 2.0537e-06
7980.0, 1.9854e-06
7982.0, 1.8649e-06
7984.0, 1.9414e-06
7986.0, 2.4745e-06
7988.0, 2.0126e-06
7990.0, 2.2969e-06
7992.0, 2.0907e-06
7994.0, 1.7845e-06
7996.0, 2.2914e-06
7998.0, 1.911e-06
8000.0, 1.848e-06
8002.0, 2.0137e-06
8004.0, 2.065e-06
8006.0, 2.4191e-06
8008.0, 2.0454e-06
8010.0, 1.9644e-06
8012.0, 2.1104e-06
8014.0, 2.2675e-06
8016.0, 1.7942e-06
8018.0, 2.0213e-06
8020.0, 1.9039e-06
8022.0, 1.9594e-06
8024.0, 1.9658e-06
8026.0, 2.0154e-06
8028.0, 2.0531e-06
8030.0, 2.0682e-06
8032.0, 2.146e-06
8034.0, 2.0206e-06
8036.0, 1.8311e-06
8038.0, 1.61e-06
8040.0, 2.2242e-06
8042.0, 2.1212e-06
8044.0, 2.0564e-06
8046.0, 2.2348e-06
8048.0, 1.9792e-06
8050.0, 2.2284e-06
8052.0, 2.4566e-06
8054.0, 2.0611e-06
8056.0, 2.0015e-06
8058.0, 1.773e-06
8060.1, 1.989e-06
8062.1, 1.8866e-06
8064.1, 2.2356e-06
8066.1, 2.0709e-06
8068.1, 2.4291e-06
8070.1, 1.9857e-06
8072.1, 2.1845e-06
8074.1, 2.01e-06
8076.1, 1.9735e-06
8078.1, 1.8395e-06
8080.1, 2.0912e-06
8082.1, 2.0121e-06
8084.1, 2.2e-06
8086.1, 2.2884e-06
8088.1, 2.2854e-06
8090.1, 2.3294e-06
8092.1, 1.8867e-06
8094.1, 2.1431e-06
8096.1, 1.8289e-06
8098.1, 2.0779e-06
8100.1, 2.2871e-06
8102.1, 2.1186e-06
8104.1, 1.9671e-06
8106.1, 2.0911e-06
8108.1, 2.3046e-06
8110.1, 1.8287e-06
8112.1, 1.9082e-06
8114.1, 2.3187e-06
8116.1, 1.9103e-06
8118.1, 2.1815e-06
8120.1, 2.0469e-06
8122.1, 2.1466e-06
8124.1, 1.7408e-06
8126.1, 2.0147e-06
8128.1, 1.9795e-06
8130.1, 1.5443e-06
8132.1, 2.2143e-06
8134.1, 1.9938e-06
8136.1, 2.0636e-06
8138.1, 1.8259e-06
8140.1, 2.3243e-06
8142.1, 2.2262e-06
8144.1, 2.0446e-06
8146.1, 2.3007e-06
8148.1, 1.972e-06
8150.1, 2.2381e-06
8152.1, 1.8448e-06
8154.1, 1.8296e-06
8156.1, 2.1258e-06
8158.1, 1.8687e-06
8160.2, 2.1384e-06
8162.2, 1.8657e-06
8164.2, 1.9683e-06
8166.2, 2.0405e-06
8168.2, 2.1684e-06
8170.2, 1.752e-06
8172.2, 2.0149e-06
8174.2, 1.8622e-06
8176.2, 1.9139e-06
8178.2, 1.9129e-06
8180.2, 2.1676e-06
8182.2, 1.9436e-06
8184.2, 2.116e-06
8186.2, 2.2749e-06
8188.2, 2.0045e-06
8190.2, 1.9811e-06
8192.2, 1.8494e-06
8194.2, 2.0922e-06
8196.2, 1.9414e-06
8198.2, 2.1668e-06
8200.2, 1.7892e-06
8202.2, 2.2434e-06
8204.2, 1.8822e-06
8206.2, 1.8432e-06
8208.2, 2.226e-06
8210.2, 1.8869e-06
8212.2, 2.2013e-06
8214.2, 2.1783e-06
8216.2, 1.9015e-06
8218.2, 2.2179e-06
8220.2, 2.2168e-06
8222.2, 2.0275e-06
8224.2, 2.2036e-06
8226.2, 2.3263e-06
8228.2, 1.9292e-06
8230.2, 2.0247e-06
8232.2, 1.8952e-06
8234.2, 1.8351e-06
8236.2, 2.208e-06
8238.2, 2.2033e-06
8240.2, 1.7356e-06
8242.2, 2.6263e-06
8244.2, 2.0016e-06
8246.2, 2.2308e-06
8248.2, 1.9291e-06
8250.2, 1.9428e-06
8252.2, 2.2706e-06
8254.2, 1.9732e-06
8256.2, 1.9603e-06
8258.2, 2.1924e-06
8260.3, 2.2753e-06
8262.3, 2.0436e-06
8264.3, 2.0211e-06
8266.3, 2.0946e-06
8268.3, 1.8244e-06
8270.3, 2.02e-06
8272.3, 1.9691e-06
8274.3, 1.8189e-06
8276.3, 1.9075e-06
8278.3, 1.7925e-06
8280.3, 1.9902e-06
8282.3, 1.9884e-06
8284.3, 1.9628e-06
8286.3, 2.2301e-06
8288.3, 2.3336e-06
8290.3, 2.1557e-06
8292.3, 1.8276e-06
8294.3, 2.0484e-06
8296.3, 2.2409e-06
8298.3, 1.9676e-06
8300.3, 2.1997e-06
8302.3, 2.0502e-06
8304.3, 2.3982e-06
8306.3, 2.0625e-06
8308.3, 2.0571e-06
8310.3, 2.0233e-06
8312.3, 2.1086e-06
8314.3, 2.101e-06
8316.3, 2.1396e-06
8318.3, 1.8884e-06
8320.3, 1.8511e-06
8322.3, 1.9695e-06
8324.3, 2.2723e-06
8326.3, 2.1832e-06
8328.3, 1.9648e-06
8330.3, 2.11e-06
8332.3, 1.7605e-06
8334.3, 2.1494e-06
8336.3, 2.1294e-06
8338.3, 2.1015e-06
8340.3, 2.1691e-06
8342.3, 1.901e-06
8344.3, 2.4235e-06
8346.3, 2.2485e-06
8348.3, 2.1718e-06
8350.3, 1.9674e-06
8352.3, 2.2467e-06
8354.3, 2.0086e-06
8356.3, 2.4272e-06
8358.3, 2.2966e-06
8360.4, 2.0839e-06
8362.4, 2.1398e-06
8364.4, 1.9829e-06
8366.4, 1.7809e-06
8368.4, 2.3001e-06
8370.4, 1.9814e-06
8372.4, 1.8958e-06
8374.4, 2.3003e-06
8376.4, 1.8551e-06
8378.4, 2.0465e-06
8380.4, 2.2397e-06
8382.4, 2.2722e-06
8384.4, 2.2124e-06
8386.4, 1.7608e-06
8388.4, 2.2632e-06
8390.4, 1.9719e-06
8392.4, 7.8746e-07
8394.4, -4.534e-08
8396.4, -3.879e-08
8398.4, -4.262e-08
8400.4, -4.143e-08
8402.4, -4.418e-08
8404.4, -4.28e-08
8406.4, -4.297e-08
8408.4, -4.448e-08
8410.4, -4.536e-08
8412.4, -4.479e-08
8414.4, -4.001e-08
8416.4, -4.469e-08
8418.4, -4.343e-08
8420.4, -4.212e-08
8422.4, -4.052e-08
8424.4, -4.179e-08
8426.4, -4.291e-08
8428.4, -4.021e-08
8430.4, -4.465e-08
8432.4, -4.227e-08
8434.4, -4.312e-08
8436.4, -4.116e-08
8438.4, -4.173e-08
8440.4, -4.503e-08
8442.4, -4.608e-08
8444.4, -4.342e-08
8446.4, -4.129e-08
8448.4, -4.269e-08
8450.4, -3.997e-08
8452.4, -4.323e-08
8454.4, -4.147e-08
8456.4, -4.269e-08
8458.4, -4.495e-08
8460.5, -4.214e-08
8462.5, -4.389e-08
8464.5, -4.199e-08
8466.5, -4.691e-08
8468.5, -4.351e-08
8470.5, -4.489e-08
8472.5, -4.148e-08
8474.5, -4.357e-08
8476.5, -4.311e-08
8478.5, -4.285e-08
8480.5, -4.537e-08
8482.5, -4.531e-08
8484.5, -4.446e-08
8486.5, -4.527e-08
8488.5, -4.593e-08
8490.5, -4.426e-08
8492.5, -4.701e-08
8494.5, -4.499e-08
8496.5, -4.279e-08
8498.5, -4.18e-08
8500.5, -4.304e-08
8502.5, -4.096e-08
8504.5, -4.346e-08
8506.5, -3.961e-08
8508.5, -4.188e-08
8510.5, -3.946e-08
8512.5, -4.346e-08
8514.5, -3.912e-08
8516.5, -4.217e-08
8518.5, -4.143e-08
8520.5, -4.269e-08
8522.5, -4.368e-08
8524.5, -4.26e-08
8526.5, -4.512e-08
8528.5, -4.589e-08
8530.5, -4.189e-08
8532.5, -4.403e-08
8534.5, -4.246e-08
8536.5, -4.107e-08
8538.5, -4.167e-08
8540.5, -4.216e-08
8542.5, -4.254e-08
8544.5, -4.066e-08
8546.5, -4.372e-08
8548.5, -4.331e-08
8550.5, -4.479e-08
8552.5, -4.483e-08
8554.5, -4.504e-08
8556.5, -3.953e-08
8558.5, -4.41e-08
8560.6, -4.084e-08
8562.6, -4.586e-08
8564.6, -4.469e-08
8566.6, -4.539e-08
8568.6, -4.287e-08
8570.6, -4.566e-08
8572.6, -4.142e-08
8574.6, -4.083e-08
8576.6, -3.884e-08
8578.6, -3.895e-08
8580.6, -4.119e-08
8582.6, -4.269e-08
8584.6, -3.81e-08
8586.6, -4.379e-08
8588.6, -4.312e-08
8590.6, -4.392e-08
8592.6, -4.52e-08
8594.6, -4.391e-08
8596.6, -4.314e-08
8598.6, -4.471e-08
8600.6, -4.162e-08
8602.6, -3.985e-08
8604.6, -4.493e-08
8606.6, -4.011e-08
8608.6, -4.116e-08
8610.6, -4.057e-08
8612.6, -4.011e-08
8614.6, -4.037e-08
8616.6, -4.096e-08
8618.6, -4.046e-08
8620.6, -3.912e-08
8622.6, -4.054e-08
8624.6, -3.87e-08
8626.6, -4.211e-08
8628.6, -4.228e-08
8630.6, -4.274e-08
8632.6, -4.456e-08
8634.6, -4.318e-08
8636.6, -4.132e-08
8638.6, -4.199e-08
8640.6, -4.175e-08
8642.6, -4.666e-08
8644.6, -4.234e-08
8646.6, -4.672e-08
8648.6, -4.446e-08
8650.6, -4.261e-08
8652.6, -4.575e-08
8654.6, -4.081e-08
8656.6, -4.074e-08
8658.6, -4.308e-08
8660.7, -3.964e-08
8662.7, -4.126e-08
8664.7, -4.237e-08
8666.7, -4.366e-08
8668.7, -4.46e-08
8670.7, -4.057e-08
8672.7, -4.609e-08
8674.7, -4.242e-08
8676.7, -4.375e-08
8678.7, -4.258e-08
8680.7, -4.423e-08
8682.7, -4.933e-08
8684.7, -4.519e-08
8686.7, -4.408e-08
8688.7, -4.674e-08
8690.7, -4.311e-08
8692.7, -4.303e-08
8694.7, -4.011e-08
8696.7, -4.11e-08
8698.7, -3.861e-08
8700.7, -4.028e-08
8702.7, -3.942e-08
8704.7, -4.16e-08
8706.7, -4.311e-08
8708.7, -4.122e-08
8710.7, -4.302e-08
8712.7, -4.081e-08
8714.7, -3.897e-08
8716.7, -4.202e-08
8718.7, -3.994e-08
8720.7, -3.94e-08
8722.7, -3.65e-08
8724.7, -3.56e-08
8726.7, -3.935e-08
8728.7, -3.968e-08
8730.7, -3.905e-08
8732.7, -3.892e-08
8734.7, -4.227e-08
8736.7, -3.901e-08
8738.7, -4.334e-08
8740.7, -3.992e-08
8742.7, -4.176e-08
8744.7, -4.174e-08
8746.7, -4.295e-08
8748.7, -3.963e-08
8750.7, -4.043e-08
8752.7, -3.989e-08
8754.7, -3.694e-08
8756.7, -3.857e-08
8758.7, -3.957e-08
8760.8, -4.352e-08
8762.8, -4.153e-08
8764.8, -4.374e-08
8766.8, -4.235e-08
8768.8, -4.131e-08
8770.8, -4.51e-08
8772.8, -4.01e-08
8774.8, -4.114e-08
8776.8, -4.088e-08
8778.8, -4.141e-08
8780.8, -4.057e-08
8782.8, -4.46e-08
8784.8, -4.191e-08
8786.8, -4.027e-08
8788.8, -3.968e-08
8790.8, -3.544e-08
8792.8, -4.213e-08
8794.8, -3.688e-08
8796.8, -4.122e-08
8798.8, -4.1e-08
8800.8, -4.156e-08
8802.8, -4.303e-08
8804.8, -4.212e-08
8806.8, -3.86e-08
8808.8, -4.285e-08
8810.8, -4.233e-08
8812.8, -4.184e-08
8814.8, -4.035e-08
8816.8, -4.353e-08
8818.8, -4.275e-08
8820.8, -4.272e-08
8822.8, -4.311e-08
8824.8, -4.544e-08
8826.8, -4.322e-08
8828.8, -4.406e-08
8830.8, -4.161e-08
8832.8, -4.431e-08
8834.8, -4.168e-08
8836.8, -3.656e-08
8838.8, -4.095e-08
8840.8, -4.154e-08
8842.8, -4.224e-08
8844.8, -3.933e-08
8846.8, -3.435e-08
8848.8, -3.53e-08
8850.8, -3.843e-08
8852.8, -4.075e-08
8854.8, -3.929e-08
8856.8, -3.397e-08
8858.8, -3.953e-08
8860.9, -3.851e-08
8862.9, -3.636e-08
8864.9, -3.93e-08
8866.9, -3.632e-08
8868.9, -3.833e-08
8870.9, -3.756e-08
8872.9, -3.586e-08
8874.9, -3.547e-08
8876.9, -3.608e-08
8878.9, -3.7e-08
8880.9, -4.089e-08
8882.9, -4.034e-08
8884.9, -3.907e-08
8886.9, -3.478e-08
8888.9, -3.852e-08
8890.9, -3.984e-08
8892.9, -3.94e-08
8894.9, -3.795e-08
8896.9, -4.009e-08
8898.9, -3.845e-08
8900.9, -3.813e-08
8902.9, -3.611e-08
8904.9, -4.067e-08
8906.9, -3.936e-08
8908.9, -3.934e-08
8910.9, -3.98e-08
8912.9, -3.813e-08
8914.9, -4.046e-08
8916.9, -4.049e-08
8918.9, -4.237e-08
8920.9, -4.142e-08
8922.9, -4.095e-08
8924.9, -3.757e-08
8926.9, -4.124e-08
8928.9, -4.236e-08
8930.9, -4.302e-08
8932.9, -4.131e-08
8934.9, -4.45e-08
8936.9, -3.988e-08
8938.9, -4.397e-08
8940.9, -4.354e-08
8942.9, -4.154e-08
8944.9, -3.977e-08
8946.9, -4.115e-08
8948.9, -4.111e-08
8950.9, -3.713e-08
8952.9, -3.938e-08
8954.9, -3.793e-08
8956.9, -4.275e-08
8958.9, -4.288e-08
8961.0, -4.23e-08
8963.0, -3.868e-08
8965.0, -3.815e-08
8967.0, -3.977e-08
8969.0, -3.977e-08
8971.0, -3.745e-08
8973.0, -4.02e-08
8975.0, -4.074e-08
8977.0, -3.97e-08
8979.0, -3.737e-08
8981.0, -3.977e-08
8983.0, -3.628e-08
8985.0, -3.892e-08
8987.0, -4.003e-08
8989.0, -3.773e-08
8991.0, -3.984e-08
8993.0, -4.075e-08
8995.0, -3.741e-08
8997.0, -3.745e-08
8999.0, -4.098e-08
9001.0, -3.94e-08
9003.0, -3.837e-08
9005.0, -4.286e-08
9007.0, -3.965e-08
9009.0, -3.988e-08
9011.0, -3.998e-08
9013.0, -4e-08
9015.0, -4.005e-08
9017.0, -4.248e-08
9019.0, -4.169e-08
9021.0, -4.464e-08
9023.0, -4.551e-08
9025.0, -4.503e-08
9027.0, -4.325e-08
9029.0, -4.717e-08
9031.0, -4.562e-08
9033.0, -4.376e-08
9035.0, -4.314e-08
9037.0, -4.074e-08
9039.0, -4.208e-08
9041.0, -4.2e-08
9043.0, -4.204e-08
9045.0, -3.934e-08
9047.0, -4.485e-08
9049.0, -4.327e-08
9051.0, -4.258e-08
9053.0, -4.571e-08
9055.0, -4.279e-08
9057.0, -3.679e-08
9059.0, -4.14e-08
9061.1, -3.776e-08
9063.1, -3.998e-08
9065.1, -3.861e-08
9067.1, -4.123e-08
9069.1, -4.179e-08
9071.1, -3.97e-08
9073.1, -3.891e-08
9075.1, -4.154e-08
9077.1, -4.387e-08
9079.1, -4.107e-08
9081.1, -3.949e-08
9083.1, -4.106e-08
9085.1, -4.035e-08
9087.1, -3.992e-08
9089.1, -3.871e-08
9091.1, -3.99e-08
9093.1, -3.588e-08
9095.1, -4.287e-08
9097.1, -3.936e-08
9099.1, -4.037e-08
9101.1, -4.053e-08
9103.1, -4.242e-08
9105.1, -4.315e-08
9107.1, -4.072e-08
9109.1, -4.581e-08
9111.1, -4.281e-08
9113.1, -4.157e-08
9115.1, -4.123e-08
9117.1, -4.114e-08
9119.1, -4.547e-08
9121.1, -4.062e-08
9123.1, -4.331e-08
9125.1, -4.227e-08
9127.1, -4.159e-08
9129.1, -4.216e-08
9131.1, -4.116e-08
9133.1, -4.095e-08
9135.1, -4.123e-08
9137.1, -4.072e-08
9139.1, -3.987e-08
9141.1, -4.004e-08
9143.1, -4.146e-08
9145.1, -4.102e-08
9147.1, -4.33e-08
9149.1, -4.344e-08
9151.1, -4.486e-08
9153.1, -4.281e-08
9155.1, -4.136e-08
9157.1, -4.005e-08
9159.1, -4.1e-08
9161.2, -4.255e-08
9163.2, -3.99e-08
9165.2, -4.45e-08
9167.2, -4.326e-08
9169.2, -4.66e-08
9171.2, -4.537e-08
9173.2, -4.366e-08
9175.2, -4.134e-08
9177.2, -4.127e-08
9179.2, -4.188e-08
9181.2, -4.4e-08
9183.2, -4.448e-08
9185.2, -4.43e-08
9187.2, -4.388e-08
9189.2, -4.083e-08
9191.2, -4.495e-08
9193.2, -4.361e-08
9195.2, -4.188e-08
9197.2, -4.397e-08
9199.2, -4.673e-08
9201.2, -4.733e-08
9203.2, -4.591e-08
9205.2, -4.399e-08
9207.2, -4.331e-08
9209.2, -4.415e-08
9211.2, -4.441e-08
9213.2, -4.27e-08
9215.2, -4.143e-08
9217.2, -4.488e-08
9219.2, -4.615e-08
9221.2, -4.399e-08
9223.2, -4.169e-08
9225.2, -4.261e-08
9227.2, -4.459e-08
9229.2, -4.424e-08
9231.2, -4.501e-08
9233.2, -4.186e-08
9235.2, -3.993e-08
9237.2, -4.179e-08
9239.2, -4.332e-08
9241.2, -4.241e-08
9243.2, -4.163e-08
9245.2, -4.288e-08
9247.2, -4.341e-08
9249.2, -4.376e-08
9251.2, -4.46e-08
9253.2, -4.409e-08
9255.2, -4.41e-08
9257.2, -4.205e-08
9259.2, -4.323e-08
9261.3, -3.943e-08
9263.3, -3.937e-08
9265.3, -4.542e-08
9267.3, -4.493e-08
9269.3, -4.28e-08
9271.3, -4.045e-08
9273.3, -3.982e-08
9275.3, -3.974e-08
9277.3, -4.203e-08
9279.3, -4.239e-08
9281.3, -3.941e-08
9283.3, -4.015e-08
9285.3, -3.9e-08
9287.3, -4.344e-08
9289.3, -3.994e-08
9291.3, -3.937e-08
9293.3, -4.053e-08
9295.3, -3.945e-08
9297.3, -4.119e-08
9299.3, -4.336e-08
9301.3, -4.009e-08
9303.3, -4.297e-08
9305.3, -3.927e-08
9307.3, -4.002e-08
9309.3, -4.211e-08
9311.3, -4.181e-08
9313.3, -4.092e-08
9315.3, -4.022e-08
9317.3, -4.236e-08
9319.3, -4.199e-08
9321.3, -4.351e-08
9323.3, -4.266e-08
9325.3, -4.116e-08
9327.3, -4.094e-08
9329.3, -4.728e-08
9331.3, -4.056e-08
9333.3, -4.044e-08
9335.3, -4.211e-08
9337.3, -3.907e-08
9339.3, -4.439e-08
9341.3, -3.999e-08
9343.3, -3.952e-08
9345.3, -4.321e-08
9347.3, -4.097e-08
9349.3, -4.257e-08
9351.3, -4.219e-08
9353.3, -3.958e-08
9355.3, -3.938e-08
9357.3, -3.768e-08
9359.3, -4.341e-08
9361.4, -4.354e-08
9363.4, -3.922e-08
9365.4, -4.155e-08
9367.4, -4.099e-08
9369.4, -3.971e-08
9371.4, -4.532e-08
9373.4, -4.374e-08
9375.4, -4.317e-08
9377.4, -4.175e-08
9379.4, -4.309e-08
9381.4, -4.013e-08
9383.4, -4.575e-08
9385.4, -4.583e-08
9387.4, -4.723e-08
9389.4, -4.44e-08
9391.4, -4.264e-08
9393.4, -4.64e-08
9395.4, -4.402e-08
9397.4, -4.761e-08
9399.4, -4.837e-08
9401.4, -4.913e-08
9403.4, -4.481e-08
9405.4, -4.66e-08
9407.4, -4.709e-08
9409.4, -4.509e-08
9411.4, -4.694e-08
9413.4, -4.596e-08
9415.4, -4.742e-08
9417.4, -4.874e-08
9419.4, -4.59e-08
9421.4, -4.885e-08
9423.4, -5.116e-08
9425.4, -4.913e-08
9427.4, -4.654e-08
9429.4, -5.006e-08
9431.4, -4.927e-08
9433.4, -5.159e-08
9435.4, -5.035e-08
9437.4, -4.861e-08
9439.4, -4.679e-08
9441.4, -5.047e-08
9443.4, -4.628e-08
9445.4, -4.553e-08
9447.4, -4.478e-08
9449.4, -4.438e-08
9451.4, -4.698e-08
9453.4, -4.813e-08
9455.4, -4.808e-08
9457.4, -4.726e-08
9459.4, -5.021e-08
9461.5, -4.935e-08
9463.5, -5.038e-08
9465.5, -4.925e-08
9467.5, -4.61e-08
9469.5, -4.628e-08
9471.5, -4.357e-08
9473.5, -4.376e-08
9475.5, -4.269e-08
9477.5, -4.359e-08
9479.5, -4.517e-08
9481.5, -4.761e-08
9483.5, -4.851e-08
9485.5, -4.808e-08
9487.5, -4.807e-08
9489.5, -4.368e-08
9491.5, -4.569e-08
9493.5, 1.0359e-06
9495.5, 1.5399e-06
9497.5, 1.5025e-06
9499.5, 1.5185e-06
9501.5, 1.5725e-06
9503.5, 1.4973e-06
9505.5, 1.5595e-06
9507.5, 1.5882e-06
9509.5, 1.2931e-06
9511.5, 1.4522e-06
9513.5, 1.5599e-06
9515.5, 1.6694e-06
9517.5, 1.6266e-06
9519.5, 1.8836e-06
9521.5, 1.5721e-06
9523.5, 1.4632e-06
9525.5, 1.4754e-06
9527.5, 1.4815e-06
9529.5, 1.9065e-06
9531.5, 1.7121e-06
9533.5, 1.5504e-06
9535.5, 1.7168e-06
9537.5, 1.6882e-06
9539.5, 1.8187e-06
9541.5, 1.7375e-06
9543.5, 1.7926e-06
9545.5, 1.7671e-06
9547.5, 1.4581e-06
9549.5, 1.4817e-06
9551.5, 1.8155e-06
9553.5, 1.8209e-06
9555.5, 1.7152e-06
9557.5, 1.8675e-06
9559.5, 1.7267e-06
9561.6, 1.7462e-06
9563.6, 1.8211e-06
9565.6, 1.7694e-06
9567.6, 1.7669e-06
9569.6, 1.6521e-06
9571.6, 1.6505e-06
9573.6, 1.6487e-06
9575.6, 1.5601e-06
9577.6, 1.8837e-06
9579.6, 1.7553e-06
9581.6, 1.9296e-06
9583.6, 1.8598e-06
9585.6, 1.8806e-06
9587.6, 1.9042e-06
9589.6, 1.8561e-06
9591.6, 1.3969e-06
9593.6, 1.4601e-06
9595.6, 1.7351e-06
9597.6, 1.9653e-06
9599.6, 1.9905e-06
9601.6, 1.847e-06
9603.6, 1.7221e-06
9605.6, 1.5327e-06
9607.6, 1.4729e-06
9609.6, 1.9475e-06
9611.6, 1.498e-06
9613.6, 1.9606e-06
9615.6, 1.8722e-06
9617.6, 1.7167e-06
9619.6, 2.0714e-06
9621.6, 1.7957e-06
9623.6, 1.9549e-06
9625.6, 1.5804e-06
9627.6, 1.8294e-06
9629.6, 2.0634e-06
9631.6, 1.9304e-06
9633.6, 1.9545e-06
9635.6, 1.8584e-06
9637.6, 1.9735e-06
9639.6, 1.5169e-06
9641.6, 2.1813e-06
9643.6, 2.1158e-06
9645.6, 1.7007e-06
9647.6, 1.9342e-06
9649.6, 1.9176e-06
9651.6, 1.9189e-06
9653.6, 1.7706e-06
9655.6, 1.9389e-06
9657.6, 1.6564e-06
9659.6, 1.8734e-06
9661.7, 1.5659e-06
9663.7, 1.8696e-06
9665.7, 1.6263e-06
9667.7, 2.0391e-06
9669.7, 1.6797e-06
9671.7, 1.9762e-06
9673.7, 1.5843e-06
9675.7, 1.9995e-06
9677.7, 2.0375e-06
9679.7, 1.9027e-06
9681.7, 1.9115e-06
9683.7, 2.0444e-06
9685.7, 1.7893e-06
9687.7, 2.1879e-06
9689.7, 1.5132e-06
9691.7, 1.9154e-06
9693.7, 1.8631e-06
9695.7, 1.8819e-06
9697.7, 1.9758e-06
9699.7, 1.7771e-06
9701.7, 1.9962e-06
9703.7, 2.046e-06
9705.7, 1.982e-06
9707.7, 1.9422e-06
9709.7, 1.7331e-06
9711.7, 1.8572e-06
9713.7, 1.8933e-06
9715.7, 1.6493e-06
9717.7, 1.7849e-06
9719.7, 1.9424e-06
9721.7, 1.9695e-06
9723.7, 1.8114e-06
9725.7, 1.9316e-06
9727.7, 2.0264e-06
9729.7, 1.9132e-06
9731.7, 1.8745e-06
9733.7, 1.7026e-06
9735.7, 1.8055e-06
9737.7, 1.8341e-06
9739.7, 2.0618e-06
9741.7, 1.8161e-06
9743.7, 1.8826e-06
9745.7, 1.9557e-06
9747.7, 2.0675e-06
9749.7, 1.8863e-06
9751.7, 1.8257e-06
9753.7, 1.9401e-06
9755.7, 1.9753e-06
9757.7, 2.0099e-06
9759.7, 2.0173e-06
9761.8, 2.0239e-06
9763.8, 1.8297e-06
9765.8, 1.9366e-06
9767.8, 1.7799e-06
9769.8, 1.9822e-06
9771.8, 1.756e-06
9773.8, 2.0376e-06
9775.8, 2.0405e-06
9777.8, 1.8894e-06
9779.8, 2.0768e-06
9781.8, 2.0388e-06
9783.8, 2.0864e-06
9785.8, 2.1406e-06
9787.8, 1.7877e-06
9789.8, 2.2409e-06
9791.8, 1.9988e-06
9793.8, 1.6615e-06
9795.8, 1.8742e-06
9797.8, 1.7416e-06
9799.8, 1.8882e-06
9801.8, 1.958e-06
9803.8, 1.7994e-06
9805.8, 1.884e-06
9807.8, 1.8382e-06
9809.8, 1.7786e-06
9811.8, 1.8698e-06
9813.8, 2.0919e-06
9815.8, 1.8451e-06
9817.8, 1.9603e-06
9819.8, 2.2958e-06
9821.8, 1.9299e-06
9823.8, 1.8853e-06
9825.8, 1.6659e-06
9827.8, 1.7753e-06
9829.8, 1.9257e-06
9831.8, 2.0216e-06
9833.8, 1.9198e-06
9835.8, 1.9729e-06
9837.8, 1.9403e-06
9839.8, 1.9296e-06
9841.8, 1.8695e-06
9843.8, 1.9123e-06
9845.8, 1.9552e-06
9847.8, 1.8438e-06
9849.8, 2.0291e-06
9851.8, 2.0268e-06
9853.8, 1.9207e-06
9855.8, 1.9084e-06
9857.8, 1.9853e-06
9859.8, 2.0457e-06
9861.9, 1.6762e-06
9863.9, 1.71e-06
9865.9, 1.9772e-06
9867.9, 2.1539e-06
9869.9, 2.1814e-06
9871.9, 2.2205e-06
9873.9, 2.135e-06
9875.9, 2.4834e-06
9877.9, 2.0555e-06
9879.9, 1.7236e-06
9881.9, 2.1817e-06
9883.9, 1.7349e-06
9885.9, 1.8866e-06
9887.9, 2.0039e-06
9889.9, 1.7717e-06
9891.9, 2.0707e-06
9893.9, 2.156e-06
9895.9, 1.7873e-06
9897.9, 2.1096e-06
9899.9, 1.8719e-06
9901.9, 1.8443e-06
9903.9, 1.5779e-06
9905.9, 2.0585e-06
9907.9, 2.1477e-06
9909.9, 2.1746e-06
9911.9, 2.0339e-06
9913.9, 2.4824e-06
9915.9, 2.0291e-06
9917.9, 1.7983e-06
9919.9, 1.9824e-06
9921.9, 2.114e-06
9923.9, 1.9716e-06
9925.9, 2.4028e-06
9927.9, 2.0692e-06
9929.9, 2.1149e-06
9931.9, 2.4263e-06
9933.9, 2.1975e-06
9935.9, 2.1179e-06
9937.9, 1.8899e-06
9939.9, 1.7249e-06
9941.9, 1.7951e-06
9943.9, 1.6644e-06
9945.9, 1.7528e-06
9947.9, 1.9219e-06
9949.9, 2.0389e-06
9951.9, 2.1048e-06
9953.9, 2.0683e-06
9955.9, 1.887e-06
9957.9, 1.8836e-06
9959.9, 1.9155e-06
9962.0, 1.8185e-06
9964.0, 2.0869e-06
9966.0, 1.8029e-06
9968.0, 1.8046e-06
9970.0, 1.991e-06
9972.0, 2.0766e-06
9974.0, 1.8716e-06
9976.0, 1.9205e-06
9978.0, 1.9895e-06
9980.0, 1.9128e-06
9982.0, 1.7842e-06
9984.0, 1.8718e-06
9986.0, 2.0931e-06
9988.0, 2.1515e-06
9990.0, 1.9641e-06
9992.0, 1.9231e-06
9994.0, 1.9285e-06
9996.0, 2.3073e-06
9998.0, 2.0831e-06
10000.0, 2.0208e-06
10002.0, 2.066e-06
10004.0, 2.3304e-06
10006.0, 2.1631e-06
10008.0, 2.3794e-06
10010.0, 2.117e-06
10012.0, 2.1165e-06
10014.0, 1.9504e-06
10016.0, 1.9356e-06
10018.0, 1.9215e-06
10020.0, 1.9455e-06
10022.0, 2.0162e-06
10024.0, 2.1445e-06
10026.0, 1.8525e-06
10028.0, 1.9636e-06
10030.0, 1.7466e-06
10032.0, 1.9118e-06
10034.0, 1.9661e-06
10036.0, 2.1428e-06
10038.0, 2.3589e-06
10040.0, 2.2101e-06
10042.0, 2.0682e-06
10044.0, 1.9446e-06
10046.0, 1.9903e-06
10048.0, 2.0562e-06
10050.0, 1.6403e-06
10052.0, 1.7631e-06
10054.0, 1.9803e-06
10056.0, 2.2756e-06
10058.0, 1.8403e-06
10060.0, 2.062e-06
10062.0, 2.157e-06
10064.0, 2.2334e-06
10066.0, 2.0117e-06
10068.0, 2.071e-06
10070.0, 2.1169e-06
10072.0, 2.0144e-06
10074.0, 1.8766e-06
10076.0, 2.0974e-06
10078.0, 2.0965e-06
10080.0, 1.8804e-06
10082.0, 1.8124e-06
10084.0, 1.9078e-06
10086.0, 1.8719e-06
10088.0, 2.1282e-06
10090.0, 2.0385e-06
10092.0, 2.1652e-06
10094.0, 2.1583e-06
10096.0, 2.0452e-06
10098.0, 2.0607e-06
10100.0, 2.1363e-06
10102.0, 2.2461e-06
10104.0, 1.8132e-06
10106.0, 1.9266e-06
10108.0, 1.9312e-06
10110.0, 1.857e-06
10112.0, 1.8327e-06
10114.0, 2.2162e-06
10116.0, 2.2953e-06
10118.0, 1.8555e-06
10120.0, 2.2266e-06
10122.0, 2.1166e-06
10124.0, 2.062e-06
10126.0, 2.2352e-06
10128.0, 1.9864e-06
10130.0, 2.0151e-06
10132.0, 2.0209e-06
10134.0, 1.9362e-06
10136.0, 2.0642e-06
10138.0, 1.8267e-06
10140.0, 1.962e-06
10142.0, 2.1915e-06
10144.0, 2.2929e-06
10146.0, 2.2522e-06
10148.0, 2.2407e-06
10150.0, 1.9854e-06
10152.0, 2.1053e-06
10154.0, 2.2478e-06
10156.0, 2.0117e-06
10158.0, 1.8641e-06
10160.0, 2.0163e-06
10162.0, 1.7368e-06
10164.0, 2.0389e-06
10166.0, 1.9248e-06
10168.0, 2.1028e-06
10170.0, 2.0209e-06
10172.0, 2.1607e-06
10174.0, 2.0066e-06
10176.0, 2.0879e-06
10178.0, 1.9966e-06
10180.0, 2.0947e-06
10182.0, 2.4254e-06
10184.0, 2.0442e-06
10186.0, 2.3792e-06
10188.0, 1.9354e-06
10190.0, 1.903e-06
10192.0, 2.0681e-06
10194.0, 1.912e-06
10196.0, 2.1138e-06
10198.0, 2.06e-06
10200.0, 2.2235e-06
10202.0, 2.1145e-06
10204.0, 1.9164e-06
10206.0, 1.8997e-06
10208.0, 1.8621e-06
10210.0, 2.1077e-06
10212.0, 1.9715e-06
10214.0, 2.3146e-06
10216.0, 2.355e-06
10218.0, 2.106e-06
10220.0, 1.8466e-06
10222.0, 2.2627e-06
10224.0, 2.0105e-06
10226.0, 1.9591e-06
10228.0, 2.0892e-06
10230.0, 2.0583e-06
10232.0, 2.1121e-06
10234.0, 2.0812e-06
10236.0, 2.3113e-06
10238.0, 1.9808e-06
10240.0, 2.1646e-06
10242.0, 1.9267e-06
10244.0, 2.0868e-06
10246.0, 1.9464e-06
10248.0, 2.2666e-06
10250.0, 2.1551e-06
10252.0, 2.2037e-06
10254.0, 2.2323e-06
10256.0, 2.1327e-06
10258.0, 2.0517e-06
10260.0, 1.9376e-06
10262.0, 2.0493e-06
10264.0, 1.9242e-06
10266.0, 2.0813e-06
10268.0, 2.0892e-06
10270.0, 1.9984e-06
10272.0, 1.8639e-06
10274.0, 2.2405e-06
10276.0, 2.1532e-06
10278.0, 2.1013e-06
10280.0, 1.968e-06
10282.0, 2.0759e-06
10284.0, 2.341e-06
10286.0, 2.0052e-06
10288.0, 1.8303e-06
10290.0, 1.8161e-06
10292.0, 1.874e-06
10294.0, 1.9458e-06
10296.0, 2.068e-06
10298.0, 1.9223e-06
10300.0, 1.8812e-06
10302.0, 1.9523e-06
10304.0, 1.8699e-06
10306.0, 2.0494e-06
10308.0, 2.2065e-06
10310.0, 1.8807e-06
10312.0, 1.7636e-06
10314.0, 2.1217e-06
10316.0, 2.0671e-06
10318.0, 2.0515e-06
10320.0, 1.8101e-06
10322.0, 2.195e-06
10324.0, 2.0272e-06
10326.0, 2.1642e-06
10328.0, 1.9613e-06
10330.0, 2.1437e-06
10332.0, 2.0826e-06
10334.0, 2.3074e-06
10336.0, 1.8195e-06
10338.0, 1.78e-06
10340.0, 1.7512e-06
10342.0, 1.8663e-06
10344.0, 1.7895e-06
10346.0, 1.8667e-06
10348.0, 2.0657e-06
10350.0, 1.9895e-06
10352.0, 2.0497e-06
10354.0, 1.9675e-06
10356.0, 1.8326e-06
10358.0, 2.0498e-06
10360.0, 2.1996e-06
10362.0, 2.0629e-06
10364.0, 1.9838e-06
10366.0, 2.2235e-06
10368.0, 2.2213e-06
10370.0, 1.9058e-06
10372.0, 2.1395e-06
10374.0, 1.9031e-06
10376.0, 2.2472e-06
10378.0, 2.4134e-06
10380.0, 2.0531e-06
10382.0, 2.0568e-06
10384.0, 2.2422e-06
10386.0, 1.8717e-06
10388.0, 1.9764e-06
10390.0, 2.5654e-06
10392.0, 2.6498e-06
10394.0, 2.3684e-06
10396.0, 1.7078e-06
10398.0, 2.0179e-06
10400.0, 1.9029e-06
10402.0, 2.1089e-06
10404.0, 2.1367e-06
10406.0, 2.5524e-06
10408.0, 2.2009e-06
10410.0, 1.7785e-06
10412.0, 2.0067e-06
10414.0, 1.6153e-06
10416.0, 2.0733e-06
10418.0, 2.2486e-06
10420.0, 2.2219e-06
10422.0, 2.1468e-06
10424.0, 2.2698e-06
10426.0, 2.1423e-06
10428.0, 2.0247e-06
10430.0, 1.8145e-06
10432.0, 2.0008e-06
10434.0, 2.3156e-06
10436.0, 1.9967e-06
10438.0, 2.2691e-06
10440.0, 2.0158e-06
10442.0, 2.1029e-06
10444.0, 2.3248e-06
10446.0, 1.9437e-06
10448.0, 1.8904e-06
10450.0, 2.0013e-06
10452.0, 2.0557e-06
10454.0, 2.2529e-06
10456.0, 2.0537e-06
10458.0, 2.0212e-06
10460.0, 2.001e-06
10462.0, 2.0198e-06
10464.0, 2.2787e-06
10466.0, 2.1969e-06
10468.0, 2.0244e-06
10470.0, 2.2802e-06
10472.0, 2.1537e-06
10474.0, 2.1769e-06
10476.0, 1.9907e-06
10478.0, 1.8547e-06
10480.0, 2.0182e-06
10482.0, 2.1729e-06
10484.0, 2.1661e-06
10486.0, 2.0933e-06
10488.0, 2.3866e-06
10490.0, 2.0978e-06
10492.0, 1.8983e-06
10494.0, 1.4488e-07
10496.0, -4.494e-08
10498.0, -4.053e-08
10500.0, -4.328e-08
10502.0, -4.291e-08
10504.0, -4.199e-08
10506.0, -4.391e-08
10508.0, -4.574e-08
10510.0, -4.578e-08
10513.0, -4.314e-08
10515.0, -4.212e-08
10517.0, -4.342e-08
10519.0, -4.158e-08
10521.0, -4.486e-08
10523.0, -4.481e-08
10525.0, -4.751e-08
10527.0, -4.14e-08
10529.0, -4.355e-08
10531.0, -4.387e-08
10533.0, -4.558e-08
10535.0, -4.277e-08
10537.0, -4.541e-08
10539.0, -4.438e-08
10541.0, -4.522e-08
10543.0, -4.516e-08
10545.0, -4.552e-08
10547.0, -4.417e-08
10549.0, -4.845e-08
10551.0, -4.908e-08
10553.0, -4.862e-08
10555.0, -4.544e-08
10557.0, -4.818e-08
10559.0, -4.938e-08
10561.0, -4.68e-08
10563.0, -4.756e-08
10565.0, -5.042e-08
10567.0, -4.903e-08
10569.0, -4.713e-08
10571.0, -4.745e-08
10573.0, -4.949e-08
10575.0, -4.789e-08
10577.0, -4.506e-08
10579.0, -4.802e-08
10581.0, -4.866e-08
10583.0, -4.697e-08
10585.0, -4.49e-08
10587.0, -4.483e-08
10589.0, -4.201e-08
10591.0, -4.471e-08
10593.0, -4.586e-08
10595.0, -4.498e-08
10597.0, -4.201e-08
10599.0, -4.781e-08
10601.0, -4.597e-08
10603.0, -5.025e-08
10605.0, -4.619e-08
10607.0, -4.852e-08
10609.0, -4.157e-08
10611.0, -4.633e-08
10613.0, -4.593e-08
10615.0, -4.71e-08
10617.0, -4.772e-08
10619.0, -4.832e-08
10621.0, -4.674e-08
10623.0, -4.474e-08
10625.0, -4.712e-08
10627.0, -4.368e-08
10629.0, -4.952e-08
10631.0, -4.878e-08
10633.0, -5.139e-08
10635.0, -5.053e-08
10637.0, -5.124e-08
10639.0, -5.492e-08
10641.0, -5.438e-08
10643.0, -5.394e-08
10645.0, -5.097e-08
10647.0, -4.6e-08
10649.0, -5.059e-08
10651.0, -4.823e-08
10653.0, -5.058e-08
10655.0, -4.922e-08
10657.0, -5.191e-08
10659.0, -5.52e-08
10661.0, -5.327e-08
10663.0, -5.5e-08
10665.0, -5.476e-08
10667.0, -4.969e-08
10669.0, -4.894e-08
10671.0, -5.121e-08
10673.0, -5.021e-08
10675.0, -4.744e-08
10677.0, -4.846e-08
10679.0, -4.652e-08
10681.0, -4.752e-08
10683.0, -4.647e-08
10685.0, -4.586e-08
10687.0, -4.74e-08
10689.0, -4.894e-08
10691.0, -4.753e-08
10693.0, -4.549e-08
10695.0, -4.689e-08
10697.0, -4.5e-08
10699.0, -4.297e-08
10701.0, -4.194e-08
10703.0, -4.651e-08
10705.0, -4.422e-08
10707.0, -4.177e-08
10709.0, -4.48e-08
10711.0, -4.6e-08
10713.0, -4.535e-08
10715.0, -4.72e-08
10717.0, -4.563e-08
10719.0, -4.447e-08
10721.0, -4.483e-08
10723.0, -4.335e-08
10725.0, -4.329e-08
10727.0, -4.366e-08
10729.0, -4.538e-08
10731.0, -4.452e-08
10733.0, -4.968e-08
10735.0, -4.546e-08
10737.0, -4.743e-08
10739.0, -4.769e-08
10741.0, -4.734e-08
10743.0, -4.71e-08
10745.0, -4.729e-08
10747.0, -5.042e-08
10749.0, -5.011e-08
10751.0, -4.655e-08
10753.0, -4.553e-08
10755.0, -4.948e-08
10757.0, -4.6e-08
10759.0, -4.705e-08
10761.0, -4.917e-08
10763.0, -4.992e-08
10765.0, -4.665e-08
10767.0, -4.762e-08
10769.0, -4.428e-08
10771.0, -4.606e-08
10773.0, -4.554e-08
10775.0, -4.608e-08
10777.0, -4.087e-08
10779.0, -4.78e-08
10781.0, -4.58e-08
10783.0, -4.651e-08
10785.0, -4.303e-08
10787.0, -4.487e-08
10789.0, -4.211e-08
10791.0, -4.235e-08
10793.0, -3.913e-08
10795.0, -4.073e-08
10797.0, -3.968e-08
10799.0, -3.984e-08
10801.0, -3.974e-08
10803.0, -4.168e-08
10805.0, -4e-08
10807.0, -3.937e-08
10809.0, -4.026e-08
10811.0, -4.256e-08
10813.0, -4.135e-08
10815.0, -4.037e-08
10817.0, -4.311e-08
10819.0, -4.31e-08
10821.0, -4.302e-08
10823.0, -4.3e-08
10825.0, -3.925e-08
10827.0, -4.049e-08
10829.0, -4.081e-08
10831.0, -4.268e-08
10833.0, -4.461e-08
10835.0, -4.513e-08
10837.0, -4.28e-08
10839.0, -4.33e-08
10841.0, -4.065e-08
10843.0, -4.109e-08
10845.0, -4.429e-08
10847.0, -4.186e-08
10849.0, -4.108e-08
10851.0, -4.394e-08
10853.0, -4.412e-08
10855.0, -4.507e-08
10857.0, -4.59e-08
10859.0, -4.525e-08
10861.0, -4.833e-08
10863.0, -4.48e-08
10865.0, -4.194e-08
10867.0, -4.292e-08
10869.0, -4.243e-08
10871.0, -4.381e-08
10873.0, -4.361e-08
10875.0, -4.317e-08
10877.0, -3.813e-08
10879.0, -4.412e-08
10881.0, -4.586e-08
10883.0, -4.945e-08
10885.0, -4.463e-08
10887.0, -4.425e-08
10889.0, -4.842e-08
10891.0, -4.533e-08
10893.0, -4.537e-08
10895.0, -4.541e-08
10897.0, -4.252e-08
10899.0, -4.811e-08
10901.0, -4.514e-08
10903.0, -4.722e-08
10905.0, -4.561e-08
10907.0, -4.071e-08
10909.0, -4.614e-08
10911.0, -4.692e-08
10913.0, -4.7e-08
10915.0, -4.339e-08
10917.0, -4.307e-08
10919.0, -4.32e-08
10921.0, -4.548e-08
10923.0, -3.925e-08
10925.0, -4.164e-08
10927.0, -4.551e-08
10929.0, -4.198e-08
10931.0, -4.469e-08
10933.0, -4.632e-08
10935.0, -4.288e-08
10937.0, -4.081e-08
10939.0, -4.208e-08
10941.0, -4.029e-08
10943.0, -4.288e-08
10945.0, -4.296e-08
10947.0, -4.503e-08
10949.0, -4.587e-08
10951.0, -4.328e-08
10953.0, -4.36e-08
10955.0, -4.384e-08
10957.0, -4.345e-08
10959.0, -4.254e-08
10961.0, -4.279e-08
10963.0, -4.182e-08
10965.0, -4.079e-08
10967.0, -4.256e-08
10969.0, -4.296e-08
10971.0, -4.108e-08
10973.0, -4.351e-08
10975.0, -4.013e-08
10977.0, -4.077e-08
10979.0, -3.888e-08
10981.0, -4.221e-08
10983.0, -4.009e-08
10985.0, -3.646e-08
10987.0, -4.151e-08
10989.0, -3.709e-08
10991.0, -3.778e-08
10993.0, -3.94e-08
10995.0, -3.832e-08
10997.0, -3.895e-08
10999.0, -4.011e-08
11001.0, -3.739e-08
11003.0, -3.677e-08
11005.0, -3.922e-08
11007.0, -4.051e-08
11009.0, -4.065e-08
