Time sep (ms?), Current (A)
0.0, -4.761e-08
2.002, -4.904e-08
4.004, -5.021e-08
6.006, -4.219e-08
8.008, -4.257e-08
10.01, -3.972e-08
12.012, -4.307e-08
14.014, -4.506e-08
16.016, -4.239e-08
18.018, -4.262e-08
20.02, -4.539e-08
22.022, -4.648e-08
24.024, -4.931e-08
26.026, -4.591e-08
28.028, -4.876e-08
30.03, -4.71e-08
32.032, -4.691e-08
34.034, -4.666e-08
36.036, -4.552e-08
38.038, -4.506e-08
40.04, -4.652e-08
42.042, -4.619e-08
44.044, -4.587e-08
46.046, -4.696e-08
48.048, -4.617e-08
50.05, -4.751e-08
52.052, -4.636e-08
54.054, -4.656e-08
56.056, -4.559e-08
58.058, -4.83e-08
60.06, -4.696e-08
62.062, -4.694e-08
64.064, -4.926e-08
66.066, -4.582e-08
68.068, -4.747e-08
70.07, -4.48e-08
72.072, -4.829e-08
74.074, -4.662e-08
76.076, -4.34e-08
78.078, -4.685e-08
80.08, -4.834e-08
82.082, -4.485e-08
84.084, -4.735e-08
86.086, -4.759e-08
88.088, -4.997e-08
90.09, -4.889e-08
92.092, -4.595e-08
94.094, -4.503e-08
96.096, -4.478e-08
98.098, -4.647e-08
100.1, -4.208e-08
102.1, -4.393e-08
104.1, -4.262e-08
106.11, -4.539e-08
108.11, -4.265e-08
110.11, -4.145e-08
112.11, -4.479e-08
114.11, -4.36e-08
116.12, -4.357e-08
118.12, -4.095e-08
120.12, -3.996e-08
122.12, -3.853e-08
124.12, -4.059e-08
126.13, -4.22e-08
128.13, -4.584e-08
130.13, -4.53e-08
132.13, -4.596e-08
134.13, -4.377e-08
136.14, -4.276e-08
138.14, -4.409e-08
140.14, -4.472e-08
142.14, -4.097e-08
144.14, -4.016e-08
146.15, -4.211e-08
148.15, -4.291e-08
150.15, -4.369e-08
152.15, -4.047e-08
154.15, -4.112e-08
156.16, -4.199e-08
158.16, -4.333e-08
160.16, -4.23e-08
162.16, -4.445e-08
164.16, -4.431e-08
166.17, -4.22e-08
168.17, -4.184e-08
170.17, -4.441e-08
172.17, -4.188e-08
174.17, -4.387e-08
176.18, -4.383e-08
178.18, -4.563e-08
180.18, -4.598e-08
182.18, -4.201e-08
184.18, -4.693e-08
186.19, -3.96e-08
188.19, -4.438e-08
190.19, -4.424e-08
192.19, -4.418e-08
194.19, -4.435e-08
196.2, -4.044e-08
198.2, -4.152e-08
200.2, -3.98e-08
202.2, -4.021e-08
204.2, -4.128e-08
206.21, -4.408e-08
208.21, -4.39e-08
210.21, -3.974e-08
212.21, -4.207e-08
214.21, -4.099e-08
216.22, -4.149e-08
218.22, -4.596e-08
220.22, -4.078e-08
222.22, -4.169e-08
224.22, -4.037e-08
226.23, -4.418e-08
228.23, -4.093e-08
230.23, -4.147e-08
232.23, -4.014e-08
234.23, -4.005e-08
236.24, -4.021e-08
238.24, -4.232e-08
240.24, -4.356e-08
242.24, -4.037e-08
244.24, -3.995e-08
246.25, -3.916e-08
248.25, -4.174e-08
250.25, -4.334e-08
252.25, -4.244e-08
254.25, -3.795e-08
256.26, -4.163e-08
258.26, -4.067e-08
260.26, -3.607e-08
262.26, -3.775e-08
264.26, -3.556e-08
266.27, -4.414e-08
268.27, -4.307e-08
270.27, -3.916e-08
272.27, -3.963e-08
274.27, -3.728e-08
276.28, -4.093e-08
278.28, -4.135e-08
280.28, -3.871e-08
282.28, -3.739e-08
284.28, -3.618e-08
286.29, -3.751e-08
288.29, -4.094e-08
290.29, -3.998e-08
292.29, -4.082e-08
294.29, -3.958e-08
296.3, -3.466e-08
298.3, -4.135e-08
300.3, -3.602e-08
302.3, -3.545e-08
304.3, -4.412e-08
306.31, -3.857e-08
308.31, -3.818e-08
310.31, -4.012e-08
312.31, -3.957e-08
314.31, -4.02e-08
316.32, -3.617e-08
318.32, -4.045e-08
320.32, -3.645e-08
322.32, -4.004e-08
324.32, -3.676e-08
326.33, -4.007e-08
328.33, -3.77e-08
330.33, -3.566e-08
332.33, -3.556e-08
334.33, -3.913e-08
336.34, -3.701e-08
338.34, -3.826e-08
340.34, -4.122e-08
342.34, -3.995e-08
344.34, -3.95e-08
346.35, -3.777e-08
348.35, -4.238e-08
350.35, -3.933e-08
352.35, -4.066e-08
354.35, -3.813e-08
356.36, -4.115e-08
358.36, -3.705e-08
360.36, -4.153e-08
362.36, -4.279e-08
364.36, -4.176e-08
366.37, -4.29e-08
368.37, -4.097e-08
370.37, -4.077e-08
372.37, -4.627e-08
374.37, -4.067e-08
376.38, -4.068e-08
378.38, -4.413e-08
380.38, -4.373e-08
382.38, -4.105e-08
384.38, -4.161e-08
386.39, -4.412e-08
388.39, -4.32e-08
390.39, -4.489e-08
392.39, -4.356e-08
394.39, -4.671e-08
396.4, -4.366e-08
398.4, -4.243e-08
400.4, -4.127e-08
402.4, -4.656e-08
404.4, -4.562e-08
406.41, -4.42e-08
408.41, -4.358e-08
410.41, -4.663e-08
412.41, -4.428e-08
414.41, -4.145e-08
416.42, -4.445e-08
418.42, -4.332e-08
420.42, -4.334e-08
422.42, -4.414e-08
424.42, -4.369e-08
426.43, -4.61e-08
428.43, -4.303e-08
430.43, -4.321e-08
432.43, -4.254e-08
434.43, -4.469e-08
436.44, -4.297e-08
438.44, -4.242e-08
440.44, -4.388e-08
442.44, -4.488e-08
444.44, -4.184e-08
446.45, -4.507e-08
448.45, -4.321e-08
450.45, -4.364e-08
452.45, -3.981e-08
454.45, -4.593e-08
456.46, -4.204e-08
458.46, -4.302e-08
460.46, -4.397e-08
462.46, -4.829e-08
464.46, -4.733e-08
466.47, -4.604e-08
468.47, -4.563e-08
470.47, -3.941e-08
472.47, -4.139e-08
474.47, -4.469e-08
476.48, -4.174e-08
478.48, -4.326e-08
480.48, -4.224e-08
482.48, -4.327e-08
484.48, -4.353e-08
486.49, -4.426e-08
488.49, -4.068e-08
490.49, -4.155e-08
492.49, -4.143e-08
494.49, -4.677e-08
496.5, -4.499e-08
498.5, -4.381e-08
500.5, -4.271e-08
502.5, -4.467e-08
504.5, -4.477e-08
506.51, -4.423e-08
508.51, -4.417e-08
510.51, -4.581e-08
512.51, -4.174e-08
514.51, -4.356e-08
516.52, -4.262e-08
518.52, -4.029e-08
520.52, -4.174e-08
522.52, -4.051e-08
524.52, -3.779e-08
526.53, -4.204e-08
528.53, -4.005e-08
530.53, -3.768e-08
532.53, -3.923e-08
534.53, -4.259e-08
536.54, -4.553e-08
538.54, -4.183e-08
540.54, -4.068e-08
542.54, -4.283e-08
544.54, -3.747e-08
546.55, -3.673e-08
548.55, -4.041e-08
550.55, -4.308e-08
552.55, -4.24e-08
554.55, -4.174e-08
556.56, -4.592e-08
558.56, -4.601e-08
560.56, -4.296e-08
562.56, -4.159e-08
564.56, -4.029e-08
566.57, -3.88e-08
568.57, -3.803e-08
570.57, -4.185e-08
572.57, -4.119e-08
574.57, -3.818e-08
576.58, -4.366e-08
578.58, -3.723e-08
580.58, -3.623e-08
582.58, -4.205e-08
584.58, -4.022e-08
586.59, -4.279e-08
588.59, -4.351e-08
590.59, -4.117e-08
592.59, -4.43e-08
594.59, -4.321e-08
596.6, -3.902e-08
598.6, -3.837e-08
600.6, -3.998e-08
602.6, -3.975e-08
604.6, -4.014e-08
606.61, -4.153e-08
608.61, -4.108e-08
610.61, -4.356e-08
612.61, -4.4e-08
614.61, -4.201e-08
616.62, -4.16e-08
618.62, -4.205e-08
620.62, -4.085e-08
622.62, -4.015e-08
624.62, -4.275e-08
626.63, -4.241e-08
628.63, -3.819e-08
630.63, -3.864e-08
632.63, -4.504e-08
634.63, -4.744e-08
636.64, -4.378e-08
638.64, -3.562e-08
640.64, -4.009e-08
642.64, -4.302e-08
644.64, -3.824e-08
646.65, -4.432e-08
648.65, -4.092e-08
650.65, -4.264e-08
652.65, -4.007e-08
654.65, -4.158e-08
656.66, -4.173e-08
658.66, -4.152e-08
660.66, -3.983e-08
662.66, -3.845e-08
664.66, -4.098e-08
666.67, -4.054e-08
668.67, -4.017e-08
670.67, -3.758e-08
672.67, -4.159e-08
674.67, -3.886e-08
676.68, -3.655e-08
678.68, -3.668e-08
680.68, -4.038e-08
682.68, -3.794e-08
684.68, -3.78e-08
686.69, -4.113e-08
688.69, -4.23e-08
690.69, -3.942e-08
692.69, -4.202e-08
694.69, -4.299e-08
696.7, -4.088e-08
698.7, -4.071e-08
700.7, -4.033e-08
702.7, -3.892e-08
704.7, -4.161e-08
706.71, -4.032e-08
708.71, -4.297e-08
710.71, -3.941e-08
712.71, -3.831e-08
714.71, -4.304e-08
716.72, -4.648e-08
718.72, -4.189e-08
720.72, -4.508e-08
722.72, -4.452e-08
724.72, -4.233e-08
726.73, -4.486e-08
728.73, -4.804e-08
730.73, -3.993e-08
732.73, -4.355e-08
734.73, -4.321e-08
736.74, -4.837e-08
738.74, -4.22e-08
740.74, -4.397e-08
742.74, -4.407e-08
744.74, -4.337e-08
746.75, -3.845e-08
748.75, -4.111e-08
750.75, -4.196e-08
752.75, -4.022e-08
754.75, -3.8e-08
756.76, -3.606e-08
758.76, -3.943e-08
760.76, -3.928e-08
762.76, -3.609e-08
764.76, -3.802e-08
766.77, -3.635e-08
768.77, -3.825e-08
770.77, -3.477e-08
772.77, -4.105e-08
774.77, -4.194e-08
776.78, -4.242e-08
778.78, -3.805e-08
780.78, -4.015e-08
782.78, -4.201e-08
784.78, -4.366e-08
786.79, -4.292e-08
788.79, -4.101e-08
790.79, -3.994e-08
792.79, -3.957e-08
794.79, -4.148e-08
796.8, -4.419e-08
798.8, -4.293e-08
800.8, -4.119e-08
802.8, -4.358e-08
804.8, -4.37e-08
806.81, -4.192e-08
808.81, -3.844e-08
810.81, -4.094e-08
812.81, -3.995e-08
814.81, -3.922e-08
816.82, -4.089e-08
818.82, -4.391e-08
820.82, -4.039e-08
822.82, -4.255e-08
824.82, -4.233e-08
826.83, -4.103e-08
828.83, -4.295e-08
830.83, -4.301e-08
832.83, -4.342e-08
834.83, -4.134e-08
836.84, -4.284e-08
838.84, -4.484e-08
840.84, -4.065e-08
842.84, -4.496e-08
844.84, -4.448e-08
846.85, -3.866e-08
848.85, -4.19e-08
850.85, -3.974e-08
852.85, -3.901e-08
854.85, -4.202e-08
856.86, -4.223e-08
858.86, -4.286e-08
860.86, -3.789e-08
862.86, -3.502e-08
864.86, -4.047e-08
866.87, -3.766e-08
868.87, -3.61e-08
870.87, -3.743e-08
872.87, -3.924e-08
874.87, -4.039e-08
876.88, -3.701e-08
878.88, -3.845e-08
880.88, -3.585e-08
882.88, -3.544e-08
884.88, -4.221e-08
886.89, -4.107e-08
888.89, -3.949e-08
890.89, -3.801e-08
892.89, -4.041e-08
894.89, -3.812e-08
896.9, -3.998e-08
898.9, -3.888e-08
900.9, -4.068e-08
902.9, -3.975e-08
904.9, -4.031e-08
906.91, -3.741e-08
908.91, -3.856e-08
910.91, -3.949e-08
912.91, -4.02e-08
914.91, -3.708e-08
916.92, -4.05e-08
918.92, -4.06e-08
920.92, -3.784e-08
922.92, -3.846e-08
924.92, -3.594e-08
926.93, -3.888e-08
928.93, -3.871e-08
930.93, -3.803e-08
932.93, -4.004e-08
934.93, -4.222e-08
936.94, -3.831e-08
938.94, -4.186e-08
940.94, -3.923e-08
942.94, -3.8e-08
944.94, -4.034e-08
946.95, -4.124e-08
948.95, -4.281e-08
950.95, -3.474e-08
952.95, -3.89e-08
954.95, -3.943e-08
956.96, -3.824e-08
958.96, -3.812e-08
960.96, -3.938e-08
962.96, -3.892e-08
964.96, -3.934e-08
966.97, -3.958e-08
968.97, -4.15e-08
970.97, -4.033e-08
972.97, -3.924e-08
974.97, -3.828e-08
976.98, -4.119e-08
978.98, -4.173e-08
980.98, -4.309e-08
982.98, -4.009e-08
984.98, -4.096e-08
986.99, -3.947e-08
988.99, -4.003e-08
990.99, -4.03e-08
992.99, -4.037e-08
994.99, -3.875e-08
997.0, -4.067e-08
999.0, -4.331e-08
1001.0, -4.269e-08
1003.0, -3.954e-08
1005.0, -4.111e-08
1007.0, -4.398e-08
1009.0, -4.008e-08
1011.0, -3.978e-08
1013.0, -3.694e-08
1015.0, -3.668e-08
1017.0, -4.084e-08
1019.0, -4.274e-08
1021.0, -3.537e-08
1023.0, -3.671e-08
1025.0, -4.052e-08
1027.0, -3.984e-08
1029.0, -3.953e-08
1031.0, -3.686e-08
1033.0, -3.992e-08
1035.0, -4.445e-08
1037.0, -4.435e-08
1039.0, -4.352e-08
1041.0, -4.16e-08
1043.0, -4.03e-08
1045.0, -4.056e-08
1047.0, -4.374e-08
1049.0, -4.222e-08
1051.0, -4.049e-08
1053.1, -4.334e-08
1055.1, -4.368e-08
1057.1, -3.88e-08
1059.1, -4.154e-08
1061.1, -4.145e-08
1063.1, -4.059e-08
1065.1, -4.335e-08
1067.1, -4.224e-08
1069.1, -4.588e-08
1071.1, -4.645e-08
1073.1, -4.332e-08
1075.1, -4.594e-08
1077.1, -4.586e-08
1079.1, -4.172e-08
1081.1, -4.145e-08
1083.1, -4.332e-08
1085.1, -4.383e-08
1087.1, -4.046e-08
1089.1, -4.151e-08
1091.1, -3.782e-08
1093.1, -4.151e-08
1095.1, -4.039e-08
1097.1, -4.005e-08
1099.1, -4.346e-08
1101.1, -4.169e-08
1103.1, -4.088e-08
1105.1, -4.164e-08
1107.1, -4.219e-08
1109.1, 1.8737e-07
1111.1, 1.5814e-07
1113.1, 1.5702e-07
1115.1, 1.3094e-07
1117.1, 1.324e-07
1119.1, 1.4938e-07
1121.1, 1.5073e-07
1123.1, 1.4658e-07
1125.1, 1.0707e-07
1127.1, 1.4739e-07
1129.1, 1.6426e-07
1131.1, 1.571e-07
1133.1, 1.7599e-07
1135.1, 1.558e-07
1137.1, 1.5979e-07
1139.1, 1.5695e-07
1141.1, 1.4503e-07
1143.1, 1.599e-07
1145.1, 1.572e-07
1147.1, 1.557e-07
1149.1, 1.7206e-07
1151.1, 1.5626e-07
1153.2, 1.7771e-07
1155.2, 1.6552e-07
1157.2, 1.1553e-07
1159.2, 1.4121e-07
1161.2, 1.8495e-07
1163.2, 1.6589e-07
1165.2, 1.7657e-07
1167.2, 1.5565e-07
1169.2, 1.5238e-07
1171.2, 1.4083e-07
1173.2, 1.7903e-07
1175.2, 1.4688e-07
1177.2, 1.6318e-07
1179.2, 1.4601e-07
1181.2, 1.583e-07
1183.2, 1.9719e-07
1185.2, 1.8018e-07
1187.2, 1.5154e-07
1189.2, 1.7068e-07
1191.2, 1.9737e-07
1193.2, 1.4487e-07
1195.2, 1.685e-07
1197.2, 1.6438e-07
1199.2, 1.7892e-07
1201.2, 1.6578e-07
1203.2, 1.7204e-07
1205.2, 1.5941e-07
1207.2, 1.5708e-07
1209.2, 1.6728e-07
1211.2, 1.2385e-07
1213.2, 1.7991e-07
1215.2, 1.5143e-07
1217.2, 1.4337e-07
1219.2, 2.0355e-07
1221.2, 2.1849e-07
1223.2, 2.1076e-07
1225.2, 1.4027e-07
1227.2, 1.9616e-07
1229.2, 1.3925e-07
1231.2, 1.4716e-07
1233.2, 1.8453e-07
1235.2, 1.4645e-07
1237.2, 2.1035e-07
1239.2, 1.5936e-07
1241.2, 1.5919e-07
1243.2, 1.8008e-07
1245.2, 1.6922e-07
1247.2, 1.8309e-07
1249.2, 1.5941e-07
1251.2, 1.5372e-07
1253.3, 1.579e-07
1255.3, 1.7221e-07
1257.3, 1.835e-07
1259.3, 1.8379e-07
1261.3, 1.8882e-07
1263.3, 1.8176e-07
1265.3, 2.0038e-07
1267.3, 1.6578e-07
1269.3, 1.6372e-07
1271.3, 1.6312e-07
1273.3, 1.7517e-07
1275.3, 2.0372e-07
1277.3, 1.8595e-07
1279.3, 1.5567e-07
1281.3, 1.5762e-07
1283.3, 1.6498e-07
1285.3, 1.7048e-07
1287.3, 1.4792e-07
1289.3, 1.7342e-07
1291.3, 1.6853e-07
1293.3, 1.9967e-07
1295.3, 1.9796e-07
1297.3, 1.9248e-07
1299.3, 1.4533e-07
1301.3, 1.5603e-07
1303.3, 1.8788e-07
1305.3, 1.4311e-07
1307.3, 1.6313e-07
1309.3, 1.9081e-07
1311.3, 1.774e-07
1313.3, 1.639e-07
1315.3, 1.892e-07
1317.3, 1.7907e-07
1319.3, 2.1607e-07
1321.3, 1.7969e-07
1323.3, 1.6411e-07
1325.3, 1.7111e-07
1327.3, 1.4771e-07
1329.3, 1.7267e-07
1331.3, 1.9282e-07
1333.3, 2.1039e-07
1335.3, 2.1851e-07
1337.3, 2.0953e-07
1339.3, 1.5722e-07
1341.3, 2.008e-07
1343.3, 1.7779e-07
1345.3, 1.5616e-07
1347.3, 1.6998e-07
1349.3, 2.4399e-07
1351.3, 1.8031e-07
1353.4, 2.4138e-07
1355.4, 1.6524e-07
1357.4, 1.9128e-07
1359.4, 1.81e-07
1361.4, 1.6755e-07
1363.4, 2.1297e-07
1365.4, 1.9379e-07
1367.4, 1.599e-07
1369.4, 2.0456e-07
1371.4, 1.9564e-07
1373.4, 2.3178e-07
1375.4, 1.6631e-07
1377.4, 1.9906e-07
1379.4, 1.9894e-07
1381.4, 1.8148e-07
1383.4, 1.7003e-07
1385.4, 2.0169e-07
1387.4, 1.8393e-07
1389.4, 1.8738e-07
1391.4, 1.8376e-07
1393.4, 1.9137e-07
1395.4, 1.6817e-07
1397.4, 1.7431e-07
1399.4, 1.9597e-07
1401.4, 1.7055e-07
1403.4, 1.9368e-07
1405.4, 2.0145e-07
1407.4, 2.1377e-07
1409.4, 2.1318e-07
1411.4, 1.7126e-07
1413.4, 1.8638e-07
1415.4, 2.2917e-07
1417.4, 1.7102e-07
1419.4, 1.8145e-07
1421.4, 2.0721e-07
1423.4, 1.7412e-07
1425.4, 1.7837e-07
1427.4, 1.7314e-07
1429.4, 1.9578e-07
1431.4, 1.7857e-07
1433.4, 1.7251e-07
1435.4, 1.8635e-07
1437.4, 2.1239e-07
1439.4, 1.9145e-07
1441.4, 1.5906e-07
1443.4, 1.5637e-07
1445.4, 1.6119e-07
1447.4, 2.017e-07
1449.4, 1.7955e-07
1451.4, 2.0589e-07
1453.5, 1.5218e-07
1455.5, 1.9957e-07
1457.5, 1.8628e-07
1459.5, 1.9085e-07
1461.5, 2.0088e-07
1463.5, 1.9728e-07
1465.5, 2.3152e-07
1467.5, 1.5696e-07
1469.5, 2.0529e-07
1471.5, 1.9196e-07
1473.5, 1.9552e-07
1475.5, 1.5426e-07
1477.5, 1.6874e-07
1479.5, 1.8995e-07
1481.5, 2.276e-07
1483.5, 2.0213e-07
1485.5, 1.9032e-07
1487.5, 2.0304e-07
1489.5, 2.2081e-07
1491.5, 2.1961e-07
1493.5, 1.8051e-07
1495.5, 1.6892e-07
1497.5, 1.9045e-07
1499.5, 2.0724e-07
1501.5, 2.0893e-07
1503.5, 2.0093e-07
1505.5, 1.5354e-07
1507.5, 1.9037e-07
1509.5, 1.9473e-07
1511.5, 1.6755e-07
1513.5, 1.9843e-07
1515.5, 1.9556e-07
1517.5, 2.0883e-07
1519.5, 1.7742e-07
1521.5, 1.9576e-07
1523.5, 1.9536e-07
1525.5, 2.1146e-07
1527.5, 1.7686e-07
1529.5, 1.9824e-07
1531.5, 1.5393e-07
1533.5, 2.0514e-07
1535.5, 1.8766e-07
1537.5, 1.6912e-07
1539.5, 1.4196e-07
1541.5, 2.2131e-07
1543.5, 2.0996e-07
1545.5, 1.9787e-07
1547.5, 2.3511e-07
1549.5, 1.8989e-07
1551.5, 1.8616e-07
1553.6, 1.9935e-07
1555.6, 2.0515e-07
1557.6, 2.2979e-07
1559.6, 1.7636e-07
1561.6, 2.0513e-07
1563.6, 2.0107e-07
1565.6, 2.1094e-07
1567.6, 2.0733e-07
1569.6, 2.2144e-07
1571.6, 2.1717e-07
1573.6, 2.0666e-07
1575.6, 1.9493e-07
1577.6, 2.3823e-07
1579.6, 1.8373e-07
1581.6, 2.0952e-07
1583.6, 2.068e-07
1585.6, 1.8816e-07
1587.6, 1.73e-07
1589.6, 1.9277e-07
1591.6, 1.7184e-07
1593.6, 2.1836e-07
1595.6, 1.7072e-07
1597.6, 2.0821e-07
1599.6, 1.502e-07
1601.6, 2.0711e-07
1603.6, 1.5728e-07
1605.6, 1.989e-07
1607.6, 1.7788e-07
1609.6, 1.7032e-07
1611.6, 2.3098e-07
1613.6, 1.9474e-07
1615.6, 2.1517e-07
1617.6, 1.6804e-07
1619.6, 1.7581e-07
1621.6, 1.3357e-07
1623.6, 1.8088e-07
1625.6, 2.0098e-07
1627.6, 1.5891e-07
1629.6, 2.1469e-07
1631.6, 1.9319e-07
1633.6, 2.243e-07
1635.6, 1.7733e-07
1637.6, 2.0899e-07
1639.6, 1.88e-07
1641.6, 2.2016e-07
1643.6, 1.7575e-07
1645.6, 1.7172e-07
1647.6, 2.3234e-07
1649.6, 1.9568e-07
1651.6, 1.8944e-07
1653.7, 2.0016e-07
1655.7, 2.2103e-07
1657.7, 1.9329e-07
1659.7, 1.5887e-07
1661.7, 1.5979e-07
1663.7, 1.7407e-07
1665.7, 2.0385e-07
1667.7, 1.9067e-07
1669.7, 1.8115e-07
1671.7, 1.9038e-07
1673.7, 1.9629e-07
1675.7, 2.3738e-07
1677.7, 1.6367e-07
1679.7, 1.6776e-07
1681.7, 1.9055e-07
1683.7, 1.8221e-07
1685.7, 1.8567e-07
1687.7, 2.0874e-07
1689.7, 2.0119e-07
1691.7, 1.9723e-07
1693.7, 2.2324e-07
1695.7, 1.3921e-07
1697.7, 1.6483e-07
1699.7, 2.0134e-07
1701.7, 2.2007e-07
1703.7, 1.6091e-07
1705.7, 1.812e-07
1707.7, 1.845e-07
1709.7, 1.9434e-07
1711.7, 1.9994e-07
1713.7, 1.6299e-07
1715.7, 2.2477e-07
1717.7, 2.3188e-07
1719.7, 2.1996e-07
1721.7, 2.777e-07
1723.7, 1.9437e-07
1725.7, 1.7782e-07
1727.7, 1.847e-07
1729.7, 1.5453e-07
1731.7, 1.8186e-07
1733.7, 2.1405e-07
1735.7, 2.1562e-07
1737.7, 2.0025e-07
1739.7, 2.0867e-07
1741.7, 2.1619e-07
1743.7, 2.2451e-07
1745.7, 2.0784e-07
1747.7, 2.2044e-07
1749.7, 2.0415e-07
1751.7, 1.8093e-07
1753.8, 1.901e-07
1755.8, 1.9019e-07
1757.8, 1.9334e-07
1759.8, 1.7655e-07
1761.8, 1.9094e-07
1763.8, 2.3726e-07
1765.8, 2.075e-07
1767.8, 1.826e-07
1769.8, 1.8945e-07
1771.8, 1.8404e-07
1773.8, 1.6227e-07
1775.8, 1.8452e-07
1777.8, 2.2033e-07
1779.8, 2.4301e-07
1781.8, 2.0983e-07
1783.8, 2.3919e-07
1785.8, 2.2655e-07
1787.8, 1.7236e-07
1789.8, 1.7626e-07
1791.8, 1.8998e-07
1793.8, 2.4065e-07
1795.8, 1.9119e-07
1797.8, 1.8391e-07
1799.8, 1.585e-07
1801.8, 1.928e-07
1803.8, 1.8723e-07
1805.8, 1.935e-07
1807.8, 2.4016e-07
1809.8, 2.0068e-07
1811.8, 2.0473e-07
1813.8, 2.4855e-07
1815.8, 1.9153e-07
1817.8, 1.9948e-07
1819.8, 2.3405e-07
1821.8, 1.8612e-07
1823.8, 2.0681e-07
1825.8, 1.9344e-07
1827.8, 1.4404e-07
1829.8, 1.959e-07
1831.8, 2.1552e-07
1833.8, 2.18e-07
1835.8, 2.0209e-07
1837.8, 2.2496e-07
1839.8, 1.6358e-07
1841.8, 2.3229e-07
1843.8, 1.9949e-07
1845.8, 1.9933e-07
1847.8, 1.7649e-07
1849.8, 2.0739e-07
1851.8, 1.8846e-07
1853.9, 1.9975e-07
1855.9, 1.3718e-07
1857.9, 2.3417e-07
1859.9, 1.9273e-07
1861.9, 2.2718e-07
1863.9, 2.2798e-07
1865.9, 2.0284e-07
1867.9, 1.8124e-07
1869.9, 1.9783e-07
1871.9, 2.0424e-07
1873.9, 1.6889e-07
1875.9, 1.1923e-07
1877.9, 2.1752e-07
1879.9, 2.1235e-07
1881.9, 1.686e-07
1883.9, 1.3787e-07
1885.9, 1.8523e-07
1887.9, 1.9786e-07
1889.9, 2.1071e-07
1891.9, 1.641e-07
1893.9, 1.8633e-07
1895.9, 2.202e-07
1897.9, 2.3518e-07
1899.9, 2.147e-07
1901.9, 1.9953e-07
1903.9, 2.0418e-07
1905.9, 1.7646e-07
1907.9, 2.2522e-07
1909.9, 2.4337e-07
1911.9, 1.8838e-07
1913.9, 2.3085e-07
1915.9, 2.0326e-07
1917.9, 1.8288e-07
1919.9, 1.6436e-07
1921.9, 1.8659e-07
1923.9, 1.9664e-07
1925.9, 1.991e-07
1927.9, 2.246e-07
1929.9, 1.6536e-07
1931.9, 2.1221e-07
1933.9, 1.8905e-07
1935.9, 1.853e-07
1937.9, 2.3014e-07
1939.9, 2.1603e-07
1941.9, 1.9392e-07
1943.9, 1.8286e-07
1945.9, 1.7386e-07
1947.9, 2.3555e-07
1949.9, 1.9621e-07
1951.9, 2.0478e-07
1954.0, 1.8348e-07
1956.0, 2.0196e-07
1958.0, 1.9319e-07
1960.0, 1.994e-07
1962.0, 2.1332e-07
1964.0, 1.9185e-07
1966.0, 1.903e-07
1968.0, 1.8064e-07
1970.0, 2.3219e-07
1972.0, 2.2276e-07
1974.0, 2.3629e-07
1976.0, 2.204e-07
1978.0, 1.6567e-07
1980.0, 2.0066e-07
1982.0, 2.064e-07
1984.0, 1.9607e-07
1986.0, 1.7579e-07
1988.0, 2.059e-07
1990.0, 2.1605e-07
1992.0, 2.3353e-07
1994.0, 1.6846e-07
1996.0, 2.3099e-07
1998.0, 1.8189e-07
2000.0, 1.6668e-07
2002.0, 2.2681e-07
2004.0, 2.0625e-07
2006.0, 1.5976e-07
2008.0, 2.1362e-07
2010.0, 2.1013e-07
2012.0, 1.8493e-07
2014.0, 2.1017e-07
2016.0, 1.8127e-07
2018.0, 1.6796e-07
2020.0, 1.9911e-07
2022.0, 2.4935e-07
2024.0, 1.7434e-07
2026.0, 1.9215e-07
2028.0, 1.8474e-07
2030.0, 1.7451e-07
2032.0, 2.3167e-07
2034.0, 2.0063e-07
2036.0, 2.2343e-07
2038.0, 1.8548e-07
2040.0, 1.6932e-07
2042.0, 2.0598e-07
2044.0, 2.0627e-07
2046.0, 1.8638e-07
2048.0, 1.6714e-07
2050.0, 1.9934e-07
2052.0, 1.7805e-07
2054.1, 2.3412e-07
2056.1, 2.1803e-07
2058.1, 1.8949e-07
2060.1, 1.7562e-07
2062.1, 1.7865e-07
2064.1, 2.2191e-07
2066.1, 2.1235e-07
2068.1, 1.9888e-07
2070.1, 2.2614e-07
2072.1, 2.1049e-07
2074.1, 2.2051e-07
2076.1, 2.012e-07
2078.1, 2.2424e-07
2080.1, 1.7686e-07
2082.1, 1.805e-07
2084.1, 2.1397e-07
2086.1, 1.9317e-07
2088.1, 1.8144e-07
2090.1, 1.7645e-07
2092.1, 2.1732e-07
2094.1, 2.4122e-07
2096.1, 2.0604e-07
2098.1, 1.7847e-07
2100.1, 1.9689e-07
2102.1, 2.3661e-07
2104.1, 1.883e-07
2106.1, 1.8008e-07
2108.1, 2.0287e-07
2110.1, -4.39e-08
2112.1, -4.798e-08
2114.1, -4.815e-08
2116.1, -4.528e-08
2118.1, -4.612e-08
2120.1, -4.311e-08
2122.1, -4.295e-08
2124.1, -4.398e-08
2126.1, -4.506e-08
2128.1, -4.798e-08
2130.1, -4.428e-08
2132.1, -4.143e-08
2134.1, -3.908e-08
2136.1, -4.086e-08
2138.1, -4.295e-08
2140.1, -4.354e-08
2142.1, -4.217e-08
2144.1, -4.58e-08
2146.1, -4.166e-08
2148.1, -4.542e-08
2150.1, -4.248e-08
2152.1, -4.295e-08
2154.2, -4.312e-08
2156.2, -4.672e-08
2158.2, -4.262e-08
2160.2, -4.37e-08
2162.2, -4.082e-08
2164.2, -4.401e-08
2166.2, -4.292e-08
2168.2, -3.956e-08
2170.2, -4.126e-08
2172.2, -3.972e-08
2174.2, -4.379e-08
2176.2, -4.692e-08
2178.2, -4.481e-08
2180.2, -4.35e-08
2182.2, -4.25e-08
2184.2, -4.459e-08
2186.2, -4.488e-08
2188.2, -4.192e-08
2190.2, -4.234e-08
2192.2, -3.785e-08
2194.2, -4.144e-08
2196.2, -4.064e-08
2198.2, -4.258e-08
2200.2, -4.607e-08
2202.2, -4.342e-08
2204.2, -4.358e-08
2206.2, -4.272e-08
2208.2, -4.275e-08
2210.2, -3.956e-08
2212.2, -4.204e-08
2214.2, -4.11e-08
2216.2, -4.24e-08
2218.2, -4.421e-08
2220.2, -4.307e-08
2222.2, -3.938e-08
2224.2, -3.834e-08
2226.2, -4.329e-08
2228.2, -4.039e-08
2230.2, -4.114e-08
2232.2, -4.257e-08
2234.2, -4.086e-08
2236.2, -4.293e-08
2238.2, -4.448e-08
2240.2, -4.21e-08
2242.2, -4.459e-08
2244.2, -4.595e-08
2246.2, -4.54e-08
2248.2, -4.09e-08
2250.2, -4.096e-08
2252.2, -4.362e-08
2254.3, -4.314e-08
2256.3, -4.5e-08
2258.3, -4.416e-08
2260.3, -4.438e-08
2262.3, -4.081e-08
2264.3, -3.816e-08
2266.3, -4.358e-08
2268.3, -4.428e-08
2270.3, -4.311e-08
2272.3, -4.628e-08
2274.3, -4.448e-08
2276.3, -4.316e-08
2278.3, -4.171e-08
2280.3, -4.237e-08
2282.3, -4.081e-08
2284.3, -4.542e-08
2286.3, -4.336e-08
2288.3, -4.216e-08
2290.3, -4.474e-08
2292.3, -4.509e-08
2294.3, -4.525e-08
2296.3, -4.598e-08
2298.3, -4.925e-08
2300.3, -4.981e-08
2302.3, -5.048e-08
2304.3, -4.778e-08
2306.3, -4.66e-08
2308.3, -4.879e-08
2310.3, -4.455e-08
2312.3, -5.025e-08
2314.3, -4.742e-08
2316.3, -4.769e-08
2318.3, -4.332e-08
2320.3, -4.592e-08
2322.3, -4.394e-08
2324.3, -4.355e-08
2326.3, -4.686e-08
2328.3, -4.73e-08
2330.3, -4.168e-08
2332.3, -4.23e-08
2334.3, -3.982e-08
2336.3, -3.896e-08
2338.3, -4.052e-08
2340.3, -4.167e-08
2342.3, -4.186e-08
2344.3, -4.144e-08
2346.3, -3.859e-08
2348.3, -4.348e-08
2350.3, -4.014e-08
2352.3, -3.88e-08
2354.4, -4.308e-08
2356.4, -4.003e-08
2358.4, -4.501e-08
2360.4, -4.08e-08
2362.4, -3.845e-08
2364.4, -4.276e-08
2366.4, -4.132e-08
2368.4, -4.189e-08
2370.4, -4.452e-08
2372.4, -3.819e-08
2374.4, -4.339e-08
2376.4, -4.16e-08
2378.4, -4.509e-08
2380.4, -4.42e-08
2382.4, -3.942e-08
2384.4, -3.892e-08
2386.4, -4.026e-08
2388.4, -3.913e-08
2390.4, -3.991e-08
2392.4, -3.828e-08
2394.4, -3.781e-08
2396.4, -4.266e-08
2398.4, -3.933e-08
2400.4, -4.741e-08
2402.4, -4.378e-08
2404.4, -4.206e-08
2406.4, -4.325e-08
2408.4, -4.2e-08
2410.4, -4.393e-08
2412.4, -3.838e-08
2414.4, -4.324e-08
2416.4, -4.028e-08
2418.4, -4.414e-08
2420.4, -4.416e-08
2422.4, -4.58e-08
2424.4, -3.948e-08
2426.4, -4.127e-08
2428.4, -3.947e-08
2430.4, -3.596e-08
2432.4, -3.966e-08
2434.4, -4.241e-08
2436.4, -4.069e-08
2438.4, -4.041e-08
2440.4, -4.196e-08
2442.4, -4.379e-08
2444.4, -4.19e-08
2446.4, -4.407e-08
2448.4, -4.205e-08
2450.4, -4.101e-08
2452.4, -4.289e-08
2454.5, -4.145e-08
2456.5, -4.243e-08
2458.5, -4.434e-08
2460.5, -3.823e-08
2462.5, -4.051e-08
2464.5, -4.236e-08
2466.5, -4.312e-08
2468.5, -4.647e-08
2470.5, -4.428e-08
2472.5, -4.459e-08
2474.5, -4.54e-08
2476.5, -4.097e-08
2478.5, -4.402e-08
2480.5, -4.291e-08
2482.5, -3.878e-08
2484.5, -3.9e-08
2486.5, -3.763e-08
2488.5, -3.877e-08
2490.5, -4.024e-08
2492.5, -4.391e-08
2494.5, -4.48e-08
2496.5, -4.476e-08
2498.5, -4.597e-08
2500.5, -4.399e-08
2502.5, -4.471e-08
2504.5, -3.978e-08
2506.5, -4.045e-08
2508.5, -3.927e-08
2510.5, -4.291e-08
2512.5, -4.074e-08
2514.5, -4.184e-08
2516.5, -4.618e-08
2518.5, -4.568e-08
2520.5, -4.275e-08
2522.5, -4.068e-08
2524.5, -4.028e-08
2526.5, -4.463e-08
2528.5, -4.425e-08
2530.5, -4.338e-08
2532.5, -4.212e-08
2534.5, -4.104e-08
2536.5, -4.027e-08
2538.5, -4.517e-08
2540.5, -4.292e-08
2542.5, -4.289e-08
2544.5, -4.278e-08
2546.5, -4.501e-08
2548.5, -4.278e-08
2550.5, -4.101e-08
2552.5, -4.178e-08
2554.6, -3.864e-08
2556.6, -4.081e-08
2558.6, -4.428e-08
2560.6, -4.189e-08
2562.6, -4.294e-08
2564.6, -4.215e-08
2566.6, -4.379e-08
2568.6, -4.411e-08
2570.6, -3.856e-08
2572.6, -4.114e-08
2574.6, -3.971e-08
2576.6, -4.356e-08
2578.6, -4.466e-08
2580.6, -4.109e-08
2582.6, -4.11e-08
2584.6, -3.757e-08
2586.6, -4.241e-08
2588.6, -3.876e-08
2590.6, -4.178e-08
2592.6, -4.417e-08
2594.6, -4.453e-08
2596.6, -4.055e-08
2598.6, -4.4e-08
2600.6, -4.371e-08
2602.6, -4.055e-08
2604.6, -4.176e-08
2606.6, -4.122e-08
2608.6, -4.192e-08
2610.6, -4.025e-08
2612.6, -3.747e-08
2614.6, -3.956e-08
2616.6, -4.279e-08
2618.6, -3.884e-08
2620.6, -4.051e-08
2622.6, -3.942e-08
2624.6, -4.292e-08
2626.6, -4.122e-08
2628.6, -4.333e-08
2630.6, -4.592e-08
2632.6, -4.553e-08
2634.6, -3.892e-08
2636.6, -4.262e-08
2638.6, -4.039e-08
2640.6, -3.969e-08
2642.6, -4.103e-08
2644.6, -4.092e-08
2646.6, -4.152e-08
2648.6, -3.804e-08
2650.6, -4.067e-08
2652.6, -3.754e-08
2654.7, -3.985e-08
2656.7, -4.197e-08
2658.7, -4.072e-08
2660.7, -4.105e-08
2662.7, -4.077e-08
2664.7, -4.046e-08
2666.7, -4.615e-08
2668.7, -4.001e-08
2670.7, -4.035e-08
2672.7, -4.048e-08
2674.7, -4.195e-08
2676.7, -4.014e-08
2678.7, -3.979e-08
2680.7, -3.97e-08
2682.7, -4.068e-08
2684.7, -3.975e-08
2686.7, -3.745e-08
2688.7, -3.789e-08
2690.7, -3.954e-08
2692.7, -3.433e-08
2694.7, -3.804e-08
2696.7, -3.937e-08
2698.7, -4.305e-08
2700.7, -4.372e-08
2702.7, -4.288e-08
2704.7, -3.935e-08
2706.7, -4.096e-08
2708.7, -3.74e-08
2710.7, -3.844e-08
2712.7, -3.897e-08
2714.7, -3.899e-08
2716.7, -3.95e-08
2718.7, -4.006e-08
2720.7, -3.731e-08
2722.7, -3.782e-08
2724.7, -3.808e-08
2726.7, -4.277e-08
2728.7, -4.252e-08
2730.7, -3.837e-08
2732.7, -3.743e-08
2734.7, -4.027e-08
2736.7, -3.994e-08
2738.7, -4.228e-08
2740.7, -3.975e-08
2742.7, -3.771e-08
2744.7, -4.082e-08
2746.7, -4.352e-08
2748.7, -4.184e-08
2750.7, -3.88e-08
2752.7, -4.239e-08
2754.8, -4.246e-08
2756.8, -4.441e-08
2758.8, -4.14e-08
2760.8, -4.41e-08
2762.8, -4.481e-08
2764.8, -4.52e-08
2766.8, -4.599e-08
2768.8, -4.388e-08
2770.8, -4.472e-08
2772.8, -4.828e-08
2774.8, -4.347e-08
2776.8, -4.173e-08
2778.8, -4.37e-08
2780.8, -4.308e-08
2782.8, -4.167e-08
2784.8, -4.407e-08
2786.8, -4.467e-08
2788.8, -4.396e-08
2790.8, -4.261e-08
2792.8, -4.351e-08
2794.8, -4.165e-08
2796.8, -4.342e-08
2798.8, -4.294e-08
2800.8, -4.475e-08
2802.8, -4.39e-08
2804.8, -4.307e-08
2806.8, -4.754e-08
2808.8, -4.175e-08
2810.8, -4.376e-08
2812.8, -4.357e-08
2814.8, -4.229e-08
2816.8, -4.439e-08
2818.8, -4.256e-08
2820.8, -4.367e-08
2822.8, -4.171e-08
2824.8, -4.423e-08
2826.8, -4.217e-08
2828.8, -4.396e-08
2830.8, -4.556e-08
2832.8, -4.679e-08
2834.8, -4.391e-08
2836.8, -4.723e-08
2838.8, -4.604e-08
2840.8, -4.613e-08
2842.8, -4.405e-08
2844.8, -4.906e-08
2846.8, -4.382e-08
2848.8, -4.529e-08
2850.8, -4.442e-08
2852.8, -4.258e-08
2854.9, -4.254e-08
2856.9, -4.371e-08
2858.9, -3.975e-08
2860.9, -4.232e-08
2862.9, -4.294e-08
2864.9, -4.154e-08
2866.9, -3.99e-08
2868.9, -4.195e-08
2870.9, -4.087e-08
2872.9, -4.142e-08
2874.9, -4.207e-08
2876.9, -4.258e-08
2878.9, -4.545e-08
2880.9, -4.57e-08
2882.9, -4.61e-08
2884.9, -4.479e-08
2886.9, -4.196e-08
2888.9, -3.956e-08
2890.9, -4.306e-08
2892.9, -4.004e-08
2894.9, -4.277e-08
2896.9, -4.099e-08
2898.9, -4.232e-08
2900.9, -4.213e-08
2902.9, -3.956e-08
2904.9, -4.338e-08
2906.9, -4.474e-08
2908.9, -4.531e-08
2910.9, -4.365e-08
2912.9, -4.075e-08
2914.9, -4.272e-08
2916.9, -4.361e-08
2918.9, -4.158e-08
2920.9, -4.527e-08
2922.9, -4.528e-08
2924.9, -3.97e-08
2926.9, -4.49e-08
2928.9, -4.793e-08
2930.9, -4.671e-08
2932.9, -4.396e-08
2934.9, -4.469e-08
2936.9, -4.172e-08
2938.9, -4.39e-08
2940.9, -3.98e-08
2942.9, -3.966e-08
2944.9, -4.179e-08
2946.9, -4.06e-08
2948.9, -4.268e-08
2950.9, -4.657e-08
2952.9, -4.629e-08
2955.0, -4.128e-08
2957.0, -3.936e-08
2959.0, -4.381e-08
2961.0, -4.371e-08
2963.0, -4.368e-08
2965.0, -4.022e-08
2967.0, -4.522e-08
2969.0, -3.972e-08
2971.0, -3.654e-08
2973.0, -4.411e-08
2975.0, -3.889e-08
2977.0, -4.503e-08
2979.0, -4.429e-08
2981.0, -4.012e-08
2983.0, -4.163e-08
2985.0, -4.101e-08
2987.0, -3.809e-08
2989.0, -4.11e-08
2991.0, -3.86e-08
2993.0, -4.363e-08
2995.0, -4.078e-08
2997.0, -4.289e-08
2999.0, -4.247e-08
3001.0, -4.139e-08
3003.0, -3.886e-08
3005.0, -3.882e-08
3007.0, -3.884e-08
3009.0, -4.066e-08
3011.0, -4.103e-08
3013.0, -3.833e-08
3015.0, -3.939e-08
3017.0, -3.638e-08
3019.0, -3.841e-08
3021.0, -3.899e-08
3023.0, -4.068e-08
3025.0, -4.027e-08
3027.0, -3.955e-08
3029.0, -4.071e-08
3031.0, -4.286e-08
3033.0, -4.234e-08
3035.0, -4.5e-08
3037.0, -4.4e-08
3039.0, -4.462e-08
3041.0, -4.373e-08
3043.0, -4.458e-08
3045.0, -4.253e-08
3047.0, -4.354e-08
3049.0, -3.997e-08
3051.0, -3.839e-08
3053.0, -4.21e-08
3055.1, -4.253e-08
3057.1, -4.139e-08
3059.1, -4.064e-08
3061.1, -4.479e-08
3063.1, -4.412e-08
3065.1, -3.898e-08
3067.1, -4.372e-08
3069.1, -3.998e-08
3071.1, -3.7e-08
3073.1, -4.34e-08
3075.1, -3.799e-08
3077.1, -4.236e-08
3079.1, -4.118e-08
3081.1, -3.959e-08
3083.1, -3.944e-08
3085.1, -3.769e-08
3087.1, -4.202e-08
3089.1, -4.108e-08
3091.1, -4.078e-08
3093.1, -4.328e-08
3095.1, -4.04e-08
3097.1, -3.96e-08
3099.1, -4.406e-08
3101.1, -3.814e-08
3103.1, -3.777e-08
3105.1, -3.77e-08
3107.1, -4.31e-08
3109.1, -4.073e-08
3111.1, -3.931e-08
3113.1, -4.047e-08
3115.1, -4.161e-08
3117.1, -4.425e-08
3119.1, -4.183e-08
3121.1, -4.187e-08
3123.1, -4.585e-08
3125.1, -4.479e-08
3127.1, -4.616e-08
3129.1, -3.969e-08
3131.1, -4.035e-08
3133.1, -4.208e-08
3135.1, -4.145e-08
3137.1, -4.302e-08
3139.1, -4.135e-08
3141.1, -3.991e-08
3143.1, -4.346e-08
3145.1, -4.676e-08
3147.1, -4.177e-08
3149.1, -4.285e-08
3151.1, -4.054e-08
3153.1, -4.367e-08
3155.2, -4.222e-08
3157.2, -4.456e-08
3159.2, -4.507e-08
3161.2, -4.843e-08
3163.2, -4.307e-08
3165.2, -4.517e-08
3167.2, -4.313e-08
3169.2, -4.133e-08
3171.2, -4.344e-08
3173.2, -4.336e-08
3175.2, -4.131e-08
3177.2, -3.956e-08
3179.2, -4.208e-08
3181.2, 8.155e-08
3183.2, 1.3231e-07
3185.2, 1.1944e-07
3187.2, 1.3735e-07
3189.2, 1.3319e-07
3191.2, 1.2197e-07
3193.2, 1.2298e-07
3195.2, 1.2585e-07
3197.2, 1.4392e-07
3199.2, 1.1255e-07
3201.2, 1.0841e-07
3203.2, 1.6826e-07
3205.2, 1.6999e-07
3207.2, 1.4817e-07
3209.2, 1.3942e-07
3211.2, 1.4385e-07
3213.2, 1.2642e-07
3215.2, 1.1806e-07
3217.2, 1.6399e-07
3219.2, 1.3475e-07
3221.2, 1.2854e-07
3223.2, 1.397e-07
3225.2, 1.4337e-07
3227.2, 1.3383e-07
3229.2, 1.5651e-07
3231.2, 1.3207e-07
3233.2, 1.7955e-07
3235.2, 1.599e-07
3237.2, 1.3625e-07
3239.2, 1.3896e-07
3241.2, 1.449e-07
3243.2, 1.4332e-07
3245.2, 1.7631e-07
3247.2, 1.7277e-07
3249.2, 1.4173e-07
3251.2, 1.3007e-07
3253.2, 1.9002e-07
3255.3, 1.7215e-07
3257.3, 1.8871e-07
3259.3, 1.3491e-07
3261.3, 1.783e-07
3263.3, 1.3702e-07
3265.3, 1.6017e-07
3267.3, 1.9105e-07
3269.3, 1.3726e-07
3271.3, 1.122e-07
3273.3, 1.9611e-07
3275.3, 1.4421e-07
3277.3, 1.4248e-07
3279.3, 1.7631e-07
3281.3, 1.4326e-07
3283.3, 1.5959e-07
3285.3, 1.8007e-07
3287.3, 1.6143e-07
3289.3, 1.5584e-07
3291.3, 1.8159e-07
3293.3, 1.4937e-07
3295.3, 1.3427e-07
3297.3, 1.3714e-07
3299.3, 1.6584e-07
3301.3, 1.5336e-07
3303.3, 1.4338e-07
3305.3, 1.5067e-07
3307.3, 1.4758e-07
3309.3, 1.4538e-07
3311.3, 1.3795e-07
3313.3, 1.3451e-07
3315.3, 2.0375e-07
3317.3, 2.0041e-07
3319.3, 1.8096e-07
3321.3, 1.3756e-07
3323.3, 1.803e-07
3325.3, 1.9906e-07
3327.3, 1.538e-07
3329.3, 1.6397e-07
3331.3, 1.9062e-07
3333.3, 1.6644e-07
3335.3, 1.5969e-07
3337.3, 1.628e-07
3339.3, 1.4008e-07
3341.3, 1.4637e-07
3343.3, 1.5987e-07
3345.3, 1.9408e-07
3347.3, 2.0279e-07
3349.3, 1.9625e-07
3351.3, 1.5899e-07
3353.3, 1.7009e-07
3355.4, 1.5783e-07
3357.4, 1.619e-07
3359.4, 1.293e-07
3361.4, 1.3392e-07
3363.4, 1.4252e-07
3365.4, 1.8312e-07
3367.4, 1.5884e-07
3369.4, 1.7069e-07
3371.4, 1.5408e-07
3373.4, 1.7496e-07
3375.4, 1.4674e-07
3377.4, 1.8179e-07
3379.4, 1.9583e-07
3381.4, 1.5761e-07
3383.4, 1.5295e-07
3385.4, 2.114e-07
3387.4, 1.4217e-07
3389.4, 1.911e-07
3391.4, 2.0884e-07
3393.4, 1.3401e-07
3395.4, 1.654e-07
3397.4, 1.9848e-07
3399.4, 1.9089e-07
3401.4, 1.7379e-07
3403.4, 1.6e-07
3405.4, 1.6135e-07
3407.4, 1.829e-07
3409.4, 1.6498e-07
3411.4, 1.5352e-07
3413.4, 1.5379e-07
3415.4, 1.4665e-07
3417.4, 1.8364e-07
3419.4, 1.6931e-07
3421.4, 1.5321e-07
3423.4, 2.0059e-07
3425.4, 2.0172e-07
3427.4, 1.4519e-07
3429.4, 1.946e-07
3431.4, 2.0729e-07
3433.4, 1.7531e-07
3435.4, 1.7938e-07
3437.4, 2.0387e-07
3439.4, 1.7341e-07
3441.4, 1.958e-07
3443.4, 1.535e-07
3445.4, 1.8501e-07
3447.4, 1.9382e-07
3449.4, 1.5829e-07
3451.4, 1.2609e-07
3453.4, 1.8608e-07
3455.5, 1.7263e-07
3457.5, 1.8611e-07
3459.5, 1.4805e-07
3461.5, 1.7703e-07
3463.5, 2.0408e-07
3465.5, 2.1193e-07
3467.5, 1.7599e-07
3469.5, 2.0472e-07
3471.5, 1.8217e-07
3473.5, 1.2162e-07
3475.5, 1.8327e-07
3477.5, 1.6722e-07
3479.5, 1.9653e-07
3481.5, 2.1293e-07
3483.5, 1.8799e-07
3485.5, 1.7548e-07
3487.5, 1.7984e-07
3489.5, 1.6123e-07
3491.5, 1.8287e-07
3493.5, 2.0113e-07
3495.5, 1.6953e-07
3497.5, 1.725e-07
3499.5, 1.7554e-07
3501.5, 1.9379e-07
3503.5, 1.46e-07
3505.5, 1.9175e-07
3507.5, 1.7063e-07
3509.5, 1.4765e-07
3511.5, 1.5908e-07
3513.5, 1.8661e-07
3515.5, 2.2807e-07
3517.5, 1.6842e-07
3519.5, 1.843e-07
3521.5, 1.7294e-07
3523.5, 1.8626e-07
3525.5, 1.5571e-07
3527.5, 1.6473e-07
3529.5, 1.3886e-07
3531.5, 1.634e-07
3533.5, 1.9384e-07
3535.5, 1.8446e-07
3537.5, 1.8745e-07
3539.5, 1.9391e-07
3541.5, 1.9486e-07
3543.5, 1.8542e-07
3545.5, 1.8088e-07
3547.5, 1.655e-07
3549.5, 1.5744e-07
3551.5, 2.146e-07
3553.5, 1.5443e-07
3555.6, 1.6331e-07
3557.6, 1.8069e-07
3559.6, 2.0543e-07
3561.6, 1.7012e-07
3563.6, 1.8618e-07
3565.6, 1.4752e-07
3567.6, 1.4316e-07
3569.6, 1.6625e-07
3571.6, 2.0195e-07
3573.6, 2.1652e-07
3575.6, 2.4791e-07
3577.6, 1.5979e-07
3579.6, 1.711e-07
3581.6, 1.6226e-07
3583.6, 1.9785e-07
3585.6, 2.3206e-07
3587.6, 1.6951e-07
3589.6, 1.5483e-07
3591.6, 1.9552e-07
3593.6, 1.713e-07
3595.6, 1.9605e-07
3597.6, 2.1003e-07
3599.6, 2.1968e-07
3601.6, 1.8365e-07
3603.6, 1.6241e-07
3605.6, 1.4627e-07
3607.6, 2.1776e-07
3609.6, 1.8971e-07
3611.6, 1.8169e-07
3613.6, 1.8081e-07
3615.6, 2.0115e-07
3617.6, 2.0526e-07
3619.6, 1.8699e-07
3621.6, 1.7118e-07
3623.6, 1.7789e-07
3625.6, 2.0321e-07
3627.6, 1.7607e-07
3629.6, 2.0105e-07
3631.6, 1.8962e-07
3633.6, 1.4374e-07
3635.6, 1.9873e-07
3637.6, 1.7781e-07
3639.6, 2.1399e-07
3641.6, 1.5703e-07
3643.6, 2.007e-07
3645.6, 1.9642e-07
3647.6, 1.9618e-07
3649.6, 1.5975e-07
3651.6, 2.031e-07
3653.6, 1.821e-07
3655.7, 1.911e-07
3657.7, 1.7124e-07
3659.7, 2.1977e-07
3661.7, 2.1025e-07
3663.7, 1.4073e-07
3665.7, 1.6128e-07
3667.7, 1.839e-07
3669.7, 1.9188e-07
3671.7, 1.7754e-07
3673.7, 2.1548e-07
3675.7, 2.2541e-07
3677.7, 1.7675e-07
3679.7, 1.5892e-07
3681.7, 2.171e-07
3683.7, 2.0732e-07
3685.7, 1.8252e-07
3687.7, 2.0607e-07
3689.7, 2.1233e-07
3691.7, 1.2546e-07
3693.7, 2.0808e-07
3695.7, 1.7595e-07
3697.7, 1.7728e-07
3699.7, 1.9212e-07
3701.7, 1.897e-07
3703.7, 1.7485e-07
3705.7, 1.5569e-07
3707.7, 1.7416e-07
3709.7, 1.8484e-07
3711.7, 2.1229e-07
3713.7, 2.1319e-07
3715.7, 1.8897e-07
3717.7, 2.0303e-07
3719.7, 1.2985e-07
3721.7, 1.9519e-07
3723.7, 2.3631e-07
3725.7, 1.9028e-07
3727.7, 1.7382e-07
3729.7, 2.2155e-07
3731.7, 2.2011e-07
3733.7, 1.8725e-07
3735.7, 2.0803e-07
3737.7, 2.0574e-07
3739.7, 1.9974e-07
3741.7, 1.7605e-07
3743.7, 2.0953e-07
3745.7, 1.8017e-07
3747.7, 2.0947e-07
3749.7, 1.9488e-07
3751.7, 2.3753e-07
3753.7, 2.1005e-07
3755.8, 1.6849e-07
3757.8, 2.1123e-07
3759.8, 1.9315e-07
3761.8, 2.5029e-07
3763.8, 2.0355e-07
3765.8, 1.6913e-07
3767.8, 2.0092e-07
3769.8, 2.0527e-07
3771.8, 1.7287e-07
3773.8, 1.9365e-07
3775.8, 1.9157e-07
3777.8, 1.5889e-07
3779.8, 1.5457e-07
3781.8, 1.6311e-07
3783.8, 1.5269e-07
3785.8, 1.6022e-07
3787.8, 2.2557e-07
3789.8, 1.9221e-07
3791.8, 2.1818e-07
3793.8, 2.3276e-07
3795.8, 1.9698e-07
3797.8, 1.9596e-07
3799.8, 1.9912e-07
3801.8, 1.9304e-07
3803.8, 1.9745e-07
3805.8, 2.0241e-07
3807.8, 1.8724e-07
3809.8, 2.0506e-07
3811.8, 1.7371e-07
3813.8, 1.9648e-07
3815.8, 2.5129e-07
3817.8, 1.9771e-07
3819.8, 1.9898e-07
3821.8, 2.1828e-07
3823.8, 1.523e-07
3825.8, 1.8846e-07
3827.8, 1.5017e-07
3829.8, 1.7228e-07
3831.8, 2.0337e-07
3833.8, 1.5835e-07
3835.8, 1.6827e-07
3837.8, 1.9814e-07
3839.8, 1.9535e-07
3841.8, 2.4798e-07
3843.8, 1.8418e-07
3845.8, 1.8443e-07
3847.8, 2.0177e-07
3849.8, 1.8071e-07
3851.8, 1.803e-07
3853.8, 1.6839e-07
3855.9, 2.1365e-07
3857.9, 1.8882e-07
3859.9, 1.9856e-07
3861.9, 1.983e-07
3863.9, 1.7081e-07
3865.9, 1.7474e-07
3867.9, 1.8867e-07
3869.9, 1.6299e-07
3871.9, 1.9181e-07
3873.9, 1.6675e-07
3875.9, 2.2035e-07
3877.9, 1.8888e-07
3879.9, 1.7738e-07
3881.9, 1.965e-07
3883.9, 1.9855e-07
3885.9, 1.8441e-07
3887.9, 1.9619e-07
3889.9, 2.2574e-07
3891.9, 1.6841e-07
3893.9, 1.8133e-07
3895.9, 1.994e-07
3897.9, 1.6805e-07
3899.9, 2.1619e-07
3901.9, 1.8578e-07
3903.9, 1.7422e-07
3905.9, 1.4565e-07
3907.9, 1.999e-07
3909.9, 1.6014e-07
3911.9, 1.9758e-07
3913.9, 2.1667e-07
3915.9, 1.4478e-07
3917.9, 2.0838e-07
3919.9, 1.5809e-07
3921.9, 2.231e-07
3923.9, 1.7971e-07
3925.9, 2.1149e-07
3927.9, 2.007e-07
3929.9, 1.9218e-07
3931.9, 1.8522e-07
3933.9, 1.6677e-07
3935.9, 2.1632e-07
3937.9, 2.3099e-07
3939.9, 1.8405e-07
3941.9, 2.0027e-07
3943.9, 1.79e-07
3945.9, 1.9542e-07
3947.9, 1.7454e-07
3949.9, 1.4974e-07
3951.9, 1.9533e-07
3953.9, 1.7318e-07
3956.0, 1.9031e-07
3958.0, 2.1895e-07
3960.0, 1.517e-07
3962.0, 1.9888e-07
3964.0, 1.8837e-07
3966.0, 1.9656e-07
3968.0, 1.9115e-07
3970.0, 1.4972e-07
3972.0, 1.9341e-07
3974.0, 1.7323e-07
3976.0, 2.3137e-07
3978.0, 1.5209e-07
3980.0, 1.9358e-07
3982.0, 2.1108e-07
3984.0, 2.1251e-07
3986.0, 2.2046e-07
3988.0, 1.9826e-07
3990.0, 2.0743e-07
3992.0, 1.9187e-07
3994.0, 2.0536e-07
3996.0, 1.5521e-07
3998.0, 1.6942e-07
4000.0, 2.0175e-07
4002.0, 1.7811e-07
4004.0, 1.7941e-07
4006.0, 1.8704e-07
4008.0, 1.8438e-07
4010.0, 1.8177e-07
4012.0, 2.1646e-07
4014.0, 2.0836e-07
4016.0, 1.6135e-07
4018.0, 2.3299e-07
4020.0, 1.995e-07
4022.0, 1.9935e-07
4024.0, 1.8226e-07
4026.0, 2.0724e-07
4028.0, 2.1562e-07
4030.0, 1.9473e-07
4032.0, 2.3581e-07
4034.0, 1.8322e-07
4036.0, 1.8237e-07
4038.0, 2.013e-07
4040.0, 2.0558e-07
4042.0, 2.0294e-07
4044.0, 2.0936e-07
4046.0, 1.7844e-07
4048.0, 1.6068e-07
4050.0, 2.161e-07
4052.0, 1.9064e-07
4054.0, 1.3322e-07
4056.1, 1.8474e-07
4058.1, 1.7434e-07
4060.1, 1.669e-07
4062.1, 2.0249e-07
4064.1, 2.1863e-07
4066.1, 2.1933e-07
4068.1, 1.7211e-07
4070.1, 1.9406e-07
4072.1, 1.4032e-07
4074.1, 1.6752e-07
4076.1, 1.8385e-07
4078.1, 1.7436e-07
4080.1, 1.6381e-07
4082.1, 1.9507e-07
4084.1, 2.0771e-07
4086.1, 2.0003e-07
4088.1, 1.7291e-07
4090.1, 1.7343e-07
4092.1, 1.8795e-07
4094.1, 2.1512e-07
4096.1, 1.6812e-07
4098.1, 1.6053e-07
4100.1, 1.7687e-07
4102.1, 1.7678e-07
4104.1, 1.7985e-07
4106.1, 2.0273e-07
4108.1, 2.1535e-07
4110.1, 1.8136e-07
4112.1, 2.2014e-07
4114.1, 1.7763e-07
4116.1, 1.7144e-07
4118.1, 2.0601e-07
4120.1, 1.9418e-07
4122.1, 1.5468e-07
4124.1, 1.8903e-07
4126.1, 1.7832e-07
4128.1, 2.226e-07
4130.1, 1.9528e-07
4132.1, 1.9484e-07
4134.1, 2.0423e-07
4136.1, 1.9899e-07
4138.1, 2.1851e-07
4140.1, 1.8189e-07
4142.1, 1.9268e-07
4144.1, 1.8796e-07
4146.1, 1.8992e-07
4148.1, 1.8998e-07
4150.1, 1.725e-07
4152.1, 2.0039e-07
4154.1, 1.8231e-07
4156.2, 1.7468e-07
4158.2, 1.9715e-07
4160.2, 1.6745e-07
4162.2, 1.9481e-07
4164.2, 1.7067e-07
4166.2, 1.498e-07
4168.2, 1.7385e-07
4170.2, 1.8994e-07
4172.2, 1.8894e-07
4174.2, 1.5359e-07
4176.2, 2.0675e-07
4178.2, 1.9752e-07
4180.2, 2.1061e-07
4182.2, 5.901e-08
4184.2, -4.542e-08
4186.2, -4.576e-08
4188.2, -4.755e-08
4190.2, -4.833e-08
4192.2, -4.905e-08
4194.2, -5.138e-08
4196.2, -4.607e-08
4198.2, -4.508e-08
4200.2, -4.676e-08
4202.2, -4.457e-08
4204.2, -4.354e-08
4206.2, -4.247e-08
4208.2, -4.388e-08
4210.2, -4.366e-08
4212.2, -4.972e-08
4214.2, -4.691e-08
4216.2, -4.302e-08
4218.2, -4.27e-08
4220.2, -4.524e-08
4222.2, -4.595e-08
4224.2, -4.58e-08
4226.2, -4.568e-08
4228.2, -4.516e-08
4230.2, -4.53e-08
4232.2, -4.775e-08
4234.2, -4.703e-08
4236.2, -4.684e-08
4238.2, -4.4e-08
4240.2, -4.735e-08
4242.2, -4.576e-08
4244.2, -4.362e-08
4246.2, -4.352e-08
4248.2, -4.211e-08
4250.2, -4.439e-08
4252.2, -4.608e-08
4254.2, -4.466e-08
4256.3, -4.159e-08
4258.3, -4.221e-08
4260.3, -4.442e-08
4262.3, -4.269e-08
4264.3, -4.241e-08
4266.3, -4.243e-08
4268.3, -4.02e-08
4270.3, -4.057e-08
4272.3, -4.175e-08
4274.3, -4.389e-08
4276.3, -4.448e-08
4278.3, -4.464e-08
4280.3, -4.612e-08
4282.3, -4.78e-08
4284.3, -4.441e-08
4286.3, -4.02e-08
4288.3, -4.285e-08
4290.3, -4.175e-08
4292.3, -4.015e-08
4294.3, -4.071e-08
4296.3, -4.067e-08
4298.3, -3.619e-08
4300.3, -4.028e-08
4302.3, -4.158e-08
4304.3, -3.929e-08
4306.3, -3.851e-08
4308.3, -4.248e-08
4310.3, -3.866e-08
4312.3, -3.804e-08
4314.3, -3.626e-08
4316.3, -3.985e-08
4318.3, -4.336e-08
4320.3, -3.956e-08
4322.3, -3.846e-08
4324.3, -3.847e-08
4326.3, -3.888e-08
4328.3, -3.9e-08
4330.3, -4.035e-08
4332.3, -3.623e-08
4334.3, -3.789e-08
4336.3, -4.02e-08
4338.3, -3.878e-08
4340.3, -3.766e-08
4342.3, -4.245e-08
4344.3, -4.129e-08
4346.3, -3.568e-08
4348.3, -3.691e-08
4350.3, -4.285e-08
4352.3, -3.921e-08
4354.3, -4.063e-08
4356.4, -3.96e-08
4358.4, -4.218e-08
4360.4, -4.195e-08
4362.4, -3.797e-08
4364.4, -3.973e-08
4366.4, -3.858e-08
4368.4, -4.015e-08
4370.4, -3.744e-08
4372.4, -3.828e-08
4374.4, -3.733e-08
4376.4, -3.679e-08
4378.4, -3.823e-08
4380.4, -4.536e-08
4382.4, -4.188e-08
4384.4, -3.874e-08
4386.4, -4.055e-08
4388.4, -4.189e-08
4390.4, -3.998e-08
4392.4, -4.267e-08
4394.4, -4.02e-08
4396.4, -4.428e-08
4398.4, -4.024e-08
4400.4, -3.754e-08
4402.4, -3.731e-08
4404.4, -4.306e-08
4406.4, -4.075e-08
4408.4, -3.968e-08
4410.4, -4.713e-08
4412.4, -4.238e-08
4414.4, -4.195e-08
4416.4, -4.326e-08
4418.4, -4.147e-08
4420.4, -3.886e-08
4422.4, -4.19e-08
4424.4, -4.057e-08
4426.4, -3.973e-08
4428.4, -3.704e-08
4430.4, -3.877e-08
4432.4, -4.143e-08
4434.4, -3.962e-08
4436.4, -4.713e-08
4438.4, -4.055e-08
4440.4, -4.311e-08
4442.4, -4.437e-08
4444.4, -4.353e-08
4446.4, -4.134e-08
4448.4, -4.34e-08
4450.4, -3.987e-08
4452.4, -4.154e-08
4454.4, -4.111e-08
4456.5, -3.903e-08
4458.5, -4.103e-08
4460.5, -4.111e-08
4462.5, -4.093e-08
4464.5, -4.205e-08
4466.5, -3.847e-08
4468.5, -3.906e-08
4470.5, -3.94e-08
4472.5, -3.927e-08
4474.5, -4.037e-08
4476.5, -3.826e-08
4478.5, -3.934e-08
4480.5, -4.277e-08
4482.5, -4.206e-08
4484.5, -3.707e-08
4486.5, -3.842e-08
4488.5, -4.294e-08
4490.5, -4.423e-08
4492.5, -3.985e-08
4494.5, -3.963e-08
4496.5, -3.778e-08
4498.5, -4.185e-08
4500.5, -4.061e-08
4502.5, -4.125e-08
4504.5, -3.696e-08
4506.5, -4.328e-08
4508.5, -3.905e-08
4510.5, -4.185e-08
4512.5, -3.826e-08
4514.5, -3.586e-08
4516.5, -4.461e-08
4518.5, -3.926e-08
4520.5, -3.803e-08
4522.5, -4.039e-08
4524.5, -3.752e-08
4526.5, -3.831e-08
4528.5, -3.739e-08
4530.5, -3.854e-08
4532.5, -3.805e-08
4534.5, -4.074e-08
4536.5, -3.862e-08
4538.5, -3.831e-08
4540.5, -4.138e-08
4542.5, -3.861e-08
4544.5, -4.183e-08
4546.5, -3.974e-08
4548.5, -3.771e-08
4550.5, -4.19e-08
4552.5, -4.349e-08
4554.5, -3.764e-08
4556.6, -4.027e-08
4558.6, -4.127e-08
4560.6, -3.957e-08
4562.6, -4.163e-08
4564.6, -3.868e-08
4566.6, -3.749e-08
4568.6, -3.895e-08
4570.6, -3.899e-08
4572.6, -4.28e-08
4574.6, -3.773e-08
4576.6, -3.693e-08
4578.6, -3.622e-08
4580.6, -4.029e-08
4582.6, -3.962e-08
4584.6, -3.841e-08
4586.6, -4.053e-08
4588.6, -3.887e-08
4590.6, -4.11e-08
4592.6, -4.498e-08
4594.6, -3.911e-08
4596.6, -4.021e-08
4598.6, -3.797e-08
4600.6, -3.815e-08
4602.6, -3.661e-08
4604.6, -4.281e-08
4606.6, -3.705e-08
4608.6, -3.972e-08
4610.6, -3.956e-08
4612.6, -3.791e-08
4614.6, -3.945e-08
4616.6, -3.875e-08
4618.6, -4.104e-08
4620.6, -4.252e-08
4622.6, -4.327e-08
4624.6, -4.076e-08
4626.6, -4.18e-08
4628.6, -4.198e-08
4630.6, -4.27e-08
4632.6, -3.803e-08
4634.6, -3.836e-08
4636.6, -3.722e-08
4638.6, -3.889e-08
4640.6, -4.011e-08
4642.6, -4.364e-08
4644.6, -4.129e-08
4646.6, -4.099e-08
4648.6, -4.167e-08
4650.6, -4.355e-08
4652.6, -4.2e-08
4654.6, -4.318e-08
4656.7, -4.379e-08
4658.7, -3.929e-08
4660.7, -4.039e-08
4662.7, -3.645e-08
4664.7, -4.186e-08
4666.7, -3.89e-08
4668.7, -3.913e-08
4670.7, -3.871e-08
4672.7, -4.042e-08
4674.7, -4.25e-08
4676.7, -3.941e-08
4678.7, -4.033e-08
4680.7, -4.098e-08
4682.7, -3.948e-08
4684.7, -3.925e-08
4686.7, -4.286e-08
4688.7, -4.222e-08
4690.7, -4.306e-08
4692.7, -3.759e-08
4694.7, -3.9e-08
4696.7, -4.214e-08
4698.7, -4.134e-08
4700.7, -3.818e-08
4702.7, -3.778e-08
4704.7, -3.751e-08
4706.7, -3.629e-08
4708.7, -3.826e-08
4710.7, -3.971e-08
4712.7, -4.274e-08
4714.7, -4.096e-08
4716.7, -3.831e-08
4718.7, -3.866e-08
4720.7, -3.693e-08
4722.7, -3.685e-08
4724.7, -3.977e-08
4726.7, -3.803e-08
4728.7, -4.12e-08
4730.7, -3.732e-08
4732.7, -3.824e-08
4734.7, -4.152e-08
4736.7, -3.869e-08
4738.7, -3.902e-08
4740.7, -4.17e-08
4742.7, -4.17e-08
4744.7, -4.02e-08
4746.7, -3.75e-08
4748.7, -4.048e-08
4750.7, -3.578e-08
4752.7, -3.664e-08
4754.7, -3.854e-08
4756.8, -3.759e-08
4758.8, -3.79e-08
4760.8, -3.866e-08
4762.8, -3.958e-08
4764.8, -3.732e-08
4766.8, -3.359e-08
4768.8, -3.396e-08
4770.8, -3.215e-08
4772.8, -3.773e-08
4774.8, -3.737e-08
4776.8, -3.471e-08
4778.8, -3.825e-08
4780.8, -3.796e-08
4782.8, -3.551e-08
4784.8, -3.803e-08
4786.8, -3.918e-08
4788.8, -3.962e-08
4790.8, -3.89e-08
4792.8, -3.686e-08
4794.8, -3.395e-08
4796.8, -3.868e-08
4798.8, -3.615e-08
4800.8, -3.901e-08
4802.8, -3.615e-08
4804.8, -3.482e-08
4806.8, -3.851e-08
4808.8, -3.942e-08
4810.8, -3.929e-08
4812.8, -3.798e-08
4814.8, -3.526e-08
4816.8, -3.732e-08
4818.8, -3.69e-08
4820.8, -3.846e-08
4822.8, -3.85e-08
4824.8, -3.743e-08
4826.8, -3.719e-08
4828.8, -3.825e-08
4830.8, -3.795e-08
4832.8, -3.725e-08
4834.8, -3.597e-08
4836.8, -3.558e-08
4838.8, -3.947e-08
4840.8, -4.035e-08
4842.8, -4.073e-08
4844.8, -3.843e-08
4846.8, -3.841e-08
4848.8, -3.957e-08
4850.8, -4.199e-08
4852.8, -4.08e-08
4854.8, -4.016e-08
4856.9, -4.415e-08
4858.9, -4.517e-08
4860.9, -4.313e-08
4862.9, -4.388e-08
4864.9, -3.861e-08
4866.9, -3.422e-08
4868.9, -3.648e-08
4870.9, -3.594e-08
4872.9, -3.791e-08
4874.9, -3.852e-08
4876.9, -3.637e-08
4878.9, -3.833e-08
4880.9, -3.783e-08
4882.9, -3.979e-08
4884.9, -4.174e-08
4886.9, -3.777e-08
4888.9, -4.144e-08
4890.9, -3.972e-08
4892.9, -4.048e-08
4894.9, -3.894e-08
4896.9, -3.969e-08
4898.9, -4.339e-08
4900.9, -4.214e-08
4902.9, -4.013e-08
4904.9, -3.695e-08
4906.9, -4.026e-08
4908.9, -3.775e-08
4910.9, -3.609e-08
4912.9, -4.079e-08
4914.9, -3.836e-08
4916.9, -3.776e-08
4918.9, -3.699e-08
4920.9, -3.934e-08
4922.9, -3.867e-08
4924.9, -3.937e-08
4926.9, -3.634e-08
4928.9, -3.965e-08
4930.9, -3.869e-08
4932.9, -3.884e-08
4934.9, -3.815e-08
4936.9, -3.946e-08
4938.9, -3.782e-08
4940.9, -4.055e-08
4942.9, -3.624e-08
4944.9, -3.794e-08
4946.9, -3.788e-08
4948.9, -3.68e-08
4950.9, -3.321e-08
4952.9, -3.694e-08
4954.9, -3.919e-08
4957.0, -3.451e-08
4959.0, -3.925e-08
4961.0, -4.041e-08
4963.0, -3.841e-08
4965.0, -3.853e-08
4967.0, -3.946e-08
4969.0, -4.078e-08
4971.0, -4.097e-08
4973.0, -3.623e-08
4975.0, -3.56e-08
4977.0, -4.091e-08
4979.0, -3.892e-08
4981.0, -3.902e-08
4983.0, -3.744e-08
4985.0, -3.431e-08
4987.0, -3.574e-08
4989.0, -3.528e-08
4991.0, -3.592e-08
4993.0, -3.643e-08
4995.0, -3.626e-08
4997.0, -3.572e-08
4999.0, -3.153e-08
5001.0, -3.465e-08
5003.0, -3.438e-08
5005.0, -3.181e-08
5007.0, -3.383e-08
5009.0, -3.533e-08
5011.0, -3.431e-08
5013.0, -3.575e-08
5015.0, -3.497e-08
5017.0, -3.655e-08
5019.0, -3.287e-08
5021.0, -3.538e-08
5023.0, -3.599e-08
5025.0, -3.666e-08
5027.0, -3.911e-08
5029.0, -3.399e-08
5031.0, -3.707e-08
5033.0, -3.564e-08
5035.0, -3.547e-08
5037.0, -3.891e-08
5039.0, -3.551e-08
5041.0, -3.752e-08
5043.0, -3.973e-08
5045.0, -3.812e-08
5047.0, -3.913e-08
5049.0, -3.737e-08
5051.0, -3.751e-08
5053.0, -3.726e-08
5055.0, -3.823e-08
5057.1, -3.257e-08
5059.1, -3.515e-08
5061.1, -3.712e-08
5063.1, -3.59e-08
5065.1, -3.522e-08
5067.1, -3.791e-08
5069.1, -3.78e-08
5071.1, -4.062e-08
5073.1, -3.677e-08
5075.1, -3.966e-08
5077.1, -4.084e-08
5079.1, -4.196e-08
5081.1, -4.101e-08
5083.1, -3.949e-08
5085.1, -3.713e-08
5087.1, -3.658e-08
5089.1, -4.403e-08
5091.1, -4.105e-08
5093.1, -3.86e-08
5095.1, -3.85e-08
5097.1, -3.948e-08
5099.1, -4.362e-08
5101.1, -4.068e-08
5103.1, -3.935e-08
5105.1, -4.354e-08
5107.1, -4e-08
5109.1, -3.888e-08
5111.1, -4.047e-08
5113.1, -3.99e-08
5115.1, -4.166e-08
5117.1, -4.004e-08
5119.1, -4.218e-08
5121.1, -3.875e-08
5123.1, -4.082e-08
5125.1, -4.386e-08
5127.1, -4.191e-08
5129.1, -4.311e-08
5131.1, -4.241e-08
5133.1, -3.976e-08
5135.1, -3.556e-08
5137.1, -3.993e-08
5139.1, -3.944e-08
5141.1, -4.015e-08
5143.1, -4.237e-08
5145.1, -4.285e-08
5147.1, -4.018e-08
5149.1, -3.872e-08
5151.1, -4.079e-08
5153.1, -3.436e-08
5155.1, -3.775e-08
5157.2, -3.592e-08
5159.2, -3.58e-08
5161.2, -4.076e-08
5163.2, -4.016e-08
5165.2, -3.873e-08
5167.2, -4.042e-08
5169.2, -4.222e-08
5171.2, -4.152e-08
5173.2, -4.074e-08
5175.2, -3.854e-08
5177.2, -4.363e-08
5179.2, -4.189e-08
5181.2, -4.094e-08
5183.2, -4.127e-08
5185.2, -3.879e-08
5187.2, -4.148e-08
5189.2, -3.776e-08
5191.2, -4.062e-08
5193.2, -3.982e-08
5195.2, -4.058e-08
5197.2, -3.791e-08
5199.2, -4.119e-08
5201.2, -4.292e-08
5203.2, -3.749e-08
5205.2, -4.252e-08
5207.2, -4.158e-08
5209.2, -4.008e-08
5211.2, -4.049e-08
5213.2, -3.88e-08
5215.2, -3.96e-08
5217.2, -3.65e-08
5219.2, -3.824e-08
5221.2, -4.088e-08
5223.2, -3.858e-08
5225.2, -3.66e-08
5227.2, -4.255e-08
5229.2, -4.089e-08
5231.2, -2.143e-08
5233.2, 1.6519e-07
5235.2, 1.596e-07
5237.2, 1.3301e-07
5239.2, 1.4198e-07
5241.2, 1.3863e-07
5243.2, 1.4762e-07
5245.2, 1.4886e-07
5247.2, 1.5967e-07
5249.2, 1.4194e-07
5251.2, 1.2764e-07
5253.2, 1.3297e-07
5255.2, 1.696e-07
5257.3, 1.5764e-07
5259.3, 1.2364e-07
5261.3, 1.294e-07
5263.3, 1.4824e-07
5265.3, 1.2897e-07
5267.3, 1.5347e-07
5269.3, 1.4181e-07
5271.3, 1.2701e-07
5273.3, 1.6601e-07
5275.3, 1.7539e-07
5277.3, 1.2107e-07
5279.3, 1.2465e-07
5281.3, 1.7273e-07
5283.3, 1.5518e-07
5285.3, 1.2924e-07
5287.3, 1.5506e-07
5289.3, 1.5335e-07
5291.3, 1.592e-07
5293.3, 1.5297e-07
5295.3, 1.5541e-07
5297.3, 1.2198e-07
5299.3, 1.5606e-07
5301.3, 1.4439e-07
5303.3, 1.5353e-07
5305.3, 1.3096e-07
5307.3, 1.3394e-07
5309.3, 1.4149e-07
5311.3, 1.2666e-07
5313.3, 1.7597e-07
5315.3, 1.6754e-07
5317.3, 1.6829e-07
5319.3, 1.1377e-07
5321.3, 1.6086e-07
5323.3, 1.3965e-07
5325.3, 1.6445e-07
5327.3, 1.4048e-07
5329.3, 1.8886e-07
5331.3, 1.7843e-07
5333.3, 1.4268e-07
5335.3, 1.4102e-07
5337.3, 1.724e-07
5339.3, 1.6089e-07
5341.3, 1.6922e-07
5343.3, 1.9529e-07
5345.3, 1.718e-07
5347.3, 1.4807e-07
5349.3, 1.9749e-07
5351.3, 1.6108e-07
5353.3, 1.584e-07
5355.3, 1.633e-07
5357.4, 1.6406e-07
5359.4, 1.7219e-07
5361.4, 2.1125e-07
5363.4, 1.522e-07
5365.4, 1.8465e-07
5367.4, 1.61e-07
5369.4, 1.9717e-07
5371.4, 1.5574e-07
5373.4, 1.4446e-07
5375.4, 1.6041e-07
5377.4, 1.5792e-07
5379.4, 1.5211e-07
5381.4, 1.9545e-07
5383.4, 1.6307e-07
5385.4, 1.8071e-07
5387.4, 1.6623e-07
5389.4, 1.6028e-07
5391.4, 2.0599e-07
5393.4, 1.5445e-07
5395.4, 1.7344e-07
5397.4, 1.7193e-07
5399.4, 1.8017e-07
5401.4, 1.7164e-07
5403.4, 1.8721e-07
5405.4, 1.7849e-07
5407.4, 1.9114e-07
5409.4, 1.8613e-07
5411.4, 1.696e-07
5413.4, 1.3776e-07
5415.4, 1.619e-07
5417.4, 1.5699e-07
5419.4, 1.6564e-07
5421.4, 1.5839e-07
5423.4, 1.4365e-07
5425.4, 1.4616e-07
5427.4, 1.6882e-07
5429.4, 1.7221e-07
5431.4, 1.376e-07
5433.4, 1.9949e-07
5435.4, 1.8178e-07
5437.4, 1.8093e-07
5439.4, 1.7492e-07
5441.4, 1.819e-07
5443.4, 1.8302e-07
5445.4, 1.5805e-07
5447.4, 1.7622e-07
5449.4, 1.5974e-07
5451.4, 1.711e-07
5453.4, 1.7861e-07
5455.4, 1.9261e-07
5457.5, 1.481e-07
5459.5, 1.8558e-07
5461.5, 2.0446e-07
5463.5, 1.7532e-07
5465.5, 1.4877e-07
5467.5, 1.3892e-07
5469.5, 1.3758e-07
5471.5, 1.7038e-07
5473.5, 2.0001e-07
5475.5, 1.7769e-07
5477.5, 1.8144e-07
5479.5, 1.5703e-07
5481.5, 1.6409e-07
5483.5, 1.9974e-07
5485.5, 1.7135e-07
5487.5, 1.4513e-07
5489.5, 2.0366e-07
5491.5, 1.5734e-07
5493.5, 1.7541e-07
5495.5, 1.7806e-07
5497.5, 1.9845e-07
5499.5, 1.9762e-07
5501.5, 2.1881e-07
5503.5, 1.7407e-07
5505.5, 1.6368e-07
5507.5, 1.7374e-07
5509.5, 1.8005e-07
5511.5, 1.9332e-07
5513.5, 1.7901e-07
5515.5, 1.8036e-07
5517.5, 1.5373e-07
5519.5, 1.6535e-07
5521.5, 1.8491e-07
5523.5, 2.1257e-07
5525.5, 1.738e-07
5527.5, 2.1211e-07
5529.5, 1.5179e-07
5531.5, 1.6018e-07
5533.5, 1.7355e-07
5535.5, 1.8949e-07
5537.5, 1.8972e-07
5539.5, 2.002e-07
5541.5, 1.5755e-07
5543.5, 1.7719e-07
5545.5, 1.9001e-07
5547.5, 1.9291e-07
5549.5, 1.9185e-07
5551.5, 1.6748e-07
5553.5, 2.4643e-07
5555.5, 2.1313e-07
5557.6, 1.6168e-07
5559.6, 1.5075e-07
5561.6, 1.7817e-07
5563.6, 1.7895e-07
5565.6, 1.9795e-07
5567.6, 1.8758e-07
5569.6, 1.6907e-07
5571.6, 1.8752e-07
5573.6, 1.8727e-07
5575.6, 1.7551e-07
5577.6, 1.9048e-07
5579.6, 1.807e-07
5581.6, 1.8363e-07
5583.6, 1.9116e-07
5585.6, 1.8992e-07
5587.6, 1.9435e-07
5589.6, 1.5352e-07
5591.6, 1.7589e-07
5593.6, 1.8555e-07
5595.6, 1.7577e-07
5597.6, 1.3513e-07
5599.6, 1.634e-07
5601.6, 1.5805e-07
5603.6, 1.7806e-07
5605.6, 1.8625e-07
5607.6, 1.7132e-07
5609.6, 1.811e-07
5611.6, 1.7045e-07
5613.6, 1.5423e-07
5615.6, 1.9906e-07
5617.6, 2.0194e-07
5619.6, 1.7801e-07
5621.6, 1.8241e-07
5623.6, 1.8002e-07
5625.6, 1.9882e-07
5627.6, 2.01e-07
5629.6, 1.9187e-07
5631.6, 1.8179e-07
5633.6, 2.1079e-07
5635.6, 1.9686e-07
5637.6, 1.746e-07
5639.6, 1.8553e-07
5641.6, 1.5303e-07
5643.6, 2.1734e-07
5645.6, 1.8768e-07
5647.6, 1.7816e-07
5649.6, 1.947e-07
5651.6, 1.7246e-07
5653.6, 1.8314e-07
5655.6, 1.6829e-07
5657.7, 2.0303e-07
5659.7, 1.777e-07
5661.7, 2.0184e-07
5663.7, 2.1171e-07
5665.7, 2.0033e-07
5667.7, 1.6449e-07
5669.7, 1.6493e-07
5671.7, 1.6849e-07
5673.7, 1.8445e-07
5675.7, 1.8181e-07
5677.7, 1.9906e-07
5679.7, 1.8215e-07
5681.7, 1.8325e-07
5683.7, 1.5857e-07
5685.7, 1.6479e-07
5687.7, 2.0018e-07
5689.7, 2.0846e-07
5691.7, 1.7979e-07
5693.7, 1.727e-07
5695.7, 1.7389e-07
5697.7, 1.8695e-07
5699.7, 1.6859e-07
5701.7, 2.1072e-07
5703.7, 1.6585e-07
5705.7, 1.8159e-07
5707.7, 2.109e-07
5709.7, 1.624e-07
5711.7, 1.7198e-07
5713.7, 1.7787e-07
5715.7, 1.9912e-07
5717.7, 2.0295e-07
5719.7, 1.6986e-07
5721.7, 1.7757e-07
5723.7, 1.9212e-07
5725.7, 1.6437e-07
5727.7, 1.9221e-07
5729.7, 1.9228e-07
5731.7, 2.2315e-07
5733.7, 1.6702e-07
5735.7, 1.7178e-07
5737.7, 1.742e-07
5739.7, 1.6878e-07
5741.7, 1.509e-07
5743.7, 2.226e-07
5745.7, 2.5692e-07
5747.7, 1.8235e-07
5749.7, 1.9685e-07
5751.7, 1.6544e-07
5753.7, 2.0914e-07
5755.7, 2.0483e-07
5757.8, 1.7018e-07
5759.8, 1.8545e-07
5761.8, 1.7441e-07
5763.8, 2.0848e-07
5765.8, 1.9339e-07
5767.8, 1.8061e-07
5769.8, 1.8351e-07
5771.8, 1.617e-07
5773.8, 1.7289e-07
5775.8, 1.9272e-07
5777.8, 1.538e-07
5779.8, 1.7392e-07
5781.8, 1.932e-07
5783.8, 1.856e-07
5785.8, 1.7038e-07
5787.8, 1.8376e-07
5789.8, 1.7272e-07
5791.8, 1.8042e-07
5793.8, 1.7693e-07
5795.8, 2.1421e-07
5797.8, 2.1081e-07
5799.8, 1.7691e-07
5801.8, 1.5877e-07
5803.8, 2.3196e-07
5805.8, 1.8607e-07
5807.8, 1.7126e-07
5809.8, 1.8105e-07
5811.8, 1.7483e-07
5813.8, 2.1083e-07
5815.8, 1.9573e-07
5817.8, 1.9053e-07
5819.8, 1.8425e-07
5821.8, 1.9415e-07
5823.8, 1.8323e-07
5825.8, 1.9502e-07
5827.8, 2.1012e-07
5829.8, 1.7848e-07
5831.8, 1.7175e-07
5833.8, 1.6898e-07
5835.8, 1.9376e-07
5837.8, 1.7917e-07
5839.8, 1.8794e-07
5841.8, 1.878e-07
5843.8, 1.6542e-07
5845.8, 2.108e-07
5847.8, 2.0012e-07
5849.8, 1.9615e-07
5851.8, 1.8462e-07
5853.8, 2.1043e-07
5855.8, 1.9324e-07
5857.9, 1.9358e-07
5859.9, 1.657e-07
5861.9, 1.4316e-07
5863.9, 2.3123e-07
5865.9, 1.9446e-07
5867.9, 2.234e-07
5869.9, 2.0957e-07
5871.9, 1.7686e-07
5873.9, 1.7289e-07
5875.9, 1.9701e-07
5877.9, 1.6114e-07
5879.9, 1.4363e-07
5881.9, 1.8624e-07
5883.9, 1.6119e-07
5885.9, 1.9156e-07
5887.9, 2.1493e-07
5889.9, 1.9766e-07
5891.9, 2.0867e-07
5893.9, 1.679e-07
5895.9, 2.2407e-07
5897.9, 1.7755e-07
5899.9, 2.0545e-07
5901.9, 2.0702e-07
5903.9, 2.361e-07
5905.9, 1.8003e-07
5907.9, 2.0438e-07
5909.9, 1.7739e-07
5911.9, 1.913e-07
5913.9, 1.9858e-07
5915.9, 1.7874e-07
5917.9, 2.0543e-07
5919.9, 1.6443e-07
5921.9, 1.8367e-07
5923.9, 1.809e-07
5925.9, 1.6368e-07
5927.9, 1.8951e-07
5929.9, 2.1791e-07
5931.9, 1.9188e-07
5933.9, 1.7974e-07
5935.9, 1.7582e-07
5937.9, 1.6042e-07
5939.9, 1.707e-07
5941.9, 2.2622e-07
5943.9, 2.0237e-07
5945.9, 1.9684e-07
5947.9, 1.7212e-07
5949.9, 2.1129e-07
5951.9, 1.6194e-07
5953.9, 1.809e-07
5955.9, 1.8144e-07
5958.0, 2.209e-07
5960.0, 2.0023e-07
5962.0, 1.9422e-07
5964.0, 1.7096e-07
5966.0, 1.9863e-07
5968.0, 2.0082e-07
5970.0, 2.0491e-07
5972.0, 2.1567e-07
5974.0, 2.1164e-07
5976.0, 1.8156e-07
5978.0, 1.5493e-07
5980.0, 1.8221e-07
5982.0, 1.557e-07
5984.0, 1.8094e-07
5986.0, 2.0063e-07
5988.0, 1.6015e-07
5990.0, 2.0528e-07
5992.0, 1.7743e-07
5994.0, 1.8282e-07
5996.0, 2.2851e-07
5998.0, 1.7975e-07
6000.0, 1.7765e-07
6002.0, 1.5741e-07
6004.0, 2.0253e-07
6006.0, 1.8971e-07
6008.0, 2.202e-07
6010.0, 1.83e-07
6012.0, 2.0279e-07
6014.0, 1.9632e-07
6016.0, 1.7969e-07
6018.0, 2.1648e-07
6020.0, 1.9308e-07
6022.0, 1.7206e-07
6024.0, 1.5564e-07
6026.0, 1.9098e-07
6028.0, 1.9087e-07
6030.0, 2.1752e-07
6032.0, 2.3773e-07
6034.0, 1.9621e-07
6036.0, 1.7276e-07
6038.0, 2.1901e-07
6040.0, 2.0321e-07
6042.0, 1.887e-07
6044.0, 2.1164e-07
6046.0, 1.7589e-07
6048.0, 1.9559e-07
6050.0, 2.461e-07
6052.0, 2.265e-07
6054.0, 1.9245e-07
6056.0, 1.7877e-07
6058.1, 1.562e-07
6060.1, 1.7497e-07
6062.1, 2.026e-07
6064.1, 1.9196e-07
6066.1, 1.4383e-07
6068.1, 2.0143e-07
6070.1, 2.1146e-07
6072.1, 1.7917e-07
6074.1, 1.9029e-07
6076.1, 2.1734e-07
6078.1, 1.888e-07
6080.1, 1.7206e-07
6082.1, 2.186e-07
6084.1, 1.6553e-07
6086.1, 1.4823e-07
6088.1, 1.8829e-07
6090.1, 1.6564e-07
6092.1, 1.759e-07
6094.1, 1.9877e-07
6096.1, 2.0992e-07
6098.1, 1.9526e-07
6100.1, 2.1136e-07
6102.1, 1.5336e-07
6104.1, 1.7697e-07
6106.1, 1.7981e-07
6108.1, 1.9077e-07
6110.1, 1.7708e-07
6112.1, 2.0193e-07
6114.1, 1.9671e-07
6116.1, 1.8311e-07
6118.1, 2.0416e-07
6120.1, 2.0554e-07
6122.1, 2.0784e-07
6124.1, 1.9214e-07
6126.1, 1.7616e-07
6128.1, 2.2484e-07
6130.1, 1.7645e-07
6132.1, 1.9368e-07
6134.1, 1.8913e-07
6136.1, 1.9014e-07
6138.1, 1.7082e-07
6140.1, 2.0255e-07
6142.1, 1.7572e-07
6144.1, 1.7098e-07
6146.1, 2.1504e-07
6148.1, 1.9046e-07
6150.1, 2.0383e-07
6152.1, 1.9414e-07
6154.1, 2.0217e-07
6156.1, 1.8856e-07
6158.2, 2.0725e-07
6160.2, 2.1616e-07
6162.2, 1.7784e-07
6164.2, 1.8291e-07
6166.2, 1.927e-07
6168.2, 2.3165e-07
6170.2, 1.6217e-07
6172.2, 1.6426e-07
6174.2, 1.8166e-07
6176.2, 2.0315e-07
6178.2, 2.2389e-07
6180.2, 1.8866e-07
6182.2, 2.1198e-07
6184.2, 1.8196e-07
6186.2, 1.8309e-07
6188.2, 1.813e-07
6190.2, 1.9114e-07
6192.2, 2.3822e-07
6194.2, 1.9915e-07
6196.2, 2.0116e-07
6198.2, 1.9555e-07
6200.2, 2.1657e-07
6202.2, 1.9372e-07
6204.2, 2.1436e-07
6206.2, 1.9082e-07
6208.2, 1.8415e-07
6210.2, 2.0639e-07
6212.2, 2.0186e-07
6214.2, 1.8023e-07
6216.2, 1.7606e-07
6218.2, 1.9957e-07
6220.2, 1.9496e-07
6222.2, 1.8889e-07
6224.2, 1.6902e-07
6226.2, 1.9544e-07
6228.2, 1.6996e-07
6230.2, 1.6932e-07
6232.2, 1.0575e-07
6234.2, -3.645e-08
6236.2, -3.922e-08
6238.2, -3.878e-08
6240.2, -4.227e-08
6242.2, -3.903e-08
6244.2, -4.036e-08
6246.2, -3.571e-08
6248.2, -3.626e-08
6250.2, -3.552e-08
6252.2, -3.758e-08
6254.2, -3.34e-08
6256.2, -3.747e-08
6258.3, -3.724e-08
6260.3, -3.5e-08
6262.3, -3.451e-08
6264.3, -3.972e-08
6266.3, -3.922e-08
6268.3, -3.928e-08
6270.3, -4.325e-08
6272.3, -4.153e-08
6274.3, -3.604e-08
6276.3, -3.685e-08
6278.3, -3.672e-08
6280.3, -3.465e-08
6282.3, -3.825e-08
6284.3, -3.695e-08
6286.3, -4.018e-08
6288.3, -3.931e-08
6290.3, -3.684e-08
6292.3, -3.965e-08
6294.3, -3.617e-08
6296.3, -3.914e-08
6298.3, -3.893e-08
6300.3, -3.652e-08
6302.3, -3.928e-08
6304.3, -4.227e-08
6306.3, -4.215e-08
6308.3, -3.76e-08
6310.3, -4.067e-08
6312.3, -4.115e-08
6314.3, -4.065e-08
6316.3, -4.401e-08
6318.3, -4.193e-08
6320.3, -3.695e-08
6322.3, -4.041e-08
6324.3, -4.628e-08
6326.3, -4.443e-08
6328.3, -4.383e-08
6330.3, -4.303e-08
6332.3, -4.031e-08
6334.3, -4.047e-08
6336.3, -3.983e-08
6338.3, -3.987e-08
6340.3, -4.245e-08
6342.3, -4.118e-08
6344.3, -4.424e-08
6346.3, -4.423e-08
6348.3, -4.354e-08
6350.3, -4.312e-08
6352.3, -4.076e-08
6354.3, -4.541e-08
6356.3, -3.813e-08
6358.4, -4.224e-08
6360.4, -4.056e-08
6362.4, -4.112e-08
6364.4, -3.822e-08
6366.4, -3.933e-08
6368.4, -4.018e-08
6370.4, -3.932e-08
6372.4, -3.844e-08
6374.4, -3.902e-08
6376.4, -3.906e-08
6378.4, -3.966e-08
6380.4, -3.947e-08
6382.4, -4.005e-08
6384.4, -3.656e-08
6386.4, -3.52e-08
6388.4, -3.434e-08
6390.4, -3.961e-08
6392.4, -3.941e-08
6394.4, -4.411e-08
6396.4, -3.965e-08
6398.4, -4.256e-08
6400.4, -3.93e-08
6402.4, -4.211e-08
6404.4, -3.766e-08
6406.4, -3.984e-08
6408.4, -4.185e-08
6410.4, -4.291e-08
6412.4, -4.278e-08
6414.4, -4.12e-08
6416.4, -4.321e-08
6418.4, -4.234e-08
6420.4, -4.209e-08
6422.4, -4.395e-08
6424.4, -4.724e-08
6426.4, -4.145e-08
6428.4, -4.04e-08
6430.4, -4.445e-08
6432.4, -4.307e-08
6434.4, -4.218e-08
6436.4, -4.476e-08
6438.4, -4.052e-08
6440.4, -4.158e-08
6442.4, -4.372e-08
6444.4, -4.112e-08
6446.4, -3.979e-08
6448.4, -4.143e-08
6450.4, -3.997e-08
6452.4, -4.175e-08
6454.4, -3.829e-08
6456.4, -4.058e-08
6458.5, -4.577e-08
6460.5, -4.104e-08
6462.5, -4.13e-08
6464.5, -4.068e-08
6466.5, -3.878e-08
6468.5, -4.013e-08
6470.5, -4.052e-08
6472.5, -3.932e-08
6474.5, -4.258e-08
6476.5, -3.895e-08
6478.5, -3.566e-08
6480.5, -4.127e-08
6482.5, -3.835e-08
6484.5, -3.893e-08
6486.5, -3.835e-08
6488.5, -3.754e-08
6490.5, -3.867e-08
6492.5, -3.737e-08
6494.5, -3.762e-08
6496.5, -3.429e-08
6498.5, -3.595e-08
6500.5, -3.404e-08
6502.5, -3.696e-08
6504.5, -3.582e-08
6506.5, -3.75e-08
6508.5, -3.786e-08
6510.5, -4.05e-08
6512.5, -4.119e-08
6514.5, -3.865e-08
6516.5, -3.841e-08
6518.5, -3.842e-08
6520.5, -3.744e-08
6522.5, -3.645e-08
6524.5, -3.878e-08
6526.5, -3.498e-08
6528.5, -3.789e-08
6530.5, -4.024e-08
6532.5, -4.095e-08
6534.5, -4.204e-08
6536.5, -3.887e-08
6538.5, -4.128e-08
6540.5, -4.098e-08
6542.5, -4.2e-08
6544.5, -3.563e-08
6546.5, -3.672e-08
6548.5, -3.492e-08
6550.5, -3.691e-08
6552.5, -3.562e-08
6554.5, -3.702e-08
6556.5, -3.439e-08
6558.6, -3.955e-08
6560.6, -4.024e-08
6562.6, -3.981e-08
6564.6, -4.233e-08
6566.6, -3.827e-08
6568.6, -4e-08
6570.6, -3.533e-08
6572.6, -3.798e-08
6574.6, -3.491e-08
6576.6, -3.419e-08
6578.6, -3.578e-08
6580.6, -3.616e-08
6582.6, -3.867e-08
6584.6, -3.911e-08
6586.6, -3.658e-08
6588.6, -4.066e-08
6590.6, -3.933e-08
6592.6, -3.836e-08
6594.6, -3.97e-08
6596.6, -3.875e-08
6598.6, -4.045e-08
6600.6, -3.918e-08
6602.6, -3.922e-08
6604.6, -4.08e-08
6606.6, -3.989e-08
6608.6, -3.886e-08
6610.6, -3.733e-08
6612.6, -3.919e-08
6614.6, -3.418e-08
6616.6, -3.616e-08
6618.6, -3.722e-08
6620.6, -4.274e-08
6622.6, -4.023e-08
6624.6, -3.887e-08
6626.6, -3.886e-08
6628.6, -4.157e-08
6630.6, -4.162e-08
6632.6, -4.135e-08
6634.6, -4.31e-08
6636.6, -4.097e-08
6638.6, -3.946e-08
6640.6, -4.104e-08
6642.6, -4.101e-08
6644.6, -4.163e-08
6646.6, -3.996e-08
6648.6, -3.823e-08
6650.6, -4.248e-08
6652.6, -3.989e-08
6654.6, -4.081e-08
6656.6, -3.645e-08
6658.7, -4.052e-08
6660.7, -3.797e-08
6662.7, -3.865e-08
6664.7, -3.33e-08
6666.7, -3.955e-08
6668.7, -3.699e-08
6670.7, -3.762e-08
6672.7, -4.135e-08
6674.7, -4.01e-08
6676.7, -3.943e-08
6678.7, -3.934e-08
6680.7, -3.618e-08
6682.7, -3.886e-08
6684.7, -3.765e-08
6686.7, -3.734e-08
6688.7, -3.47e-08
6690.7, -3.802e-08
6692.7, -3.567e-08
6694.7, -3.444e-08
6696.7, -3.558e-08
6698.7, -3.562e-08
6700.7, -3.785e-08
6702.7, -3.654e-08
6704.7, -3.969e-08
6706.7, -3.833e-08
6708.7, -4.003e-08
6710.7, -3.718e-08
6712.7, -3.806e-08
6714.7, -3.674e-08
6716.7, -3.746e-08
6718.7, -3.74e-08
6720.7, -3.533e-08
6722.7, -3.725e-08
6724.7, -3.765e-08
6726.7, -3.904e-08
6728.7, -3.729e-08
6730.7, -3.713e-08
6732.7, -3.892e-08
6734.7, -3.742e-08
6736.7, -3.733e-08
6738.7, -3.676e-08
6740.7, -3.654e-08
6742.7, -3.821e-08
6744.7, -4.276e-08
6746.7, -3.971e-08
6748.7, -3.882e-08
6750.7, -3.948e-08
6752.7, -3.938e-08
6754.7, -3.88e-08
6756.7, -3.789e-08
6758.8, -3.471e-08
6760.8, -3.972e-08
6762.8, -3.824e-08
6764.8, -3.84e-08
6766.8, -3.768e-08
6768.8, -3.793e-08
6770.8, -3.767e-08
6772.8, -4.24e-08
6774.8, -3.919e-08
6776.8, -3.516e-08
6778.8, -3.655e-08
6780.8, -3.939e-08
6782.8, -3.614e-08
6784.8, -4.032e-08
6786.8, -4.065e-08
6788.8, -4e-08
6790.8, -3.963e-08
6792.8, -3.45e-08
6794.8, -3.943e-08
6796.8, -3.697e-08
6798.8, -3.817e-08
6800.8, -4.167e-08
6802.8, -3.76e-08
6804.8, -3.816e-08
6806.8, -3.497e-08
6808.8, -3.991e-08
6810.8, -3.93e-08
6812.8, -3.732e-08
6814.8, -4.024e-08
6816.8, -3.42e-08
6818.8, -3.749e-08
6820.8, -3.751e-08
6822.8, -3.84e-08
6824.8, -4.329e-08
6826.8, -3.814e-08
6828.8, -3.687e-08
6830.8, -3.856e-08
6832.8, -3.572e-08
6834.8, -3.796e-08
6836.8, -3.709e-08
6838.8, -3.546e-08
6840.8, -3.498e-08
6842.8, -3.661e-08
6844.8, -3.95e-08
6846.8, -3.763e-08
6848.8, -3.902e-08
6850.8, -3.9e-08
6852.8, -3.8e-08
6854.8, -3.544e-08
6856.8, -3.712e-08
6858.9, -3.538e-08
6860.9, -3.788e-08
6862.9, -3.543e-08
6864.9, -3.654e-08
6866.9, -3.776e-08
6868.9, -3.896e-08
6870.9, -3.947e-08
6872.9, -4.019e-08
6874.9, -3.915e-08
6876.9, -3.892e-08
6878.9, -3.874e-08
6880.9, -4.019e-08
6882.9, -3.585e-08
6884.9, -3.615e-08
6886.9, -3.55e-08
6888.9, -3.768e-08
6890.9, -4.095e-08
6892.9, -3.58e-08
6894.9, -4.254e-08
6896.9, -4.128e-08
6898.9, -4.124e-08
6900.9, -4.185e-08
6902.9, -3.999e-08
6904.9, -4.093e-08
6906.9, -3.972e-08
6908.9, -4.048e-08
6910.9, -3.746e-08
6912.9, -3.779e-08
6914.9, -3.765e-08
6916.9, -3.843e-08
6918.9, -3.436e-08
6920.9, -3.643e-08
6922.9, -3.692e-08
6924.9, -3.78e-08
6926.9, -3.672e-08
6928.9, -3.785e-08
6930.9, -4.077e-08
6932.9, -4.15e-08
6934.9, -3.91e-08
6936.9, -3.707e-08
6938.9, -3.66e-08
6940.9, -3.752e-08
6942.9, -3.684e-08
6944.9, -3.903e-08
6946.9, -3.78e-08
6948.9, -3.54e-08
6950.9, -3.796e-08
6952.9, -3.968e-08
6954.9, -3.742e-08
6956.9, -3.692e-08
6959.0, -4.096e-08
6961.0, -3.674e-08
6963.0, -3.636e-08
6965.0, -3.559e-08
6967.0, -3.5e-08
6969.0, -3.599e-08
6971.0, -3.349e-08
6973.0, -3.554e-08
6975.0, -3.733e-08
6977.0, -3.83e-08
6979.0, -3.586e-08
6981.0, -4.011e-08
6983.0, -4.147e-08
6985.0, -3.986e-08
6987.0, -4.04e-08
6989.0, -4.05e-08
6991.0, -4.377e-08
6993.0, -3.969e-08
6995.0, -3.876e-08
6997.0, -4.14e-08
6999.0, -4.169e-08
7001.0, -4.218e-08
7003.0, -4.129e-08
7005.0, -4.125e-08
7007.0, -3.94e-08
7009.0, -3.964e-08
7011.0, -3.833e-08
7013.0, -4.078e-08
7015.0, -3.914e-08
7017.0, -3.993e-08
7019.0, -4.042e-08
7021.0, -3.997e-08
7023.0, -4.361e-08
7025.0, -4.255e-08
7027.0, -4.788e-08
7029.0, -4.379e-08
7031.0, -4.324e-08
7033.0, -4.474e-08
7035.0, -4.215e-08
7037.0, -4.475e-08
7039.0, -4.819e-08
7041.0, -4.251e-08
7043.0, -4.45e-08
7045.0, -4.227e-08
7047.0, -4.096e-08
7049.0, -3.809e-08
7051.0, -4.132e-08
7053.0, -3.971e-08
7055.0, -3.845e-08
7057.0, -4.25e-08
7059.1, -4.078e-08
7061.1, -4.285e-08
7063.1, -4.183e-08
7065.1, -4.052e-08
7067.1, -3.982e-08
7069.1, -4.158e-08
7071.1, -3.752e-08
7073.1, -4.325e-08
7075.1, -4.138e-08
7077.1, -4.38e-08
7079.1, -4.493e-08
7081.1, -4.348e-08
7083.1, -4.481e-08
7085.1, -3.911e-08
7087.1, -4.194e-08
7089.1, -3.912e-08
7091.1, -4.16e-08
7093.1, -4.04e-08
7095.1, -4.042e-08
7097.1, -3.587e-08
7099.1, -4.009e-08
7101.1, -4.115e-08
7103.1, -4.158e-08
7105.1, -3.854e-08
7107.1, -3.992e-08
7109.1, -4.476e-08
7111.1, -4.411e-08
7113.1, -4.274e-08
7115.1, -4.138e-08
7117.1, -4.045e-08
7119.1, -4.68e-08
7121.1, -4.217e-08
7123.1, -4.107e-08
7125.1, -4.331e-08
7127.1, -4.407e-08
7129.1, -4.279e-08
7131.1, -4.474e-08
7133.1, -4.068e-08
7135.1, -4.453e-08
7137.1, -4.021e-08
7139.1, -4.293e-08
7141.1, -4.418e-08
7143.1, -4.354e-08
7145.1, -4.578e-08
7147.1, -4.38e-08
7149.1, -4.217e-08
7151.1, -4.103e-08
7153.1, -4.407e-08
7155.1, -4.125e-08
7157.1, -4.029e-08
7159.2, -4.513e-08
7161.2, -4.078e-08
7163.2, -4.309e-08
7165.2, -4.377e-08
7167.2, -4.248e-08
7169.2, -4.27e-08
7171.2, -4.558e-08
7173.2, -4.234e-08
7175.2, -4.245e-08
7177.2, -4.374e-08
7179.2, -4.014e-08
7181.2, -4.24e-08
7183.2, -4.258e-08
7185.2, -4.464e-08
7187.2, -3.722e-08
7189.2, -3.841e-08
7191.2, -4.188e-08
7193.2, -4.295e-08
7195.2, -4.2e-08
7197.2, -4.089e-08
7199.2, -4.455e-08
7201.2, -4.257e-08
7203.2, -4.371e-08
7205.2, -4.385e-08
7207.2, -4.379e-08
7209.2, -4.188e-08
7211.2, -4.321e-08
7213.2, -4.284e-08
7215.2, -3.93e-08
7217.2, -4.122e-08
7219.2, -3.868e-08
7221.2, -4.369e-08
7223.2, -4.313e-08
7225.2, -4.118e-08
7227.2, -4.182e-08
7229.2, -4.28e-08
7231.2, -4.144e-08
7233.2, -4.341e-08
7235.2, -4.001e-08
7237.2, -4.12e-08
7239.2, -3.862e-08
7241.2, -3.978e-08
7243.2, -3.978e-08
7245.2, -4.181e-08
7247.2, -4.002e-08
7249.2, -4.627e-08
7251.2, -4.216e-08
7253.2, -4.657e-08
7255.2, -4.36e-08
7257.2, -4.613e-08
7259.3, -4.514e-08
7261.3, -4.867e-08
7263.3, 7.679e-08
7265.3, 1.5907e-07
7267.3, 1.9039e-07
7269.3, 1.2911e-07
7271.3, 1.396e-07
7273.3, 1.4316e-07
7275.3, 1.7302e-07
7277.3, 1.5672e-07
7279.3, 1.8337e-07
7281.3, 1.5459e-07
7283.3, 1.3671e-07
7285.3, 1.6396e-07
7287.3, 1.4413e-07
7289.3, 1.5793e-07
7291.3, 1.2473e-07
7293.3, 1.5382e-07
7295.3, 1.5894e-07
7297.3, 1.7752e-07
7299.3, 1.5902e-07
7301.3, 1.39e-07
7303.3, 1.6617e-07
7305.3, 1.5851e-07
7307.3, 1.5957e-07
7309.3, 1.5553e-07
7311.3, 1.312e-07
7313.3, 1.8699e-07
7315.3, 1.5307e-07
7317.3, 1.4699e-07
7319.3, 1.7271e-07
7321.3, 1.7152e-07
7323.3, 1.7029e-07
7325.3, 1.8082e-07
7327.3, 1.672e-07
7329.3, 1.887e-07
7331.3, 2.1242e-07
7333.3, 1.5609e-07
7335.3, 2.098e-07
7337.3, 1.473e-07
7339.3, 1.9841e-07
7341.3, 1.4287e-07
7343.3, 1.0554e-07
7345.3, 1.4345e-07
7347.3, 1.6542e-07
7349.3, 2.0055e-07
7351.3, 1.4605e-07
7353.3, 2.3356e-07
7355.3, 1.345e-07
7357.3, 1.5408e-07
7359.4, 1.555e-07
7361.4, 1.6975e-07
7363.4, 1.4799e-07
7365.4, 1.9298e-07
7367.4, 1.6652e-07
7369.4, 1.6745e-07
7371.4, 1.4231e-07
7373.4, 1.7821e-07
7375.4, 1.488e-07
7377.4, 1.75e-07
7379.4, 1.9975e-07
7381.4, 1.8772e-07
7383.4, 2.3278e-07
7385.4, 1.9061e-07
7387.4, 1.791e-07
7389.4, 1.9577e-07
7391.4, 1.6838e-07
7393.4, 1.5101e-07
7395.4, 1.4478e-07
7397.4, 2.3957e-07
7399.4, 1.6924e-07
7401.4, 1.8054e-07
7403.4, 2.2456e-07
7405.4, 1.6754e-07
7407.4, 1.8934e-07
7409.4, 2.2252e-07
7411.4, 1.645e-07
7413.4, 1.94e-07
7415.4, 1.4245e-07
7417.4, 1.8758e-07
7419.4, 1.6879e-07
7421.4, 1.666e-07
7423.4, 1.4471e-07
7425.4, 1.7062e-07
7427.4, 1.7076e-07
7429.4, 1.9665e-07
7431.4, 1.8965e-07
7433.4, 1.9543e-07
7435.4, 1.9023e-07
7437.4, 1.674e-07
7439.4, 1.8449e-07
7441.4, 1.8306e-07
7443.4, 1.6068e-07
7445.4, 1.7342e-07
7447.4, 1.8183e-07
7449.4, 1.7669e-07
7451.4, 1.5396e-07
7453.4, 2.0561e-07
7455.4, 2.1984e-07
7457.4, 1.6667e-07
7459.5, 1.4393e-07
7461.5, 1.8889e-07
7463.5, 1.8303e-07
7465.5, 2.1522e-07
7467.5, 1.9733e-07
7469.5, 2.4655e-07
7471.5, 2.3524e-07
7473.5, 2.1023e-07
7475.5, 1.5384e-07
7477.5, 1.7385e-07
7479.5, 1.9918e-07
7481.5, 1.8582e-07
7483.5, 1.9524e-07
7485.5, 1.997e-07
7487.5, 2.1693e-07
7489.5, 2.0151e-07
7491.5, 1.7596e-07
7493.5, 1.7779e-07
7495.5, 2.006e-07
7497.5, 2.5283e-07
7499.5, 2.1778e-07
7501.5, 1.7296e-07
7503.5, 2.007e-07
7505.5, 2.2556e-07
7507.5, 1.8409e-07
7509.5, 2.1547e-07
7511.5, 1.8716e-07
7513.5, 1.9404e-07
7515.5, 1.9627e-07
7517.5, 2.1666e-07
7519.5, 1.7355e-07
7521.5, 1.5446e-07
7523.5, 1.6261e-07
7525.5, 1.9781e-07
7527.5, 1.7387e-07
7529.5, 2.0225e-07
7531.5, 1.5674e-07
7533.5, 1.7968e-07
7535.5, 1.6481e-07
7537.5, 1.5947e-07
7539.5, 1.9263e-07
7541.5, 1.8916e-07
7543.5, 1.591e-07
7545.5, 1.9559e-07
7547.5, 2.2051e-07
7549.5, 2.1293e-07
7551.5, 1.7276e-07
7553.5, 1.4848e-07
7555.5, 1.7321e-07
7557.5, 1.7831e-07
7559.6, 1.9675e-07
7561.6, 2.1978e-07
7563.6, 2.316e-07
7565.6, 2.1283e-07
7567.6, 2.1507e-07
7569.6, 1.8042e-07
7571.6, 2.005e-07
7573.6, 2.1208e-07
7575.6, 2.3748e-07
7577.6, 2.1906e-07
7579.6, 2.0815e-07
7581.6, 2.0981e-07
7583.6, 1.8202e-07
7585.6, 2.2895e-07
7587.6, 1.7814e-07
7589.6, 1.6565e-07
7591.6, 2.3565e-07
7593.6, 2.4252e-07
7595.6, 2.0287e-07
7597.6, 1.8431e-07
7599.6, 1.8501e-07
7601.6, 2.0126e-07
7603.6, 2.0654e-07
7605.6, 2.2626e-07
7607.6, 2.2112e-07
7609.6, 1.9391e-07
7611.6, 1.655e-07
7613.6, 2.1327e-07
7615.6, 1.988e-07
7617.6, 1.9222e-07
7619.6, 1.8552e-07
7621.6, 2.4561e-07
7623.6, 1.566e-07
7625.6, 2.2225e-07
7627.6, 1.9115e-07
7629.6, 1.8007e-07
7631.6, 2.0234e-07
7633.6, 2.3924e-07
7635.6, 1.6272e-07
7637.6, 1.9115e-07
7639.6, 2.0991e-07
7641.6, 2.0205e-07
7643.6, 1.6245e-07
7645.6, 1.9883e-07
7647.6, 2.3193e-07
7649.6, 2.004e-07
7651.6, 1.8147e-07
7653.6, 2.1878e-07
7655.6, 1.7262e-07
7657.6, 1.8196e-07
7659.7, 2.2181e-07
7661.7, 2.1126e-07
7663.7, 2.5168e-07
7665.7, 2.4806e-07
7667.7, 2.31e-07
7669.7, 1.9789e-07
7671.7, 1.8776e-07
7673.7, 2.3387e-07
7675.7, 2.0167e-07
7677.7, 2.6734e-07
7679.7, 1.5038e-07
7681.7, 2.2122e-07
7683.7, 2.2664e-07
7685.7, 2.3529e-07
7687.7, 2.288e-07
7689.7, 2.2689e-07
7691.7, 2.3009e-07
7693.7, 1.9729e-07
7695.7, 2.3537e-07
7697.7, 1.9627e-07
7699.7, 1.9739e-07
7701.7, 2.0803e-07
7703.7, 1.9859e-07
7705.7, 1.7804e-07
7707.7, 2.2601e-07
7709.7, 2.6016e-07
7711.7, 2.015e-07
7713.7, 1.8653e-07
7715.7, 2.1357e-07
7717.7, 1.9903e-07
7719.7, 1.8855e-07
7721.7, 2.3172e-07
7723.7, 1.79e-07
7725.7, 2.0511e-07
7727.7, 2.1595e-07
7729.7, 1.9746e-07
7731.7, 2.0975e-07
7733.7, 2.1218e-07
7735.7, 2.1328e-07
7737.7, 2.1069e-07
7739.7, 2.2328e-07
7741.7, 1.968e-07
7743.7, 2.0116e-07
7745.7, 2.0316e-07
7747.7, 2.4909e-07
7749.7, 2.0575e-07
7751.7, 2.0168e-07
7753.7, 2.1325e-07
7755.7, 1.9648e-07
7757.7, 1.9977e-07
7759.8, 2.0675e-07
7761.8, 1.9124e-07
7763.8, 2.06e-07
7765.8, 2.3251e-07
7767.8, 2.0936e-07
7769.8, 2.2251e-07
7771.8, 1.7051e-07
7773.8, 2.423e-07
7775.8, 2.1788e-07
7777.8, 1.708e-07
7779.8, 2.1481e-07
7781.8, 1.9852e-07
7783.8, 1.7321e-07
7785.8, 2.1156e-07
7787.8, 1.8726e-07
7789.8, 2.1057e-07
7791.8, 2.0774e-07
7793.8, 2.1756e-07
7795.8, 1.8134e-07
7797.8, 2.161e-07
7799.8, 1.6845e-07
7801.8, 2.1378e-07
7803.8, 2.0865e-07
7805.8, 2.1225e-07
7807.8, 1.7245e-07
7809.8, 2.5209e-07
7811.8, 2.1639e-07
7813.8, 2.0704e-07
7815.8, 2.4626e-07
7817.8, 1.9786e-07
7819.8, 1.8885e-07
7821.8, 1.6248e-07
7823.8, 1.9543e-07
7825.8, 2.1054e-07
7827.8, 2.0177e-07
7829.8, 1.7951e-07
7831.8, 2.0779e-07
7833.8, 2.4336e-07
7835.8, 1.7497e-07
7837.8, 2.336e-07
7839.8, 1.9399e-07
7841.8, 1.8529e-07
7843.8, 2.0508e-07
7845.8, 2.2079e-07
7847.8, 1.9641e-07
7849.8, 2.4707e-07
7851.8, 2.04e-07
7853.8, 1.6478e-07
7855.8, 1.7301e-07
7857.8, 2.206e-07
7859.9, 1.9097e-07
7861.9, 2.1032e-07
7863.9, 2.1145e-07
7865.9, 2.2293e-07
7867.9, 1.7704e-07
7869.9, 2.3726e-07
7871.9, 2.1292e-07
7873.9, 2.0187e-07
7875.9, 1.9827e-07
7877.9, 2.41e-07
7879.9, 1.9039e-07
7881.9, 2.0717e-07
7883.9, 2.288e-07
7885.9, 1.9886e-07
7887.9, 2.3121e-07
7889.9, 2.1135e-07
7891.9, 1.9572e-07
7893.9, 2.236e-07
7895.9, 2.2892e-07
7897.9, 2.0191e-07
7899.9, 1.98e-07
7901.9, 2.3801e-07
7903.9, 1.952e-07
7905.9, 1.8285e-07
7907.9, 1.8818e-07
7909.9, 2.1348e-07
7911.9, 1.9082e-07
7913.9, 2.2097e-07
7915.9, 2.0866e-07
7917.9, 2.0485e-07
7919.9, 1.7776e-07
7921.9, 2.1757e-07
7923.9, 2.1312e-07
7925.9, 2.0404e-07
7927.9, 2.2806e-07
7929.9, 2.1098e-07
7931.9, 1.7689e-07
7933.9, 2.0986e-07
7935.9, 2.5253e-07
7937.9, 2.2536e-07
7939.9, 2.1521e-07
7941.9, 2.3473e-07
7943.9, 2.0161e-07
7945.9, 2.4053e-07
7947.9, 1.9469e-07
7949.9, 1.9657e-07
7951.9, 2.0572e-07
7953.9, 2.4277e-07
7955.9, 2.6515e-07
7957.9, 1.9385e-07
7960.0, 2.4551e-07
7962.0, 2.3447e-07
7964.0, 2.6734e-07
7966.0, 2.1761e-07
7968.0, 2.2881e-07
7970.0, 2.1909e-07
7972.0, 2.0814e-07
7974.0, 2.0219e-07
7976.0, 1.9122e-07
7978.0, 1.7855e-07
7980.0, 2.2879e-07
7982.0, 2.4419e-07
7984.0, 1.9292e-07
7986.0, 1.7394e-07
7988.0, 2.1099e-07
7990.0, 1.9832e-07
7992.0, 1.9246e-07
7994.0, 1.7677e-07
7996.0, 2.0709e-07
7998.0, 1.8931e-07
8000.0, 2.3067e-07
8002.0, 2.427e-07
8004.0, 2.2647e-07
8006.0, 2.1406e-07
8008.0, 1.766e-07
8010.0, 1.8584e-07
8012.0, 2.4206e-07
8014.0, 2.1176e-07
8016.0, 1.9403e-07
8018.0, 2.1268e-07
8020.0, 2.0515e-07
8022.0, 2.0872e-07
8024.0, 1.8021e-07
8026.0, 1.9095e-07
8028.0, 2.0674e-07
8030.0, 2.1443e-07
8032.0, 2.204e-07
8034.0, 2.2836e-07
8036.0, 1.7878e-07
8038.0, 1.7459e-07
8040.0, 1.9943e-07
8042.0, 2.0795e-07
8044.0, 1.722e-07
8046.0, 2.1654e-07
8048.0, 2.2381e-07
8050.0, 1.8598e-07
8052.0, 2.093e-07
8054.0, 2.1891e-07
8056.0, 2.1384e-07
8058.0, 2.1936e-07
8060.1, 2.0723e-07
8062.1, 1.8407e-07
8064.1, 2.5337e-07
8066.1, 2.1734e-07
8068.1, 2.2032e-07
8070.1, 2.1963e-07
8072.1, 2.3689e-07
8074.1, 2.271e-07
8076.1, 2.2675e-07
8078.1, 2.1305e-07
8080.1, 2.2126e-07
8082.1, 1.969e-07
8084.1, 1.9623e-07
8086.1, 1.9859e-07
8088.1, 2.2057e-07
8090.1, 2.4411e-07
8092.1, 2.5144e-07
8094.1, 1.9084e-07
8096.1, 2.3909e-07
8098.1, 1.8181e-07
8100.1, 2.2954e-07
8102.1, 2.3926e-07
8104.1, 1.9925e-07
8106.1, 2.266e-07
8108.1, 1.8062e-07
8110.1, 2.0211e-07
8112.1, 1.7911e-07
8114.1, 1.9792e-07
8116.1, 2.0549e-07
8118.1, 1.9431e-07
8120.1, 2.1582e-07
8122.1, 1.9758e-07
8124.1, 2.0828e-07
8126.1, 1.6475e-07
8128.1, 1.8466e-07
8130.1, 2.3514e-07
8132.1, 2.0325e-07
8134.1, 1.962e-07
8136.1, 2.1285e-07
8138.1, 2.0858e-07
8140.1, 1.5099e-07
8142.1, 2.1155e-07
8144.1, 2.0771e-07
8146.1, 1.8725e-07
8148.1, 1.7197e-07
8150.1, 2.4684e-07
8152.1, 2.1218e-07
8154.1, 2.4703e-07
8156.1, 2.0234e-07
8158.1, 2.253e-07
8160.2, 2.2717e-07
8162.2, 1.8037e-07
8164.2, 2.4053e-07
8166.2, 2.0653e-07
8168.2, 1.8152e-07
8170.2, 2.5713e-07
8172.2, 1.9946e-07
8174.2, 1.9068e-07
8176.2, 2.0732e-07
8178.2, 1.9427e-07
8180.2, 2.2468e-07
8182.2, 2.3861e-07
8184.2, 2.273e-07
8186.2, 2.2322e-07
8188.2, 1.9366e-07
8190.2, 2.617e-07
8192.2, 2.0716e-07
8194.2, 2.1618e-07
8196.2, 2.6814e-07
8198.2, 2.1628e-07
8200.2, 1.9459e-07
8202.2, 2.2343e-07
8204.2, 2.635e-07
8206.2, 2.015e-07
8208.2, 2.2913e-07
8210.2, 2.0547e-07
8212.2, 1.9078e-07
8214.2, 2.421e-07
8216.2, 2.0807e-07
8218.2, 2.3993e-07
8220.2, 2.4662e-07
8222.2, 1.7045e-07
8224.2, 2.2272e-07
8226.2, 2.1219e-07
8228.2, 1.6531e-07
8230.2, 1.9736e-07
8232.2, 1.829e-07
8234.2, 2.2487e-07
8236.2, 1.9771e-07
8238.2, 2.5012e-07
8240.2, 1.6545e-07
8242.2, 2.2136e-07
8244.2, 2.3399e-07
8246.2, 1.8415e-07
8248.2, 1.8346e-07
8250.2, 2.0599e-07
8252.2, 2.2196e-07
8254.2, 2.0033e-07
8256.2, 2.5099e-07
8258.2, 2.3351e-07
8260.3, 1.6542e-07
8262.3, 2.0445e-07
8264.3, 7.789e-08
8266.3, -4.372e-08
8268.3, -3.872e-08
8270.3, -3.933e-08
8272.3, -4.057e-08
8274.3, -4.346e-08
8276.3, -3.756e-08
8278.3, -3.938e-08
8280.3, -3.597e-08
8282.3, -3.726e-08
8284.3, -3.691e-08
8286.3, -3.779e-08
8288.3, -3.718e-08
8290.3, -3.842e-08
8292.3, -3.423e-08
8294.3, -4.02e-08
8296.3, -3.719e-08
8298.3, -3.347e-08
8300.3, -3.512e-08
8302.3, -3.709e-08
8304.3, -4.007e-08
8306.3, -3.772e-08
8308.3, -3.748e-08
8310.3, -3.817e-08
8312.3, -3.682e-08
8314.3, -3.693e-08
8316.3, -3.732e-08
8318.3, -3.76e-08
8320.3, -3.892e-08
8322.3, -3.896e-08
8324.3, -3.82e-08
8326.3, -4.442e-08
8328.3, -3.986e-08
8330.3, -4.581e-08
8332.3, -4.688e-08
8334.3, -4.245e-08
8336.3, -4.208e-08
8338.3, -4.003e-08
8340.3, -3.955e-08
8342.3, -3.87e-08
8344.3, -4.007e-08
8346.3, -4.077e-08
8348.3, -3.791e-08
8350.3, -3.931e-08
8352.3, -3.846e-08
8354.3, -4.121e-08
8356.3, -3.505e-08
8358.3, -3.941e-08
8360.4, -4.046e-08
8362.4, -3.718e-08
8364.4, -4.269e-08
8366.4, -4.132e-08
8368.4, -4.079e-08
8370.4, -3.775e-08
8372.4, -4.1e-08
8374.4, -3.985e-08
8376.4, -4.063e-08
8378.4, -3.668e-08
8380.4, -3.732e-08
8382.4, -3.865e-08
8384.4, -4.179e-08
8386.4, -4.159e-08
8388.4, -3.939e-08
8390.4, -4.247e-08
8392.4, -3.927e-08
8394.4, -4.016e-08
8396.4, -4.023e-08
8398.4, -4.232e-08
8400.4, -4.283e-08
8402.4, -4.041e-08
8404.4, -4.358e-08
8406.4, -4.315e-08
8408.4, -4.178e-08
8410.4, -4.214e-08
8412.4, -4.211e-08
8414.4, -4.279e-08
8416.4, -4.131e-08
8418.4, -4.06e-08
8420.4, -4.068e-08
8422.4, -4.011e-08
8424.4, -3.642e-08
8426.4, -4.245e-08
8428.4, -4.153e-08
8430.4, -4.046e-08
8432.4, -4.163e-08
8434.4, -4.131e-08
8436.4, -4.254e-08
8438.4, -3.96e-08
8440.4, -3.628e-08
8442.4, -4.05e-08
8444.4, -4.127e-08
8446.4, -4.091e-08
8448.4, -3.848e-08
8450.4, -3.837e-08
8452.4, -4.108e-08
8454.4, -4.074e-08
8456.4, -3.909e-08
8458.4, -3.995e-08
8460.5, -3.546e-08
8462.5, -3.815e-08
8464.5, -3.957e-08
8466.5, -3.458e-08
8468.5, -3.905e-08
8470.5, -3.742e-08
8472.5, -3.654e-08
8474.5, -3.721e-08
8476.5, -3.789e-08
8478.5, -3.975e-08
8480.5, -3.967e-08
8482.5, -3.861e-08
8484.5, -3.878e-08
8486.5, -3.849e-08
8488.5, -3.796e-08
8490.5, -4.36e-08
8492.5, -4.049e-08
8494.5, -4.142e-08
8496.5, -4.276e-08
8498.5, -4.272e-08
8500.5, -4.401e-08
8502.5, -3.978e-08
8504.5, -4.313e-08
8506.5, -3.817e-08
8508.5, -3.878e-08
8510.5, -3.78e-08
8512.5, -4.408e-08
8514.5, -4.171e-08
8516.5, -4.008e-08
8518.5, -3.618e-08
8520.5, -4.009e-08
8522.5, -3.518e-08
8524.5, -3.49e-08
8526.5, -3.372e-08
8528.5, -3.391e-08
8530.5, -3.96e-08
8532.5, -4.066e-08
8534.5, -3.792e-08
8536.5, -3.983e-08
8538.5, -3.638e-08
8540.5, -3.506e-08
8542.5, -3.625e-08
8544.5, -4.036e-08
8546.5, -4.093e-08
8548.5, -4.385e-08
8550.5, -4.163e-08
8552.5, -3.869e-08
8554.5, -3.835e-08
8556.5, -3.903e-08
8558.5, -4.151e-08
8560.6, -4.2e-08
8562.6, -3.857e-08
8564.6, -4.302e-08
8566.6, -3.81e-08
8568.6, -3.974e-08
8570.6, -3.867e-08
8572.6, -3.686e-08
8574.6, -3.701e-08
8576.6, -3.727e-08
8578.6, -3.313e-08
8580.6, -3.588e-08
8582.6, -3.622e-08
8584.6, -3.849e-08
8586.6, -3.854e-08
8588.6, -3.872e-08
8590.6, -3.484e-08
8592.6, -3.756e-08
8594.6, -3.822e-08
8596.6, -3.736e-08
8598.6, -3.827e-08
8600.6, -3.373e-08
8602.6, -3.494e-08
8604.6, -4.001e-08
8606.6, -3.91e-08
8608.6, -4.054e-08
8610.6, -4.004e-08
8612.6, -4.112e-08
8614.6, -4.261e-08
8616.6, -4.058e-08
8618.6, -3.938e-08
8620.6, -3.931e-08
8622.6, -4.048e-08
8624.6, -3.913e-08
8626.6, -4.116e-08
8628.6, -3.638e-08
8630.6, -3.853e-08
8632.6, -3.666e-08
8634.6, -4.397e-08
8636.6, -3.618e-08
8638.6, -4.202e-08
8640.6, -4.262e-08
8642.6, -4.25e-08
8644.6, -3.944e-08
8646.6, -3.764e-08
8648.6, -4.003e-08
8650.6, -3.807e-08
8652.6, -4.002e-08
8654.6, -4.378e-08
8656.6, -3.981e-08
8658.6, -4.216e-08
8660.7, -4.083e-08
8662.7, -4.203e-08
8664.7, -4.105e-08
8666.7, -4.269e-08
8668.7, -4.029e-08
8670.7, -4.079e-08
8672.7, -4.252e-08
8674.7, -4.077e-08
8676.7, -4.035e-08
8678.7, -4.068e-08
8680.7, -3.759e-08
8682.7, -3.675e-08
8684.7, -4.334e-08
8686.7, -3.653e-08
8688.7, -4.03e-08
8690.7, -3.968e-08
8692.7, -3.85e-08
8694.7, -4.02e-08
8696.7, -4.262e-08
8698.7, -4.485e-08
8700.7, -3.943e-08
8702.7, -3.769e-08
8704.7, -3.914e-08
8706.7, -3.969e-08
8708.7, -3.767e-08
8710.7, -3.892e-08
8712.7, -4.11e-08
8714.7, -4.083e-08
8716.7, -4.149e-08
8718.7, -3.988e-08
8720.7, -3.839e-08
8722.7, -4.242e-08
8724.7, -4.381e-08
8726.7, -4.134e-08
8728.7, -4.233e-08
8730.7, -4.005e-08
8732.7, -3.887e-08
8734.7, -3.679e-08
8736.7, -4.124e-08
8738.7, -3.874e-08
8740.7, -3.764e-08
8742.7, -3.908e-08
8744.7, -3.988e-08
8746.7, -3.851e-08
8748.7, -3.345e-08
8750.7, -3.587e-08
8752.7, -3.708e-08
8754.7, -3.862e-08
8756.7, -3.843e-08
8758.7, -3.605e-08
8760.8, -3.664e-08
8762.8, -3.855e-08
8764.8, -3.72e-08
8766.8, -3.824e-08
8768.8, -3.574e-08
8770.8, -3.746e-08
8772.8, -3.783e-08
8774.8, -3.899e-08
8776.8, -3.791e-08
8778.8, -3.818e-08
8780.8, -3.916e-08
8782.8, -3.881e-08
8784.8, -3.884e-08
8786.8, -3.812e-08
8788.8, -3.617e-08
8790.8, -3.609e-08
8792.8, -3.47e-08
8794.8, -3.486e-08
8796.8, -3.545e-08
8798.8, -3.487e-08
8800.8, -3.384e-08
8802.8, -3.689e-08
8804.8, -3.356e-08
8806.8, -3.727e-08
8808.8, -3.933e-08
8810.8, -3.58e-08
8812.8, -3.325e-08
8814.8, -3.095e-08
8816.8, -3.557e-08
8818.8, -3.602e-08
8820.8, -3.694e-08
8822.8, -3.44e-08
8824.8, -3.801e-08
8826.8, -3.36e-08
8828.8, -3.721e-08
8830.8, -3.472e-08
8832.8, -3.695e-08
8834.8, -3.545e-08
8836.8, -3.803e-08
8838.8, -3.64e-08
8840.8, -3.863e-08
8842.8, -3.607e-08
8844.8, -4.238e-08
8846.8, -3.755e-08
8848.8, -3.647e-08
8850.8, -3.603e-08
8852.8, -3.658e-08
8854.8, -3.847e-08
8856.8, -4.003e-08
8858.8, -3.581e-08
8860.9, -3.932e-08
8862.9, -3.72e-08
8864.9, -3.743e-08
8866.9, -3.997e-08
8868.9, -3.615e-08
8870.9, -3.907e-08
8872.9, -3.882e-08
8874.9, -3.544e-08
8876.9, -3.6e-08
8878.9, -3.74e-08
8880.9, -3.712e-08
8882.9, -4e-08
8884.9, -4.19e-08
8886.9, -3.822e-08
8888.9, -4.11e-08
8890.9, -4.103e-08
8892.9, -3.797e-08
8894.9, -4.223e-08
8896.9, -3.899e-08
8898.9, -4.253e-08
8900.9, -4.1e-08
8902.9, -4.145e-08
8904.9, -4.162e-08
8906.9, -3.677e-08
8908.9, -3.607e-08
8910.9, -3.4e-08
8912.9, -3.584e-08
8914.9, -3.582e-08
8916.9, -3.937e-08
8918.9, -3.849e-08
8920.9, -3.827e-08
8922.9, -3.509e-08
8924.9, -3.733e-08
8926.9, -3.22e-08
8928.9, -3.505e-08
8930.9, -3.904e-08
8932.9, -4.054e-08
8934.9, -3.812e-08
8936.9, -3.429e-08
8938.9, -3.626e-08
8940.9, -3.816e-08
8942.9, -3.894e-08
8944.9, -3.271e-08
8946.9, -3.815e-08
8948.9, -3.86e-08
8950.9, -3.368e-08
8952.9, -3.463e-08
8954.9, -3.468e-08
8956.9, -3.362e-08
8958.9, -3.398e-08
8961.0, -3.878e-08
8963.0, -3.57e-08
8965.0, -3.816e-08
8967.0, -3.518e-08
8969.0, -3.757e-08
8971.0, -3.757e-08
8973.0, -3.811e-08
8975.0, -3.744e-08
8977.0, -3.466e-08
8979.0, -3.756e-08
8981.0, -3.5e-08
8983.0, -3.463e-08
8985.0, -3.55e-08
8987.0, -3.383e-08
8989.0, -3.562e-08
8991.0, -3.977e-08
8993.0, -3.867e-08
8995.0, -3.639e-08
8997.0, -3.408e-08
8999.0, -3.514e-08
9001.0, -3.716e-08
9003.0, -3.747e-08
9005.0, -3.673e-08
9007.0, -3.809e-08
9009.0, -3.415e-08
9011.0, -3.751e-08
9013.0, -3.935e-08
9015.0, -3.478e-08
9017.0, -3.483e-08
9019.0, -3.311e-08
9021.0, -3.428e-08
9023.0, -3.672e-08
9025.0, -3.37e-08
9027.0, -3.025e-08
9029.0, -3.613e-08
9031.0, -3.141e-08
9033.0, -3.407e-08
9035.0, -3.272e-08
9037.0, -3.764e-08
9039.0, -3.42e-08
9041.0, -3.32e-08
9043.0, -3.635e-08
9045.0, -3.699e-08
9047.0, -3.531e-08
9049.0, -3.659e-08
9051.0, -3.539e-08
9053.0, -3.529e-08
9055.0, -3.566e-08
9057.0, -3.614e-08
9059.0, -3.447e-08
9061.1, -3.417e-08
9063.1, -3.449e-08
9065.1, -3.531e-08
9067.1, -3.359e-08
9069.1, -3.439e-08
9071.1, -3.652e-08
9073.1, -3.51e-08
9075.1, -3.641e-08
9077.1, -3.557e-08
9079.1, -3.44e-08
9081.1, -3.928e-08
9083.1, -3.729e-08
9085.1, -3.705e-08
9087.1, -3.645e-08
9089.1, -3.422e-08
9091.1, -3.608e-08
9093.1, -3.68e-08
9095.1, -3.642e-08
9097.1, -3.885e-08
9099.1, -3.85e-08
9101.1, -3.808e-08
9103.1, -3.876e-08
9105.1, -3.736e-08
9107.1, -3.376e-08
9109.1, -2.996e-08
9111.1, -3.047e-08
9113.1, -3.082e-08
9115.1, -3.143e-08
9117.1, -3.265e-08
9119.1, -3.688e-08
9121.1, -3.734e-08
9123.1, -3.707e-08
9125.1, -3.697e-08
9127.1, -3.399e-08
9129.1, -3.569e-08
9131.1, -3.441e-08
9133.1, -3.219e-08
9135.1, -3.525e-08
9137.1, -3.443e-08
9139.1, -3.429e-08
9141.1, -3.574e-08
9143.1, -3.726e-08
9145.1, -3.701e-08
9147.1, -3.474e-08
9149.1, -3.218e-08
9151.1, -3.412e-08
9153.1, -3.76e-08
9155.1, -3.23e-08
9157.1, -3.404e-08
9159.1, -3.446e-08
9161.2, -3.477e-08
9163.2, -3.625e-08
9165.2, -3.726e-08
9167.2, -3.692e-08
9169.2, -3.322e-08
9171.2, -3.034e-08
9173.2, -3.072e-08
9175.2, -3.523e-08
9177.2, -3.56e-08
9179.2, -3.505e-08
9181.2, -3.055e-08
9183.2, -3.521e-08
9185.2, -3.258e-08
9187.2, -3.569e-08
9189.2, -3.728e-08
9191.2, -3.403e-08
9193.2, -3.281e-08
9195.2, -3.387e-08
9197.2, -3.009e-08
9199.2, -2.788e-08
9201.2, -2.878e-08
9203.2, -3.157e-08
9205.2, -3.57e-08
9207.2, -2.924e-08
9209.2, -3.164e-08
9211.2, -3.117e-08
9213.2, -3.287e-08
9215.2, -3.441e-08
9217.2, -3.33e-08
9219.2, -3.265e-08
9221.2, -3.208e-08
9223.2, -3.636e-08
9225.2, -3.651e-08
9227.2, -3.678e-08
9229.2, -3.555e-08
9231.2, -3.468e-08
9233.2, -3.829e-08
9235.2, -3.521e-08
9237.2, -3.448e-08
9239.2, -3.864e-08
9241.2, -3.251e-08
9243.2, -3.616e-08
9245.2, -3.486e-08
9247.2, -3.177e-08
9249.2, -3.356e-08
9251.2, -3.336e-08
9253.2, -3.438e-08
9255.2, -3.697e-08
9257.2, -3.32e-08
9259.2, -3.456e-08
9261.3, -3.22e-08
9263.3, -3.2e-08
9265.3, -3.601e-08
9267.3, -3.252e-08
9269.3, -3.449e-08
9271.3, -3.463e-08
9273.3, -3.495e-08
9275.3, -3.644e-08
9277.3, -3.061e-08
9279.3, -3.485e-08
9281.3, -3.132e-08
9283.3, -3.485e-08
9285.3, -3.909e-08
9287.3, -3.713e-08
9289.3, -3.186e-08
9291.3, -3.43e-08
9293.3, -3.16e-08
9295.3, -3.595e-08
9297.3, -3.472e-08
9299.3, -3.815e-08
9301.3, -3.786e-08
9303.3, -3.985e-08
9305.3, -3.844e-08
9307.3, -4.178e-08
9309.3, -3.663e-08
9311.3, -4.148e-08
9313.3, -4.071e-08
9315.3, -3.672e-08
9317.3, 2.0925e-07
9319.3, 1.4106e-07
9321.3, 1.5959e-07
9323.3, 1.9022e-07
9325.3, 1.65e-07
9327.3, 1.4168e-07
9329.3, 1.5865e-07
9331.3, 1.7827e-07
9333.3, 1.5329e-07
9335.3, 1.5579e-07
9337.3, 1.8815e-07
9339.3, 1.8035e-07
9341.3, 1.8968e-07
9343.3, 1.8113e-07
9345.3, 1.8288e-07
9347.3, 1.7306e-07
9349.3, 1.6534e-07
9351.3, 1.4322e-07
9353.3, 2.5511e-07
9355.3, 1.7595e-07
9357.3, 1.5517e-07
9359.3, 1.2915e-07
9361.4, 1.793e-07
9363.4, 1.5807e-07
9365.4, 1.4223e-07
9367.4, 2.0858e-07
9369.4, 1.6739e-07
9371.4, 2.0123e-07
9373.4, 1.9343e-07
9375.4, 1.8588e-07
9377.4, 1.2855e-07
9379.4, 1.792e-07
9381.4, 1.4527e-07
9383.4, 2.1773e-07
9385.4, 2.0134e-07
9387.4, 1.3099e-07
9389.4, 1.7562e-07
9391.4, 1.7192e-07
9393.4, 1.9121e-07
9395.4, 1.684e-07
9397.4, 1.3104e-07
9399.4, 1.2766e-07
9401.4, 1.9203e-07
9403.4, 1.8827e-07
9405.4, 1.59e-07
9407.4, 1.8687e-07
9409.4, 1.796e-07
9411.4, 2.0594e-07
9413.4, 1.5194e-07
9415.4, 1.9504e-07
9417.4, 1.8957e-07
9419.4, 1.8781e-07
9421.4, 1.9886e-07
9423.4, 1.6107e-07
9425.4, 1.8676e-07
9427.4, 2.0979e-07
9429.4, 1.7444e-07
9431.4, 1.6525e-07
9433.4, 1.7223e-07
9435.4, 1.798e-07
9437.4, 1.7297e-07
9439.4, 2.3292e-07
9441.4, 2.7258e-07
9443.4, 2.0445e-07
9445.4, 1.7974e-07
9447.4, 1.9058e-07
9449.4, 1.7555e-07
9451.4, 1.9876e-07
9453.4, 1.8184e-07
9455.4, 1.7488e-07
9457.4, 2.0052e-07
9459.4, 1.6713e-07
9461.5, 2.1832e-07
9463.5, 1.8937e-07
9465.5, 1.7613e-07
9467.5, 2.1248e-07
9469.5, 1.9713e-07
9471.5, 1.2329e-07
9473.5, 1.4577e-07
9475.5, 1.9238e-07
9477.5, 1.8114e-07
9479.5, 1.8345e-07
9481.5, 1.5187e-07
9483.5, 2.0562e-07
9485.5, 2.0195e-07
9487.5, 1.7927e-07
9489.5, 2.0341e-07
9491.5, 2.1185e-07
9493.5, 2.1895e-07
9495.5, 1.6741e-07
9497.5, 2.6113e-07
9499.5, 1.6381e-07
9501.5, 2.0171e-07
9503.5, 1.6892e-07
9505.5, 2.1207e-07
9507.5, 2.1433e-07
9509.5, 1.3802e-07
9511.5, 1.6417e-07
9513.5, 2.0951e-07
9515.5, 2.0528e-07
9517.5, 2.0715e-07
9519.5, 1.7092e-07
9521.5, 2.1874e-07
9523.5, 2.0895e-07
9525.5, 1.5059e-07
9527.5, 1.9944e-07
9529.5, 2.1543e-07
9531.5, 1.7318e-07
9533.5, 1.9117e-07
9535.5, 2.4401e-07
9537.5, 2.1035e-07
9539.5, 1.9198e-07
9541.5, 1.9791e-07
9543.5, 1.5752e-07
9545.5, 2.3254e-07
9547.5, 1.8677e-07
9549.5, 1.8359e-07
9551.5, 1.9384e-07
9553.5, 1.9722e-07
9555.5, 1.8991e-07
9557.5, 2.3186e-07
9559.5, 2.4781e-07
9561.6, 2.1452e-07
9563.6, 2.4865e-07
9565.6, 1.7856e-07
9567.6, 2.6283e-07
9569.6, 1.8798e-07
9571.6, 2.0903e-07
9573.6, 2.0739e-07
9575.6, 2.0214e-07
9577.6, 2.1762e-07
9579.6, 2.2122e-07
9581.6, 2.2122e-07
9583.6, 2.0024e-07
9585.6, 2.1299e-07
9587.6, 1.89e-07
9589.6, 2.3548e-07
9591.6, 1.5038e-07
9593.6, 2.1218e-07
9595.6, 1.8087e-07
9597.6, 2.2305e-07
9599.6, 1.9052e-07
9601.6, 1.5625e-07
9603.6, 2.409e-07
9605.6, 2.1013e-07
9607.6, 2.0322e-07
9609.6, 1.8902e-07
9611.6, 1.9631e-07
9613.6, 1.673e-07
9615.6, 1.7041e-07
9617.6, 1.982e-07
9619.6, 2.2383e-07
9621.6, 2.2136e-07
9623.6, 2.1291e-07
9625.6, 2.266e-07
9627.6, 1.7946e-07
9629.6, 2.1783e-07
9631.6, 2.1686e-07
9633.6, 2.0104e-07
9635.6, 2.2148e-07
9637.6, 2.0027e-07
9639.6, 1.6948e-07
9641.6, 1.9045e-07
9643.6, 1.8604e-07
9645.6, 1.751e-07
9647.6, 2.5684e-07
9649.6, 2.0435e-07
9651.6, 2.1124e-07
9653.6, 2.3527e-07
9655.6, 1.8981e-07
9657.6, 1.9797e-07
9659.6, 2.3872e-07
9661.7, 1.8695e-07
9663.7, 2.4069e-07
9665.7, 2.2041e-07
9667.7, 2.4402e-07
9669.7, 1.9081e-07
9671.7, 2.0738e-07
9673.7, 1.9155e-07
9675.7, 1.8609e-07
9677.7, 1.8691e-07
9679.7, 2.0727e-07
9681.7, 1.9203e-07
9683.7, 2.2613e-07
9685.7, 1.7261e-07
9687.7, 2.0066e-07
9689.7, 2.3932e-07
9691.7, 2.0551e-07
9693.7, 2.2617e-07
9695.7, 2.2253e-07
9697.7, 1.7536e-07
9699.7, 1.9983e-07
9701.7, 1.985e-07
9703.7, 1.8586e-07
9705.7, 2.1956e-07
9707.7, 2.1183e-07
9709.7, 1.9827e-07
9711.7, 2.013e-07
9713.7, 1.6479e-07
9715.7, 2.2703e-07
9717.7, 2.0873e-07
9719.7, 2.21e-07
9721.7, 2.1859e-07
9723.7, 2.1599e-07
9725.7, 1.8933e-07
9727.7, 2.1069e-07
9729.7, 1.9493e-07
9731.7, 2.1703e-07
9733.7, 2.0401e-07
9735.7, 1.8041e-07
9737.7, 2.1144e-07
9739.7, 2.1765e-07
9741.7, 2.342e-07
9743.7, 2.0626e-07
9745.7, 1.6925e-07
9747.7, 2.2242e-07
9749.7, 1.9666e-07
9751.7, 1.7046e-07
9753.7, 2.3531e-07
9755.7, 1.6396e-07
9757.7, 2.7219e-07
9759.7, 1.9293e-07
9761.8, 2.1715e-07
9763.8, 1.9921e-07
9765.8, 2.6191e-07
9767.8, 1.7541e-07
9769.8, 1.8233e-07
9771.8, 2.3353e-07
9773.8, 2.0465e-07
9775.8, 2.3907e-07
9777.8, 1.9563e-07
9779.8, 2.5501e-07
9781.8, 1.8515e-07
9783.8, 1.7099e-07
9785.8, 1.9468e-07
9787.8, 1.7003e-07
9789.8, 2.015e-07
9791.8, 1.8659e-07
9793.8, 2.1277e-07
9795.8, 2.3493e-07
9797.8, 1.7726e-07
9799.8, 1.9361e-07
9801.8, 2.3027e-07
9803.8, 2.1848e-07
9805.8, 1.9704e-07
9807.8, 2.3085e-07
9809.8, 1.7752e-07
9811.8, 1.9816e-07
9813.8, 1.7318e-07
9815.8, 2.0102e-07
9817.8, 2.1087e-07
9819.8, 2.0192e-07
9821.8, 2.0849e-07
9823.8, 2.3279e-07
9825.8, 2.1473e-07
9827.8, 2.112e-07
9829.8, 1.9493e-07
9831.8, 2.0797e-07
9833.8, 2.2064e-07
9835.8, 2.0851e-07
9837.8, 2.3936e-07
9839.8, 2.1004e-07
9841.8, 1.7591e-07
9843.8, 1.8066e-07
9845.8, 1.8569e-07
9847.8, 2.0524e-07
9849.8, 1.8948e-07
9851.8, 2.2125e-07
9853.8, 1.9448e-07
9855.8, 2.0846e-07
9857.8, 2.1617e-07
9859.8, 1.9511e-07
9861.9, 2.2367e-07
9863.9, 1.9811e-07
9865.9, 2.0712e-07
9867.9, 2.2276e-07
9869.9, 2.5035e-07
9871.9, 2.0778e-07
9873.9, 2.0302e-07
9875.9, 2.4623e-07
9877.9, 1.9752e-07
9879.9, 2.0215e-07
9881.9, 1.8422e-07
9883.9, 1.7341e-07
9885.9, 1.8941e-07
9887.9, 2.0086e-07
9889.9, 2.2503e-07
9891.9, 1.9691e-07
9893.9, 2.4215e-07
9895.9, 2.0746e-07
9897.9, 2.0912e-07
9899.9, 2.2415e-07
9901.9, 2.1925e-07
9903.9, 2.4958e-07
9905.9, 2.3522e-07
9907.9, 1.9844e-07
9909.9, 1.9819e-07
9911.9, 2.0168e-07
9913.9, 2.0827e-07
9915.9, 2.4294e-07
9917.9, 2.2242e-07
9919.9, 1.9685e-07
9921.9, 2.285e-07
9923.9, 2.4519e-07
9925.9, 1.967e-07
9927.9, 1.823e-07
9929.9, 2.4761e-07
9931.9, 2.3264e-07
9933.9, 1.7764e-07
9935.9, 2.1332e-07
9937.9, 2.214e-07
9939.9, 2.3943e-07
9941.9, 2.4656e-07
9943.9, 2.2625e-07
9945.9, 2.1089e-07
9947.9, 2.0691e-07
9949.9, 2.1468e-07
9951.9, 1.9742e-07
9953.9, 1.9997e-07
9955.9, 2.4793e-07
9957.9, 1.5935e-07
9959.9, 2.1892e-07
9962.0, 2.3678e-07
9964.0, 2.1778e-07
9966.0, 2.083e-07
9968.0, 2.6669e-07
9970.0, 2.0087e-07
9972.0, 1.9723e-07
9974.0, 2.2122e-07
9976.0, 1.9939e-07
9978.0, 2.6323e-07
9980.0, 1.8555e-07
9982.0, 2.0994e-07
9984.0, 2.2739e-07
9986.0, 2.1915e-07
9988.0, 2.2451e-07
9990.0, 2.2132e-07
9992.0, 2.0526e-07
9994.0, 2.3413e-07
9996.0, 1.9832e-07
9998.0, 2.2225e-07
10000.0, 2.1094e-07
10002.0, 2.4658e-07
10004.0, 2.3631e-07
10006.0, 2.2068e-07
10008.0, 3.0057e-07
10010.0, 1.8955e-07
10012.0, 2.2111e-07
10014.0, 1.7831e-07
10016.0, 2.0173e-07
10018.0, 2.4649e-07
10020.0, 2.3906e-07
10022.0, 1.8752e-07
10024.0, 2.368e-07
10026.0, 1.9182e-07
10028.0, 2.2036e-07
10030.0, 1.9807e-07
10032.0, 2.4154e-07
10034.0, 1.592e-07
10036.0, 1.8556e-07
10038.0, 1.9519e-07
10040.0, 2.3176e-07
10042.0, 2.0536e-07
10044.0, 1.9333e-07
10046.0, 2.259e-07
10048.0, 1.9422e-07
10050.0, 1.9016e-07
10052.0, 2.1872e-07
10054.0, 2.6887e-07
10056.0, 2.0233e-07
10058.0, 2.2464e-07
10060.0, 2.2464e-07
10062.0, 1.9784e-07
10064.0, 1.7919e-07
10066.0, 2.236e-07
10068.0, 1.7085e-07
10070.0, 2.086e-07
10072.0, 2.6406e-07
10074.0, 2.3828e-07
10076.0, 2.2759e-07
10078.0, 2.4819e-07
10080.0, 2.1407e-07
10082.0, 2.0952e-07
10084.0, 2.1182e-07
10086.0, 2.7503e-07
10088.0, 2.2687e-07
10090.0, 2.0327e-07
10092.0, 2.3068e-07
10094.0, 2.1642e-07
10096.0, 1.9899e-07
10098.0, 2.2152e-07
10100.0, 2.1346e-07
10102.0, 2.374e-07
10104.0, 1.9268e-07
10106.0, 2.2944e-07
10108.0, 1.8704e-07
10110.0, 1.8832e-07
10112.0, 2.5975e-07
10114.0, 2.216e-07
10116.0, 1.886e-07
10118.0, 2.2225e-07
10120.0, 2.1497e-07
10122.0, 2.2028e-07
10124.0, 2.5986e-07
10126.0, 2.1759e-07
10128.0, 2.0016e-07
10130.0, 2.59e-07
10132.0, 2.3369e-07
10134.0, 1.938e-07
10136.0, 2.1041e-07
10138.0, 1.9355e-07
10140.0, 2.292e-07
10142.0, 2.2325e-07
10144.0, 2.6199e-07
10146.0, 1.9426e-07
10148.0, 2.0281e-07
10150.0, 1.9558e-07
10152.0, 1.8424e-07
10154.0, 1.8734e-07
10156.0, 2.252e-07
10158.0, 2.0912e-07
10160.0, 2.1574e-07
10162.0, 2.2818e-07
10164.0, 2.2768e-07
10166.0, 1.7614e-07
10168.0, 2.0233e-07
10170.0, 2.3171e-07
10172.0, 1.8775e-07
10174.0, 2.5797e-07
10176.0, 2.4212e-07
10178.0, 2.5271e-07
10180.0, 2.174e-07
10182.0, 2.3908e-07
10184.0, 1.7088e-07
10186.0, 1.9891e-07
10188.0, 1.8768e-07
10190.0, 1.7873e-07
10192.0, 2.0441e-07
10194.0, 2.1115e-07
10196.0, 2.0963e-07
10198.0, 2.1029e-07
10200.0, 2.079e-07
10202.0, 2.2315e-07
10204.0, 2.1373e-07
10206.0, 1.9984e-07
10208.0, 2.2177e-07
10210.0, 2.0731e-07
10212.0, 2.1607e-07
10214.0, 2.1249e-07
10216.0, 2.4398e-07
10218.0, 2.4317e-07
10220.0, 2.4771e-07
10222.0, 2.1397e-07
10224.0, 1.956e-07
10226.0, 2.0286e-07
10228.0, 2.2558e-07
10230.0, 2.2232e-07
10232.0, 2.1512e-07
10234.0, 2.0806e-07
10236.0, 2.5153e-07
10238.0, 1.7957e-07
10240.0, 2.133e-07
10242.0, 2.624e-07
10244.0, 1.9751e-07
10246.0, 2.3115e-07
10248.0, 2.4137e-07
10250.0, 2.4765e-07
10252.0, 2.5715e-07
10254.0, 2.1673e-07
10256.0, 2.3821e-07
10258.0, 2.2161e-07
10260.0, 2.1887e-07
10262.0, 2.0433e-07
10264.0, 2.0787e-07
10266.0, 2.0432e-07
10268.0, 2.2592e-07
10270.0, 2.6154e-07
10272.0, 1.945e-07
10274.0, 1.8195e-07
10276.0, 2.0392e-07
10278.0, 2.1818e-07
10280.0, 2.3714e-07
10282.0, 2.508e-07
10284.0, 2.7703e-07
10286.0, 2.0259e-07
10288.0, 2.0923e-07
10290.0, 1.9736e-07
10292.0, 2.3409e-07
10294.0, 2.5619e-07
10296.0, 2.3837e-07
10298.0, 2.4608e-07
10300.0, 1.9663e-07
10302.0, 2.124e-07
10304.0, 1.9274e-07
10306.0, 2.1657e-07
10308.0, 1.7557e-07
10310.0, 2.3762e-07
10312.0, 1.9221e-07
10314.0, 2.1371e-07
10316.0, 2.5752e-07
10318.0, -3.724e-08
10320.0, -3.743e-08
10322.0, -3.516e-08
10324.0, -3.631e-08
10326.0, -3.425e-08
10328.0, -3.498e-08
10330.0, -3.565e-08
10332.0, -3.238e-08
10334.0, -3.522e-08
10336.0, -3.673e-08
10338.0, -3.492e-08
10340.0, -3.367e-08
10342.0, -3.217e-08
10344.0, -3.366e-08
10346.0, -3.526e-08
10348.0, -3.285e-08
10350.0, -3.385e-08
10352.0, -3.699e-08
10354.0, -3.153e-08
10356.0, -3.051e-08
10358.0, -2.804e-08
10360.0, -2.93e-08
10362.0, -3.085e-08
10364.0, -3.341e-08
10366.0, -3.098e-08
10368.0, -3.445e-08
10370.0, -3.364e-08
10372.0, -3.312e-08
10374.0, -3.038e-08
10376.0, -3.482e-08
10378.0, -3.251e-08
10380.0, -2.849e-08
10382.0, -3.423e-08
10384.0, -2.802e-08
10386.0, -3.389e-08
10388.0, -3.111e-08
10390.0, -3.226e-08
10392.0, -2.851e-08
10394.0, -2.907e-08
10396.0, -2.919e-08
10398.0, -2.678e-08
10400.0, -2.942e-08
10402.0, -2.889e-08
10404.0, -2.837e-08
10406.0, -3.017e-08
10408.0, -3.5e-08
10410.0, -3.507e-08
10412.0, -3.147e-08
10414.0, -3.646e-08
10416.0, -3.568e-08
10418.0, -3.384e-08
10420.0, -3.303e-08
10422.0, -3.375e-08
10424.0, -3.458e-08
10426.0, -3.846e-08
10428.0, -3.144e-08
10430.0, -3.409e-08
10432.0, -3.292e-08
10434.0, -3.062e-08
10436.0, -2.895e-08
10438.0, -2.961e-08
10440.0, -2.951e-08
10442.0, -3.295e-08
10444.0, -2.933e-08
10446.0, -2.889e-08
10448.0, -2.501e-08
10450.0, -2.577e-08
10452.0, -2.708e-08
10454.0, -2.906e-08
10456.0, -2.813e-08
10458.0, -2.709e-08
10460.0, -2.688e-08
10462.0, -2.246e-08
10464.0, -3.065e-08
10466.0, -2.921e-08
10468.0, -3.23e-08
10470.0, -3.159e-08
10472.0, -3.315e-08
10474.0, -3.305e-08
10476.0, -3.187e-08
10478.0, -2.777e-08
10480.0, -3.105e-08
10482.0, -3.039e-08
10484.0, -2.962e-08
10486.0, -3.104e-08
10488.0, -3.062e-08
10490.0, -3.135e-08
10492.0, -2.811e-08
10494.0, -2.782e-08
10496.0, -2.978e-08
10498.0, -3.182e-08
10500.0, -2.955e-08
10502.0, -2.938e-08
10504.0, -3.288e-08
10506.0, -3.041e-08
10508.0, -2.956e-08
10510.0, -2.933e-08
10513.0, -3.161e-08
10515.0, -2.895e-08
10517.0, -3.466e-08
10519.0, -3.064e-08
10521.0, -3.092e-08
10523.0, -3.437e-08
10525.0, -3.576e-08
10527.0, -3.529e-08
10529.0, -3.369e-08
10531.0, -3.073e-08
10533.0, -2.856e-08
10535.0, -3.246e-08
10537.0, -3.438e-08
10539.0, -3.337e-08
10541.0, -3.423e-08
10543.0, -3.491e-08
10545.0, -3.545e-08
10547.0, -3.464e-08
10549.0, -3.337e-08
10551.0, -3.036e-08
10553.0, -3.286e-08
10555.0, -3.358e-08
10557.0, -3.256e-08
10559.0, -3.087e-08
10561.0, -3.237e-08
10563.0, -2.892e-08
10565.0, -3.244e-08
10567.0, -3.083e-08
10569.0, -3.03e-08
10571.0, -3.318e-08
10573.0, -3.48e-08
10575.0, -3.67e-08
10577.0, -3.374e-08
10579.0, -3.444e-08
10581.0, -3.719e-08
10583.0, -3.661e-08
10585.0, -3.32e-08
10587.0, -3.445e-08
10589.0, -3.417e-08
10591.0, -3.21e-08
10593.0, -3.407e-08
10595.0, -3.432e-08
10597.0, -3.087e-08
10599.0, -2.945e-08
10601.0, -3.26e-08
10603.0, -3.253e-08
10605.0, -3.509e-08
10607.0, -3.623e-08
10609.0, -3.515e-08
10611.0, -3.228e-08
10613.0, -3.491e-08
10615.0, -3.789e-08
10617.0, -3.082e-08
10619.0, -3.385e-08
10621.0, -3.361e-08
10623.0, -3.155e-08
10625.0, -2.953e-08
10627.0, -3.514e-08
10629.0, -3.612e-08
10631.0, -3.374e-08
10633.0, -3.392e-08
10635.0, -3.763e-08
10637.0, -3.849e-08
10639.0, -3.486e-08
10641.0, -3.516e-08
10643.0, -3.334e-08
10645.0, -3.571e-08
10647.0, -3.454e-08
10649.0, -3.625e-08
10651.0, -3.54e-08
10653.0, -3.825e-08
10655.0, -3.36e-08
10657.0, -3.863e-08
10659.0, -3.344e-08
10661.0, -3.839e-08
10663.0, -3.491e-08
10665.0, -3.524e-08
10667.0, -3.452e-08
10669.0, -3.341e-08
10671.0, -3.568e-08
10673.0, -3.645e-08
10675.0, -3.553e-08
10677.0, -3.619e-08
10679.0, -3.561e-08
10681.0, -3.665e-08
10683.0, -3.432e-08
10685.0, -3.23e-08
10687.0, -3.591e-08
10689.0, -3.656e-08
10691.0, -3.543e-08
10693.0, -3.506e-08
10695.0, -3.907e-08
10697.0, -3.964e-08
10699.0, -3.55e-08
10701.0, -3.991e-08
10703.0, -3.466e-08
10705.0, -3.503e-08
10707.0, -3.462e-08
10709.0, -3.667e-08
10711.0, -3.418e-08
10713.0, -3.371e-08
10715.0, -3.647e-08
10717.0, -3.589e-08
10719.0, -3.546e-08
10721.0, -3.44e-08
10723.0, -3.589e-08
10725.0, -3.637e-08
10727.0, -3.461e-08
10729.0, -3.603e-08
10731.0, -3.008e-08
10733.0, -3.287e-08
10735.0, -3.29e-08
10737.0, -3.57e-08
10739.0, -3.586e-08
10741.0, -3.751e-08
10743.0, -3.895e-08
10745.0, -3.931e-08
10747.0, -3.634e-08
10749.0, -3.291e-08
10751.0, -3.741e-08
10753.0, -3.811e-08
10755.0, -3.935e-08
10757.0, -4.158e-08
10759.0, -4.068e-08
10761.0, -3.691e-08
10763.0, -3.566e-08
10765.0, -3.768e-08
10767.0, -3.611e-08
10769.0, -3.684e-08
10771.0, -3.541e-08
10773.0, -3.965e-08
10775.0, -3.709e-08
10777.0, -3.653e-08
10779.0, -3.864e-08
10781.0, -3.808e-08
10783.0, -3.663e-08
10785.0, -4.146e-08
10787.0, -4.325e-08
10789.0, -4.043e-08
10791.0, -3.574e-08
10793.0, -3.731e-08
10795.0, -3.758e-08
10797.0, -3.703e-08
10799.0, -3.498e-08
10801.0, -3.645e-08
10803.0, -3.857e-08
10805.0, -3.757e-08
10807.0, -3.888e-08
10809.0, -3.409e-08
10811.0, -3.523e-08
10813.0, -3.783e-08
10815.0, -3.819e-08
10817.0, -3.536e-08
10819.0, -3.399e-08
10821.0, -3.496e-08
10823.0, -3.904e-08
10825.0, -3.555e-08
10827.0, -3.554e-08
10829.0, -4.126e-08
10831.0, -4.16e-08
10833.0, -4.178e-08
10835.0, -4.181e-08
10837.0, -4.206e-08
10839.0, -4.009e-08
10841.0, -3.997e-08
10843.0, -3.899e-08
10845.0, -3.818e-08
10847.0, -4.44e-08
10849.0, -4.093e-08
10851.0, -4.069e-08
10853.0, -4.022e-08
10855.0, -4.151e-08
10857.0, -3.923e-08
10859.0, -4.209e-08
10861.0, -4.065e-08
10863.0, -3.708e-08
10865.0, -3.779e-08
10867.0, -3.797e-08
10869.0, -3.584e-08
10871.0, -3.535e-08
10873.0, -3.926e-08
10875.0, -4.039e-08
10877.0, -4.378e-08
10879.0, -3.804e-08
10881.0, -3.762e-08
10883.0, -4.144e-08
10885.0, -4.074e-08
10887.0, -3.832e-08
10889.0, -3.924e-08
10891.0, -3.756e-08
10893.0, -3.626e-08
10895.0, -3.733e-08
10897.0, -3.567e-08
10899.0, -3.657e-08
10901.0, -3.662e-08
10903.0, -3.583e-08
10905.0, -3.769e-08
10907.0, -3.832e-08
10909.0, -3.845e-08
10911.0, -3.903e-08
10913.0, -3.627e-08
10915.0, -4.084e-08
10917.0, -3.81e-08
10919.0, -3.913e-08
10921.0, -3.859e-08
10923.0, -3.422e-08
10925.0, -3.784e-08
10927.0, -3.693e-08
10929.0, -3.925e-08
10931.0, -3.92e-08
10933.0, -3.774e-08
10935.0, -3.774e-08
10937.0, -3.737e-08
10939.0, -3.681e-08
10941.0, -3.673e-08
10943.0, -3.875e-08
10945.0, -3.633e-08
10947.0, -3.877e-08
10949.0, -4.264e-08
10951.0, -3.828e-08
10953.0, -3.517e-08
10955.0, -4.277e-08
10957.0, -3.936e-08
10959.0, -3.721e-08
10961.0, -4.108e-08
10963.0, -3.921e-08
10965.0, -4.198e-08
10967.0, -4.364e-08
10969.0, -3.937e-08
10971.0, -3.989e-08
10973.0, -4.122e-08
10975.0, -4.136e-08
10977.0, -3.938e-08
10979.0, -4.275e-08
10981.0, -4.02e-08
10983.0, -3.945e-08
10985.0, -4.003e-08
10987.0, -4.073e-08
10989.0, -3.796e-08
10991.0, -3.947e-08
10993.0, -4.075e-08
10995.0, -4.079e-08
10997.0, -3.957e-08
10999.0, -3.798e-08
11001.0, -3.846e-08
11003.0, -3.918e-08
11005.0, -4.135e-08
11007.0, -4.349e-08
11009.0, -4.019e-08
