Time sep (ms?), Current (A)
0.0, -3.636e-08
2.002, -3.441e-08
4.004, -3.332e-08
6.006, -3.36e-08
8.008, -3.375e-08
10.01, -3.427e-08
12.012, -3.157e-08
14.014, -3.32e-08
16.016, -3.335e-08
18.018, -3.737e-08
20.02, -3.197e-08
22.022, -3.291e-08
24.024, -3.522e-08
26.026, -3.774e-08
28.028, -3.644e-08
30.03, -3.652e-08
32.032, -3.804e-08
34.034, -3.469e-08
36.036, -3.861e-08
38.038, -3.645e-08
40.04, -3.627e-08
42.042, -3.536e-08
44.044, -3.632e-08
46.046, -3.607e-08
48.048, -3.688e-08
50.05, -3.906e-08
52.052, -3.875e-08
54.054, -3.84e-08
56.056, -4.157e-08
58.058, -3.728e-08
60.06, -3.563e-08
62.062, -3.725e-08
64.064, -3.573e-08
66.066, -3.59e-08
68.068, -3.779e-08
70.07, -4.128e-08
72.072, -4.302e-08
74.074, -4.009e-08
76.076, -3.913e-08
78.078, -3.611e-08
80.08, -3.21e-08
82.082, -3.487e-08
84.084, -4.152e-08
86.086, -3.946e-08
88.088, -4.2e-08
90.09, -3.857e-08
92.092, -3.856e-08
94.094, -3.774e-08
96.096, -3.292e-08
98.098, -3.875e-08
100.1, -3.269e-08
102.1, -3.84e-08
104.1, -3.912e-08
106.11, -3.883e-08
108.11, -4.178e-08
110.11, -3.827e-08
112.11, -3.637e-08
114.11, -3.993e-08
116.12, -4.143e-08
118.12, -3.953e-08
120.12, -3.678e-08
122.12, -4.205e-08
124.12, -3.819e-08
126.13, -4.075e-08
128.13, -4.031e-08
130.13, -4.308e-08
132.13, -3.641e-08
134.13, -3.551e-08
136.14, -3.643e-08
138.14, -3.733e-08
140.14, -3.621e-08
142.14, -3.663e-08
144.14, -4.102e-08
146.15, -4.022e-08
148.15, -4.158e-08
150.15, -4.37e-08
152.15, -4.035e-08
154.15, -4.145e-08
156.16, -4.398e-08
158.16, -4.122e-08
160.16, -3.802e-08
162.16, -3.89e-08
164.16, -4.107e-08
166.17, -3.98e-08
168.17, -4.073e-08
170.17, -3.617e-08
172.17, -4.046e-08
174.17, -3.904e-08
176.18, -4.072e-08
178.18, -3.594e-08
180.18, -3.912e-08
182.18, -3.799e-08
184.18, -3.904e-08
186.19, -4.249e-08
188.19, -4.12e-08
190.19, -4.134e-08
192.19, -3.941e-08
194.19, -3.88e-08
196.2, -4.1e-08
198.2, -4.051e-08
200.2, -3.984e-08
202.2, -3.975e-08
204.2, -4.016e-08
206.21, -3.919e-08
208.21, -3.864e-08
210.21, -3.909e-08
212.21, -3.894e-08
214.21, -3.874e-08
216.22, -3.811e-08
218.22, -4.019e-08
220.22, -3.754e-08
222.22, -3.863e-08
224.22, -3.898e-08
226.23, -3.902e-08
228.23, -3.824e-08
230.23, -3.929e-08
232.23, -3.917e-08
234.23, -3.749e-08
236.24, -3.905e-08
238.24, -3.532e-08
240.24, -3.282e-08
242.24, -3.893e-08
244.24, -3.711e-08
246.25, -3.714e-08
248.25, -3.86e-08
250.25, -3.5e-08
252.25, -3.495e-08
254.25, -3.65e-08
256.26, -3.75e-08
258.26, -3.543e-08
260.26, -3.353e-08
262.26, -3.223e-08
264.26, -3.632e-08
266.27, -3.542e-08
268.27, -3.634e-08
270.27, -3.258e-08
272.27, -3.729e-08
274.27, -3.622e-08
276.28, -3.812e-08
278.28, -3.978e-08
280.28, -3.508e-08
282.28, -3.462e-08
284.28, -3.895e-08
286.29, -3.885e-08
288.29, -3.862e-08
290.29, -3.988e-08
292.29, -3.903e-08
294.29, -3.729e-08
296.3, -3.782e-08
298.3, -3.937e-08
300.3, -3.887e-08
302.3, -3.876e-08
304.3, -3.553e-08
306.31, -3.539e-08
308.31, -4.288e-08
310.31, -4.001e-08
312.31, -3.595e-08
314.31, -3.906e-08
316.32, -3.954e-08
318.32, -3.971e-08
320.32, -3.882e-08
322.32, -3.844e-08
324.32, -3.954e-08
326.33, -3.937e-08
328.33, -3.86e-08
330.33, -3.555e-08
332.33, -3.214e-08
334.33, -3.472e-08
336.34, -3.727e-08
338.34, -3.669e-08
340.34, -3.689e-08
342.34, -3.558e-08
344.34, -3.8e-08
346.35, -3.533e-08
348.35, -3.691e-08
350.35, -3.72e-08
352.35, -3.659e-08
354.35, -3.676e-08
356.36, -3.541e-08
358.36, -3.886e-08
360.36, -3.794e-08
362.36, -3.816e-08
364.36, -3.517e-08
366.37, -3.788e-08
368.37, -3.815e-08
370.37, -3.684e-08
372.37, -3.413e-08
374.37, -3.364e-08
376.38, -3.513e-08
378.38, -3.548e-08
380.38, -3.486e-08
382.38, -3.361e-08
384.38, -3.471e-08
386.39, -3.687e-08
388.39, -3.711e-08
390.39, -3.575e-08
392.39, -3.135e-08
394.39, -3.357e-08
396.4, -3.815e-08
398.4, -4.003e-08
400.4, -3.537e-08
402.4, -3.817e-08
404.4, -3.259e-08
406.41, -3.668e-08
408.41, -3.632e-08
410.41, -3.774e-08
412.41, -3.582e-08
414.41, -3.641e-08
416.42, -3.459e-08
418.42, -3.333e-08
420.42, -3.505e-08
422.42, -3.473e-08
424.42, -3.415e-08
426.43, -3.234e-08
428.43, -3.187e-08
430.43, -3.651e-08
432.43, -3.697e-08
434.43, -3.374e-08
436.44, -3.449e-08
438.44, -3.587e-08
440.44, -3.674e-08
442.44, -3.318e-08
444.44, -3.315e-08
446.45, -3.519e-08
448.45, -4.051e-08
450.45, -3.608e-08
452.45, -3.334e-08
454.45, -3.985e-08
456.46, -3.305e-08
458.46, -3.271e-08
460.46, -3.284e-08
462.46, -3.175e-08
464.46, -3.373e-08
466.47, -3.67e-08
468.47, -3.681e-08
470.47, -3.403e-08
472.47, -3.282e-08
474.47, -3.346e-08
476.48, -3.771e-08
478.48, -3.613e-08
480.48, -3.659e-08
482.48, -3.543e-08
484.48, -3.734e-08
486.49, -3.911e-08
488.49, -3.404e-08
490.49, -3.894e-08
492.49, -3.83e-08
494.49, -3.693e-08
496.5, -3.581e-08
498.5, -3.518e-08
500.5, -3.381e-08
502.5, -3.271e-08
504.5, -3.599e-08
506.51, -3.058e-08
508.51, -3.727e-08
510.51, -3.307e-08
512.51, -3.196e-08
514.51, -3.557e-08
516.52, -3.574e-08
518.52, -3.314e-08
520.52, -3.347e-08
522.52, -3.453e-08
524.52, -3.701e-08
526.53, -3.334e-08
528.53, -3.789e-08
530.53, -3.592e-08
532.53, -3.893e-08
534.53, -3.585e-08
536.54, -3.542e-08
538.54, -3.492e-08
540.54, -3.754e-08
542.54, -3.692e-08
544.54, -3.736e-08
546.55, -3.971e-08
548.55, -3.973e-08
550.55, -3.913e-08
552.55, -3.585e-08
554.55, -3.555e-08
556.56, -3.561e-08
558.56, -3.804e-08
560.56, -3.78e-08
562.56, -3.554e-08
564.56, -3.501e-08
566.57, -3.374e-08
568.57, -3.433e-08
570.57, -3.308e-08
572.57, -3.436e-08
574.57, -3.306e-08
576.58, -3.83e-08
578.58, -3.683e-08
580.58, -3.604e-08
582.58, -3.738e-08
584.58, -4.117e-08
586.59, -4.044e-08
588.59, -3.981e-08
590.59, -3.866e-08
592.59, -3.886e-08
594.59, -3.642e-08
596.6, -3.745e-08
598.6, -3.927e-08
600.6, -4.007e-08
602.6, -3.577e-08
604.6, -3.612e-08
606.61, -3.486e-08
608.61, -3.656e-08
610.61, -3.53e-08
612.61, -3.471e-08
614.61, -3.389e-08
616.62, -3.478e-08
618.62, -3.07e-08
620.62, -3.556e-08
622.62, -3.475e-08
624.62, -3.889e-08
626.63, -3.763e-08
628.63, -3.949e-08
630.63, -3.642e-08
632.63, -3.574e-08
634.63, -3.489e-08
636.64, -3.773e-08
638.64, -3.599e-08
640.64, -3.595e-08
642.64, -3.773e-08
644.64, -4.09e-08
646.65, -3.915e-08
648.65, -4.108e-08
650.65, -3.842e-08
652.65, -3.659e-08
654.65, -4e-08
656.66, -3.999e-08
658.66, -3.975e-08
660.66, -3.765e-08
662.66, -4.108e-08
664.66, -3.985e-08
666.67, -3.856e-08
668.67, -3.982e-08
670.67, -3.844e-08
672.67, -3.878e-08
674.67, -3.528e-08
676.68, -3.692e-08
678.68, -3.9e-08
680.68, -4.238e-08
682.68, -4.167e-08
684.68, -4.076e-08
686.69, -4.011e-08
688.69, -4.351e-08
690.69, -3.958e-08
692.69, -3.829e-08
694.69, -4.18e-08
696.7, -3.932e-08
698.7, -4.101e-08
700.7, -4.083e-08
702.7, -4.051e-08
704.7, -4.181e-08
706.71, -4.068e-08
708.71, -4.037e-08
710.71, -3.919e-08
712.71, -3.717e-08
714.71, -3.992e-08
716.72, -3.781e-08
718.72, -3.816e-08
720.72, -3.654e-08
722.72, -3.826e-08
724.72, -4.19e-08
726.73, -4.354e-08
728.73, -3.964e-08
730.73, -4.128e-08
732.73, -3.726e-08
734.73, -3.978e-08
736.74, -4.248e-08
738.74, -4.105e-08
740.74, -3.929e-08
742.74, -4.285e-08
744.74, -4.303e-08
746.75, -3.974e-08
748.75, -3.906e-08
750.75, -4.304e-08
752.75, -3.941e-08
754.75, -3.652e-08
756.76, -3.849e-08
758.76, -3.817e-08
760.76, -3.953e-08
762.76, -4.154e-08
764.76, -3.731e-08
766.77, -3.843e-08
768.77, -4.145e-08
770.77, -4.217e-08
772.77, -3.996e-08
774.77, -4.02e-08
776.78, -4.108e-08
778.78, -3.84e-08
780.78, -4.158e-08
782.78, -3.672e-08
784.78, -3.802e-08
786.79, -4.059e-08
788.79, -3.737e-08
790.79, -4.247e-08
792.79, -3.686e-08
794.79, -3.742e-08
796.8, -3.911e-08
798.8, -4.318e-08
800.8, -4.005e-08
802.8, -3.813e-08
804.8, -3.944e-08
806.81, -3.793e-08
808.81, -4.067e-08
810.81, -3.913e-08
812.81, -4.058e-08
814.81, -4.298e-08
816.82, -4.042e-08
818.82, -3.781e-08
820.82, -3.865e-08
822.82, -3.572e-08
824.82, -3.636e-08
826.83, -3.939e-08
828.83, -3.751e-08
830.83, -3.678e-08
832.83, -3.891e-08
834.83, -3.912e-08
836.84, -3.918e-08
838.84, -3.875e-08
840.84, -4.293e-08
842.84, -3.995e-08
844.84, -3.801e-08
846.85, -3.834e-08
848.85, -4.014e-08
850.85, -3.956e-08
852.85, -3.981e-08
854.85, -4.013e-08
856.86, -3.712e-08
858.86, -3.78e-08
860.86, -3.953e-08
862.86, -3.883e-08
864.86, -4.009e-08
866.87, -3.842e-08
868.87, -3.998e-08
870.87, -4.063e-08
872.87, -3.836e-08
874.87, -3.805e-08
876.88, -3.856e-08
878.88, -4.191e-08
880.88, -3.808e-08
882.88, -3.558e-08
884.88, -4.121e-08
886.89, -3.978e-08
888.89, -3.67e-08
890.89, -3.712e-08
892.89, -3.655e-08
894.89, -3.407e-08
896.9, -3.879e-08
898.9, -4.002e-08
900.9, -3.628e-08
902.9, -3.478e-08
904.9, -3.748e-08
906.91, -3.387e-08
908.91, -3.701e-08
910.91, -3.741e-08
912.91, -3.918e-08
914.91, -3.63e-08
916.92, -3.524e-08
918.92, -3.524e-08
920.92, -4.004e-08
922.92, -3.994e-08
924.92, -3.853e-08
926.93, -3.917e-08
928.93, -4.261e-08
930.93, -3.942e-08
932.93, -4.094e-08
934.93, -4.053e-08
936.94, -3.728e-08
938.94, -4.089e-08
940.94, -3.837e-08
942.94, -4.36e-08
944.94, -4.246e-08
946.95, -4.04e-08
948.95, -4.231e-08
950.95, -3.829e-08
952.95, -3.946e-08
954.95, -3.749e-08
956.96, -3.811e-08
958.96, -3.884e-08
960.96, -3.998e-08
962.96, -3.413e-08
964.96, -3.838e-08
966.97, -3.549e-08
968.97, -3.566e-08
970.97, -3.442e-08
972.97, -3.5e-08
974.97, -3.637e-08
976.98, -3.918e-08
978.98, -4.033e-08
980.98, -3.488e-08
982.98, -3.58e-08
984.98, -4.111e-08
986.99, -3.732e-08
988.99, -3.497e-08
990.99, -3.416e-08
992.99, -3.33e-08
994.99, -3.699e-08
997.0, -3.36e-08
999.0, -3.59e-08
1001.0, -3.467e-08
1003.0, -3.403e-08
1005.0, -3.784e-08
1007.0, -3.115e-08
1009.0, -3.917e-08
1011.0, -3.712e-08
1013.0, -3.932e-08
1015.0, -3.694e-08
1017.0, -3.918e-08
1019.0, -3.799e-08
1021.0, -3.832e-08
1023.0, -3.875e-08
1025.0, -4.03e-08
1027.0, -3.721e-08
1029.0, -4.042e-08
1031.0, -4.033e-08
1033.0, -3.577e-08
1035.0, -3.707e-08
1037.0, -3.664e-08
1039.0, -3.61e-08
1041.0, -3.457e-08
1043.0, -3.665e-08
1045.0, -3.581e-08
1047.0, -3.968e-08
1049.0, -4.135e-08
1051.0, -3.782e-08
1053.1, -3.571e-08
1055.1, -3.413e-08
1057.1, -3.713e-08
1059.1, -4.079e-08
1061.1, -3.74e-08
1063.1, -3.65e-08
1065.1, -3.783e-08
1067.1, -3.952e-08
1069.1, -3.803e-08
1071.1, -3.449e-08
1073.1, -3.768e-08
1075.1, -3.369e-08
1077.1, -4.262e-08
1079.1, -3.66e-08
1081.1, -3.932e-08
1083.1, -3.729e-08
1085.1, -3.601e-08
1087.1, -3.61e-08
1089.1, -3.818e-08
1091.1, -3.216e-08
1093.1, -3.487e-08
1095.1, -3.363e-08
1097.1, -3.471e-08
1099.1, -3.554e-08
1101.1, -3.441e-08
1103.1, -3.644e-08
1105.1, -3.691e-08
1107.1, -3.643e-08
1109.1, -3.808e-08
1111.1, -3.555e-08
1113.1, 9.3109e-07
1115.1, 1.0868e-06
1117.1, 8.8893e-07
1119.1, 8.6786e-07
1121.1, 9.8322e-07
1123.1, 1.1437e-06
1125.1, 8.0328e-07
1127.1, 1.2751e-06
1129.1, 1.0967e-06
1131.1, 1.1932e-06
1133.1, 7.8046e-07
1135.1, 9.7586e-07
1137.1, 1.2005e-06
1139.1, 1.244e-06
1141.1, 8.8563e-07
1143.1, 8.9778e-07
1145.1, 1.0521e-06
1147.1, 1.1473e-06
1149.1, 1.0015e-06
1151.1, 1.3954e-06
1153.2, 1.2953e-06
1155.2, 1.3888e-06
1157.2, 1.2061e-06
1159.2, 1.3648e-06
1161.2, 1.1331e-06
1163.2, 8.8728e-07
1165.2, 9.2467e-07
1167.2, 7.6059e-07
1169.2, 8.623e-07
1171.2, 7.4212e-07
1173.2, 1.0648e-06
1175.2, 1.3535e-06
1177.2, 7.2476e-07
1179.2, 1.1192e-06
1181.2, 1.1409e-06
1183.2, 1.2153e-06
1185.2, 1.015e-06
1187.2, 1.3319e-06
1189.2, 9.147e-07
1191.2, 1.1774e-06
1193.2, 8.9176e-07
1195.2, 9.9855e-07
1197.2, 7.5491e-07
1199.2, 1.1495e-06
1201.2, 1.2276e-06
1203.2, 1.3445e-06
1205.2, 1.1631e-06
1207.2, 9.8778e-07
1209.2, 1.5499e-06
1211.2, 1.2482e-06
1213.2, 1.2671e-06
1215.2, 1.1439e-06
1217.2, 8.6304e-07
1219.2, 1.3783e-06
1221.2, 1.2081e-06
1223.2, 1.2513e-06
1225.2, 1.0546e-06
1227.2, 8.7692e-07
1229.2, 1.2421e-06
1231.2, 1.0074e-06
1233.2, 1.1197e-06
1235.2, 1.305e-06
1237.2, 1.2702e-06
1239.2, 1.0113e-06
1241.2, 1.274e-06
1243.2, 1.4423e-06
1245.2, 1.0685e-06
1247.2, 9.8567e-07
1249.2, 1.1018e-06
1251.2, 1.4269e-06
1253.3, 1.3035e-06
1255.3, 1.4444e-06
1257.3, 1.1601e-06
1259.3, 1.2687e-06
1261.3, 1.6024e-06
1263.3, 1.1666e-06
1265.3, 1.2014e-06
1267.3, 1.2996e-06
1269.3, 1.3561e-06
1271.3, 1.5345e-06
1273.3, 1.2148e-06
1275.3, 1.3855e-06
1277.3, 9.9527e-07
1279.3, 1.5217e-06
1281.3, 1.08e-06
1283.3, 1.449e-06
1285.3, 9.305e-07
1287.3, 1.0958e-06
1289.3, 1.3074e-06
1291.3, 1.1826e-06
1293.3, 1.4054e-06
1295.3, 1.2736e-06
1297.3, 1.2465e-06
1299.3, 1.0037e-06
1301.3, 8.5308e-07
1303.3, 1.2844e-06
1305.3, 1.2674e-06
1307.3, 1.249e-06
1309.3, 1.3988e-06
1311.3, 1.6068e-06
1313.3, 1.3172e-06
1315.3, 1.5309e-06
1317.3, 1.2255e-06
1319.3, 1.6198e-06
1321.3, 1.3197e-06
1323.3, 1.1932e-06
1325.3, 1.1277e-06
1327.3, 1.191e-06
1329.3, 1.5361e-06
1331.3, 1.3006e-06
1333.3, 1.2077e-06
1335.3, 1.0534e-06
1337.3, 9.7067e-07
1339.3, 1.1395e-06
1341.3, 1.0965e-06
1343.3, 1.1897e-06
1345.3, 1.1117e-06
1347.3, 1.1943e-06
1349.3, 1.6113e-06
1351.3, 1.263e-06
1353.4, 1.6546e-06
1355.4, 1.5406e-06
1357.4, 1.1249e-06
1359.4, 1.3609e-06
1361.4, 1.6612e-06
1363.4, 1.4601e-06
1365.4, 1.18e-06
1367.4, 1.0517e-06
1369.4, 1.4284e-06
1371.4, 1.4218e-06
1373.4, 1.5949e-06
1375.4, 1.6143e-06
1377.4, 1.3712e-06
1379.4, 1.2689e-06
1381.4, 1.4869e-06
1383.4, 1.3705e-06
1385.4, 1.074e-06
1387.4, 1.477e-06
1389.4, 1.5535e-06
1391.4, 1.228e-06
1393.4, 1.5111e-06
1395.4, 9.9292e-07
1397.4, 1.5374e-06
1399.4, 1.2146e-06
1401.4, 1.3989e-06
1403.4, 1.2334e-06
1405.4, 1.5477e-06
1407.4, 1.3055e-06
1409.4, 1.2658e-06
1411.4, 1.6715e-06
1413.4, 1.7517e-06
1415.4, 1.1989e-06
1417.4, 1.3109e-06
1419.4, 1.4875e-06
1421.4, 1.5165e-06
1423.4, 1.4709e-06
1425.4, 1.5375e-06
1427.4, 1.1899e-06
1429.4, 1.1242e-06
1431.4, 1.1806e-06
1433.4, 1.2736e-06
1435.4, 1.4505e-06
1437.4, 1.2681e-06
1439.4, 1.6667e-06
1441.4, 1.3426e-06
1443.4, 1.2782e-06
1445.4, 1.0123e-06
1447.4, 1.4697e-06
1449.4, 1.1866e-06
1451.4, 1.1044e-06
1453.5, 1.1497e-06
1455.5, 1.3754e-06
1457.5, 1.6286e-06
1459.5, 1.4024e-06
1461.5, 1.7222e-06
1463.5, 9.4371e-07
1465.5, 1.6459e-06
1467.5, 1.0192e-06
1469.5, 1.5248e-06
1471.5, 1.2592e-06
1473.5, 1.1404e-06
1475.5, 1.0514e-06
1477.5, 1.529e-06
1479.5, 1.6972e-06
1481.5, 1.1159e-06
1483.5, 1.5891e-06
1485.5, 1.8343e-06
1487.5, 1.3589e-06
1489.5, 1.4951e-06
1491.5, 1.3792e-06
1493.5, 1.0315e-06
1495.5, 1.2864e-06
1497.5, 1.4696e-06
1499.5, 1.4448e-06
1501.5, 1.5831e-06
1503.5, 1.3113e-06
1505.5, 1.7083e-06
1507.5, 1.2752e-06
1509.5, 9.7947e-07
1511.5, 1.1453e-06
1513.5, 1.1741e-06
1515.5, 1.2925e-06
1517.5, 1.4587e-06
1519.5, 1.5661e-06
1521.5, 1.3348e-06
1523.5, 1.1452e-06
1525.5, 1.4511e-06
1527.5, 1.1199e-06
1529.5, 1.4516e-06
1531.5, 1.2459e-06
1533.5, 1.535e-06
1535.5, 1.3983e-06
1537.5, 1.3042e-06
1539.5, 1.308e-06
1541.5, 1.3305e-06
1543.5, 1.3898e-06
1545.5, 1.3766e-06
1547.5, 1.5341e-06
1549.5, 1.0593e-06
1551.5, 1.0582e-06
1553.6, 1.3799e-06
1555.6, 1.2397e-06
1557.6, 1.3111e-06
1559.6, 1.2397e-06
1561.6, 1.8968e-06
1563.6, 1.4583e-06
1565.6, 1.1525e-06
1567.6, 1.4456e-06
1569.6, 1.3852e-06
1571.6, 1.3453e-06
1573.6, 1.4917e-06
1575.6, 1.2356e-06
1577.6, 1.5431e-06
1579.6, 9.3517e-07
1581.6, 1.4449e-06
1583.6, 1.1906e-06
1585.6, 1.6197e-06
1587.6, 1.3545e-06
1589.6, 1.2501e-06
1591.6, 9.4407e-07
1593.6, 1.6833e-06
1595.6, 1.5314e-06
1597.6, 1.3611e-06
1599.6, 1.0408e-06
1601.6, 1.2484e-06
1603.6, 1.9669e-06
1605.6, 1.6651e-06
1607.6, 1.2311e-06
1609.6, 1.5056e-06
1611.6, 1.4575e-06
1613.6, 1.5374e-06
1615.6, 1.8221e-06
1617.6, 1.2686e-06
1619.6, 1.4484e-06
1621.6, 1.156e-06
1623.6, 1.7699e-06
1625.6, 1.3258e-06
1627.6, 1.4525e-06
1629.6, 1.6108e-06
1631.6, 1.6109e-06
1633.6, 1.3063e-06
1635.6, 1.3348e-06
1637.6, 1.5008e-06
1639.6, 1.4005e-06
1641.6, 1.5737e-06
1643.6, 1.3951e-06
1645.6, 1.6114e-06
1647.6, 1.2034e-06
1649.6, 1.2449e-06
1651.6, 1.113e-06
1653.7, 1.2396e-06
1655.7, 1.4964e-06
1657.7, 1.274e-06
1659.7, 1.1645e-06
1661.7, 1.1457e-06
1663.7, 1.7329e-06
1665.7, 1.5328e-06
1667.7, 1.0175e-06
1669.7, 1.519e-06
1671.7, 1.2398e-06
1673.7, 1.5563e-06
1675.7, 1.7291e-06
1677.7, 1.7764e-06
1679.7, 1.3361e-06
1681.7, 1.3579e-06
1683.7, 1.2161e-06
1685.7, 1.0382e-06
1687.7, 8.967e-07
1689.7, 1.3801e-06
1691.7, 1.5044e-06
1693.7, 1.3547e-06
1695.7, 1.5112e-06
1697.7, 1.3435e-06
1699.7, 1.667e-06
1701.7, 1.1757e-06
1703.7, 1.1195e-06
1705.7, 1.1409e-06
1707.7, 1.1964e-06
1709.7, 1.4143e-06
1711.7, 1.4031e-06
1713.7, 1.2747e-06
1715.7, 1.5413e-06
1717.7, 1.3298e-06
1719.7, 1.4259e-06
1721.7, 1.3349e-06
1723.7, 1.2186e-06
1725.7, 1.3339e-06
1727.7, 1.2665e-06
1729.7, 1.5115e-06
1731.7, 1.3476e-06
1733.7, 1.503e-06
1735.7, 1.0361e-06
1737.7, 1.2511e-06
1739.7, 1.4854e-06
1741.7, 1.1124e-06
1743.7, 1.3865e-06
1745.7, 1.3222e-06
1747.7, 1.1846e-06
1749.7, 1.2131e-06
1751.7, 1.5794e-06
1753.8, 1.3975e-06
1755.8, 1.1667e-06
1757.8, 1.2243e-06
1759.8, 1.7101e-06
1761.8, 1.9175e-06
1763.8, 1.3459e-06
1765.8, 1.3855e-06
1767.8, 1.6149e-06
1769.8, 1.6052e-06
1771.8, 1.3974e-06
1773.8, 1.4708e-06
1775.8, 1.3042e-06
1777.8, 1.3923e-06
1779.8, 1.2847e-06
1781.8, 1.405e-06
1783.8, 1.1455e-06
1785.8, 1.2577e-06
1787.8, 1.2928e-06
1789.8, 1.4905e-06
1791.8, 1.5233e-06
1793.8, 1.2967e-06
1795.8, 1.3023e-06
1797.8, 1.4439e-06
1799.8, 1.5273e-06
1801.8, 1.3523e-06
1803.8, 1.691e-06
1805.8, 1.4523e-06
1807.8, 1.3543e-06
1809.8, 1.3392e-06
1811.8, 1.5162e-06
1813.8, 1.8947e-06
1815.8, 1.411e-06
1817.8, 1.3529e-06
1819.8, 1.3195e-06
1821.8, 1.4328e-06
1823.8, 1.5753e-06
1825.8, 1.5145e-06
1827.8, 1.304e-06
1829.8, 1.3108e-06
1831.8, 1.1281e-06
1833.8, 1.6292e-06
1835.8, 1.6128e-06
1837.8, 1.4842e-06
1839.8, 1.3035e-06
1841.8, 1.5169e-06
1843.8, 9.587e-07
1845.8, 1.6066e-06
1847.8, 1.8297e-06
1849.8, 1.1471e-06
1851.8, 1.2464e-06
1853.9, 1.236e-06
1855.9, 1.1949e-06
1857.9, 1.6051e-06
1859.9, 1.0966e-06
1861.9, 1.2016e-06
1863.9, 1.4541e-06
1865.9, 1.6499e-06
1867.9, 1.4672e-06
1869.9, 1.3482e-06
1871.9, 1.6435e-06
1873.9, 1.4564e-06
1875.9, 1.6796e-06
1877.9, 1.2146e-06
1879.9, 1.4182e-06
1881.9, 1.5076e-06
1883.9, 1.3765e-06
1885.9, 1.4338e-06
1887.9, 1.3113e-06
1889.9, 1.1428e-06
1891.9, 1.1431e-06
1893.9, 1.4456e-06
1895.9, 1.7444e-06
1897.9, 1.4061e-06
1899.9, 1.5242e-06
1901.9, 1.2136e-06
1903.9, 1.1251e-06
1905.9, 1.4881e-06
1907.9, 1.3901e-06
1909.9, 1.419e-06
1911.9, 1.0817e-06
1913.9, 1.2725e-06
1915.9, 1.7342e-06
1917.9, 1.0941e-06
1919.9, 1.4253e-06
1921.9, 1.6503e-06
1923.9, 1.381e-06
1925.9, 1.2636e-06
1927.9, 1.123e-06
1929.9, 1.6209e-06
1931.9, 1.4897e-06
1933.9, 1.6185e-06
1935.9, 1.3932e-06
1937.9, 1.5972e-06
1939.9, 1.3178e-06
1941.9, 1.5339e-06
1943.9, 1.4143e-06
1945.9, 1.5038e-06
1947.9, 1.6136e-06
1949.9, 1.359e-06
1951.9, 1.5558e-06
1954.0, 1.4904e-06
1956.0, 1.5439e-06
1958.0, 1.5816e-06
1960.0, 1.5739e-06
1962.0, 1.0211e-06
1964.0, 1.613e-06
1966.0, 1.4091e-06
1968.0, 1.423e-06
1970.0, 1.0544e-06
1972.0, 1.4686e-06
1974.0, 1.4155e-06
1976.0, 1.3837e-06
1978.0, 1.3528e-06
1980.0, 1.4596e-06
1982.0, 1.6238e-06
1984.0, 1.2787e-06
1986.0, 1.561e-06
1988.0, 1.1875e-06
1990.0, 1.5954e-06
1992.0, 1.399e-06
1994.0, 1.412e-06
1996.0, 1.4347e-06
1998.0, 1.3913e-06
2000.0, 1.1748e-06
2002.0, 1.5962e-06
2004.0, 1.3168e-06
2006.0, 1.6217e-06
2008.0, 1.365e-06
2010.0, 1.7941e-06
2012.0, 1.0929e-06
2014.0, 1.1939e-06
2016.0, 1.2945e-06
2018.0, 1.5386e-06
2020.0, 1.4123e-06
2022.0, 1.4644e-06
2024.0, 1.4571e-06
2026.0, 1.2602e-06
2028.0, 1.5061e-06
2030.0, 1.5399e-06
2032.0, 9.9841e-07
2034.0, 1.4176e-06
2036.0, 1.4277e-06
2038.0, 1.2297e-06
2040.0, 1.4674e-06
2042.0, 1.5613e-06
2044.0, 1.5711e-06
2046.0, 1.1438e-06
2048.0, 1.1828e-06
2050.0, 1.1244e-06
2052.0, 1.3549e-06
2054.1, 1.4994e-06
2056.1, 1.7992e-06
2058.1, 1.2476e-06
2060.1, 1.1651e-06
2062.1, 1.4681e-06
2064.1, 1.2114e-06
2066.1, 1.545e-06
2068.1, 1.4997e-06
2070.1, 1.3933e-06
2072.1, 1.6963e-06
2074.1, 1.3031e-06
2076.1, 1.1942e-06
2078.1, 1.536e-06
2080.1, 1.4204e-06
2082.1, 1.3526e-06
2084.1, 1.5414e-06
2086.1, 1.4782e-06
2088.1, 1.4886e-06
2090.1, 1.1467e-06
2092.1, 1.2124e-06
2094.1, 1.3011e-06
2096.1, 1.2975e-06
2098.1, 1.3617e-06
2100.1, 1.0227e-06
2102.1, 1.547e-06
2104.1, 1.3134e-06
2106.1, 1.337e-06
2108.1, 1.5058e-06
2110.1, 1.2651e-06
2112.1, 1.3552e-06
2114.1, 5.4866e-07
2116.1, -3.871e-08
2118.1, -4.307e-08
2120.1, -4.22e-08
2122.1, -4.242e-08
2124.1, -3.503e-08
2126.1, -3.872e-08
2128.1, -4.032e-08
2130.1, -3.913e-08
2132.1, -3.946e-08
2134.1, -4.014e-08
2136.1, -4.049e-08
2138.1, -4.655e-08
2140.1, -4.255e-08
2142.1, -4.223e-08
2144.1, -3.736e-08
2146.1, -4.054e-08
2148.1, -3.901e-08
2150.1, -3.892e-08
2152.1, -3.843e-08
2154.2, -4.046e-08
2156.2, -3.928e-08
2158.2, -4.211e-08
2160.2, -4.397e-08
2162.2, -4.274e-08
2164.2, -4.32e-08
2166.2, -4.307e-08
2168.2, -4.197e-08
2170.2, -4.317e-08
2172.2, -3.867e-08
2174.2, -4.032e-08
2176.2, -4.025e-08
2178.2, -4.167e-08
2180.2, -3.833e-08
2182.2, -4.094e-08
2184.2, -4.627e-08
2186.2, -4.25e-08
2188.2, -4.502e-08
2190.2, -4.526e-08
2192.2, -4.156e-08
2194.2, -4.153e-08
2196.2, -3.746e-08
2198.2, -3.982e-08
2200.2, -3.444e-08
2202.2, -3.774e-08
2204.2, -4.074e-08
2206.2, -4.031e-08
2208.2, -4.029e-08
2210.2, -4.265e-08
2212.2, -4.152e-08
2214.2, -4.001e-08
2216.2, -4.275e-08
2218.2, -4.068e-08
2220.2, -4.316e-08
2222.2, -4.414e-08
2224.2, -4.192e-08
2226.2, -4.191e-08
2228.2, -4.215e-08
2230.2, -4.195e-08
2232.2, -4.322e-08
2234.2, -3.727e-08
2236.2, -4.096e-08
2238.2, -4.115e-08
2240.2, -3.552e-08
2242.2, -4.265e-08
2244.2, -4.394e-08
2246.2, -4.049e-08
2248.2, -4.016e-08
2250.2, -3.619e-08
2252.2, -3.8e-08
2254.3, -3.999e-08
2256.3, -4.029e-08
2258.3, -4.047e-08
2260.3, -3.829e-08
2262.3, -4.349e-08
2264.3, -4.078e-08
2266.3, -4.26e-08
2268.3, -4.415e-08
2270.3, -4e-08
2272.3, -4.015e-08
2274.3, -3.747e-08
2276.3, -3.822e-08
2278.3, -4.087e-08
2280.3, -3.906e-08
2282.3, -3.975e-08
2284.3, -3.931e-08
2286.3, -3.614e-08
2288.3, -4.252e-08
2290.3, -3.425e-08
2292.3, -3.69e-08
2294.3, -4.188e-08
2296.3, -3.623e-08
2298.3, -3.748e-08
2300.3, -4.067e-08
2302.3, -4.093e-08
2304.3, -3.873e-08
2306.3, -4.381e-08
2308.3, -4.404e-08
2310.3, -3.935e-08
2312.3, -4.128e-08
2314.3, -4.099e-08
2316.3, -4.136e-08
2318.3, -3.985e-08
2320.3, -4.264e-08
2322.3, -4.328e-08
2324.3, -4.053e-08
2326.3, -4.344e-08
2328.3, -3.956e-08
2330.3, -4.035e-08
2332.3, -4.132e-08
2334.3, -4.03e-08
2336.3, -3.883e-08
2338.3, -4.101e-08
2340.3, -4.258e-08
2342.3, -4.233e-08
2344.3, -3.837e-08
2346.3, -3.763e-08
2348.3, -3.949e-08
2350.3, -4.421e-08
2352.3, -4.223e-08
2354.4, -4.504e-08
2356.4, -4.347e-08
2358.4, -4.295e-08
2360.4, -3.732e-08
2362.4, -3.894e-08
2364.4, -4.157e-08
2366.4, -3.74e-08
2368.4, -4.118e-08
2370.4, -4.071e-08
2372.4, -4.117e-08
2374.4, -3.823e-08
2376.4, -4.18e-08
2378.4, -3.963e-08
2380.4, -3.639e-08
2382.4, -3.978e-08
2384.4, -3.921e-08
2386.4, -4.136e-08
2388.4, -3.965e-08
2390.4, -4.026e-08
2392.4, -3.932e-08
2394.4, -4.07e-08
2396.4, -3.951e-08
2398.4, -4.261e-08
2400.4, -4.121e-08
2402.4, -3.954e-08
2404.4, -3.922e-08
2406.4, -3.979e-08
2408.4, -3.836e-08
2410.4, -4.319e-08
2412.4, -3.689e-08
2414.4, -3.422e-08
2416.4, -3.853e-08
2418.4, -3.85e-08
2420.4, -4.277e-08
2422.4, -4.235e-08
2424.4, -4.359e-08
2426.4, -4.383e-08
2428.4, -3.926e-08
2430.4, -3.816e-08
2432.4, -3.817e-08
2434.4, -3.674e-08
2436.4, -3.821e-08
2438.4, -3.756e-08
2440.4, -3.825e-08
2442.4, -4.012e-08
2444.4, -4.203e-08
2446.4, -4.231e-08
2448.4, -4.002e-08
2450.4, -3.916e-08
2452.4, -3.55e-08
2454.5, -3.854e-08
2456.5, -4.157e-08
2458.5, -3.742e-08
2460.5, -4.054e-08
2462.5, -3.769e-08
2464.5, -3.914e-08
2466.5, -3.678e-08
2468.5, -4.077e-08
2470.5, -4.139e-08
2472.5, -3.912e-08
2474.5, -3.793e-08
2476.5, -3.968e-08
2478.5, -4.105e-08
2480.5, -3.718e-08
2482.5, -3.93e-08
2484.5, -3.981e-08
2486.5, -3.963e-08
2488.5, -3.955e-08
2490.5, -3.683e-08
2492.5, -3.479e-08
2494.5, -3.817e-08
2496.5, -3.618e-08
2498.5, -3.998e-08
2500.5, -3.821e-08
2502.5, -3.822e-08
2504.5, -3.478e-08
2506.5, -3.63e-08
2508.5, -3.955e-08
2510.5, -3.761e-08
2512.5, -3.759e-08
2514.5, -3.646e-08
2516.5, -3.946e-08
2518.5, -4.053e-08
2520.5, -3.998e-08
2522.5, -3.589e-08
2524.5, -3.74e-08
2526.5, -3.773e-08
2528.5, -3.8e-08
2530.5, -3.816e-08
2532.5, -3.662e-08
2534.5, -3.724e-08
2536.5, -3.85e-08
2538.5, -3.757e-08
2540.5, -3.769e-08
2542.5, -3.815e-08
2544.5, -3.569e-08
2546.5, -3.578e-08
2548.5, -3.688e-08
2550.5, -3.864e-08
2552.5, -3.742e-08
2554.6, -3.88e-08
2556.6, -3.805e-08
2558.6, -4.106e-08
2560.6, -3.876e-08
2562.6, -3.228e-08
2564.6, -3.368e-08
2566.6, -3.459e-08
2568.6, -3.869e-08
2570.6, -3.31e-08
2572.6, -3.489e-08
2574.6, -3.638e-08
2576.6, -3.734e-08
2578.6, -3.679e-08
2580.6, -3.291e-08
2582.6, -3.246e-08
2584.6, -3.407e-08
2586.6, -3.463e-08
2588.6, -3.87e-08
2590.6, -3.65e-08
2592.6, -3.21e-08
2594.6, -3.526e-08
2596.6, -3.434e-08
2598.6, -3.095e-08
2600.6, -3.381e-08
2602.6, -3.454e-08
2604.6, -3.576e-08
2606.6, -3.306e-08
2608.6, -3.508e-08
2610.6, -3.315e-08
2612.6, -3.615e-08
2614.6, -3.757e-08
2616.6, -3.717e-08
2618.6, -3.667e-08
2620.6, -3.962e-08
2622.6, -3.806e-08
2624.6, -3.737e-08
2626.6, -3.647e-08
2628.6, -3.498e-08
2630.6, -3.897e-08
2632.6, -3.863e-08
2634.6, -4.019e-08
2636.6, -4.01e-08
2638.6, -3.793e-08
2640.6, -3.744e-08
2642.6, -3.69e-08
2644.6, -3.879e-08
2646.6, -3.994e-08
2648.6, -3.991e-08
2650.6, -4.002e-08
2652.6, -3.543e-08
2654.7, -4.218e-08
2656.7, -3.941e-08
2658.7, -3.914e-08
2660.7, -3.901e-08
2662.7, -4.038e-08
2664.7, -3.874e-08
2666.7, -4.135e-08
2668.7, -3.964e-08
2670.7, -4.146e-08
2672.7, -3.795e-08
2674.7, -3.66e-08
2676.7, -4.007e-08
2678.7, -4.159e-08
2680.7, -4.293e-08
2682.7, -4.226e-08
2684.7, -3.927e-08
2686.7, -3.719e-08
2688.7, -3.878e-08
2690.7, -3.713e-08
2692.7, -3.487e-08
2694.7, -3.779e-08
2696.7, -3.566e-08
2698.7, -3.889e-08
2700.7, -3.702e-08
2702.7, -4.149e-08
2704.7, -3.748e-08
2706.7, -4.379e-08
2708.7, -4.006e-08
2710.7, -4.417e-08
2712.7, -4.031e-08
2714.7, -3.988e-08
2716.7, -3.859e-08
2718.7, -3.758e-08
2720.7, -3.837e-08
2722.7, -3.932e-08
2724.7, -3.975e-08
2726.7, -3.96e-08
2728.7, -4.402e-08
2730.7, -4.031e-08
2732.7, -3.868e-08
2734.7, -3.98e-08
2736.7, -4.112e-08
2738.7, -4.09e-08
2740.7, -3.823e-08
2742.7, -3.588e-08
2744.7, -3.529e-08
2746.7, -3.965e-08
2748.7, -3.894e-08
2750.7, -4.257e-08
2752.7, -4.092e-08
2754.8, -3.957e-08
2756.8, -4.463e-08
2758.8, -4.109e-08
2760.8, -3.825e-08
2762.8, -3.859e-08
2764.8, -4.199e-08
2766.8, -4.026e-08
2768.8, -3.947e-08
2770.8, -4e-08
2772.8, -4.007e-08
2774.8, -4.186e-08
2776.8, -3.956e-08
2778.8, -4.442e-08
2780.8, -3.719e-08
2782.8, -3.771e-08
2784.8, -4.178e-08
2786.8, -3.745e-08
2788.8, -3.505e-08
2790.8, -3.506e-08
2792.8, -3.752e-08
2794.8, -3.52e-08
2796.8, -4.267e-08
2798.8, -3.597e-08
2800.8, -3.92e-08
2802.8, -4.115e-08
2804.8, -3.996e-08
2806.8, -4.208e-08
2808.8, -3.874e-08
2810.8, -4.081e-08
2812.8, -3.594e-08
2814.8, -4.382e-08
2816.8, -4.063e-08
2818.8, -3.835e-08
2820.8, -4.07e-08
2822.8, -3.67e-08
2824.8, -4.115e-08
2826.8, -3.787e-08
2828.8, -3.806e-08
2830.8, -4.054e-08
2832.8, -3.43e-08
2834.8, -3.578e-08
2836.8, -3.96e-08
2838.8, -3.943e-08
2840.8, -3.761e-08
2842.8, -3.778e-08
2844.8, -4.081e-08
2846.8, -4.06e-08
2848.8, -3.9e-08
2850.8, -3.883e-08
2852.8, -3.958e-08
2854.9, -4.16e-08
2856.9, -3.765e-08
2858.9, -4.106e-08
2860.9, -4.31e-08
2862.9, -4.103e-08
2864.9, -4.31e-08
2866.9, -4.128e-08
2868.9, -3.881e-08
2870.9, -3.665e-08
2872.9, -3.511e-08
2874.9, -4.058e-08
2876.9, -3.859e-08
2878.9, -3.618e-08
2880.9, -3.831e-08
2882.9, -3.452e-08
2884.9, -3.604e-08
2886.9, -3.876e-08
2888.9, -4.286e-08
2890.9, -4.154e-08
2892.9, -4.056e-08
2894.9, -3.976e-08
2896.9, -3.933e-08
2898.9, -3.832e-08
2900.9, -3.863e-08
2902.9, -4.197e-08
2904.9, -4.232e-08
2906.9, -3.912e-08
2908.9, -4.675e-08
2910.9, -4.435e-08
2912.9, -4.544e-08
2914.9, -4.121e-08
2916.9, -4.606e-08
2918.9, -4.32e-08
2920.9, -4.059e-08
2922.9, -4.12e-08
2924.9, -4.035e-08
2926.9, -4.248e-08
2928.9, -4.199e-08
2930.9, -4.064e-08
2932.9, -3.778e-08
2934.9, -4.159e-08
2936.9, -3.944e-08
2938.9, -3.699e-08
2940.9, -3.768e-08
2942.9, -3.986e-08
2944.9, -4.209e-08
2946.9, -4.781e-08
2948.9, -4.527e-08
2950.9, -4.212e-08
2952.9, -3.96e-08
2955.0, -4.217e-08
2957.0, -4.4e-08
2959.0, -4.141e-08
2961.0, -4.377e-08
2963.0, -4.148e-08
2965.0, -3.774e-08
2967.0, -3.9e-08
2969.0, -3.784e-08
2971.0, -3.625e-08
2973.0, -3.722e-08
2975.0, -4.412e-08
2977.0, -3.972e-08
2979.0, -3.892e-08
2981.0, -3.699e-08
2983.0, -3.499e-08
2985.0, -3.889e-08
2987.0, -3.972e-08
2989.0, -4.144e-08
2991.0, -4.274e-08
2993.0, -4.362e-08
2995.0, -4.215e-08
2997.0, -4.166e-08
2999.0, -4.134e-08
3001.0, -3.898e-08
3003.0, -4.016e-08
3005.0, -4.107e-08
3007.0, -4.261e-08
3009.0, -4.101e-08
3011.0, -4.199e-08
3013.0, -4.084e-08
3015.0, -4.377e-08
3017.0, -4.357e-08
3019.0, -4.477e-08
3021.0, -4.282e-08
3023.0, -4.325e-08
3025.0, -3.9e-08
3027.0, -4.218e-08
3029.0, -3.892e-08
3031.0, -3.306e-08
3033.0, -3.778e-08
3035.0, -3.994e-08
3037.0, -4.574e-08
3039.0, -3.916e-08
3041.0, -4.004e-08
3043.0, -4.032e-08
3045.0, -4.248e-08
3047.0, -4.251e-08
3049.0, -4.085e-08
3051.0, -4.275e-08
3053.0, -4.354e-08
3055.1, -4.113e-08
3057.1, -4.035e-08
3059.1, -4.022e-08
3061.1, -3.924e-08
3063.1, -3.773e-08
3065.1, -3.976e-08
3067.1, -4.111e-08
3069.1, -3.942e-08
3071.1, -3.814e-08
3073.1, -3.956e-08
3075.1, -4.005e-08
3077.1, -4.179e-08
3079.1, -4.06e-08
3081.1, -4.311e-08
3083.1, -4.166e-08
3085.1, -4.12e-08
3087.1, -4.325e-08
3089.1, -4.483e-08
3091.1, -3.733e-08
3093.1, -3.791e-08
3095.1, -4.018e-08
3097.1, -4.048e-08
3099.1, -4.051e-08
3101.1, -4.102e-08
3103.1, -4.262e-08
3105.1, -4.141e-08
3107.1, -3.953e-08
3109.1, -4.246e-08
3111.1, -4.069e-08
3113.1, -4.106e-08
3115.1, -3.751e-08
3117.1, -3.559e-08
3119.1, -3.612e-08
3121.1, -3.856e-08
3123.1, -3.927e-08
3125.1, -4.004e-08
3127.1, -3.877e-08
3129.1, -4.022e-08
3131.1, -4.298e-08
3133.1, -4.162e-08
3135.1, -4.356e-08
3137.1, -4.135e-08
3139.1, -4.021e-08
3141.1, -3.964e-08
3143.1, -3.971e-08
3145.1, -3.843e-08
3147.1, -4.36e-08
3149.1, -4.201e-08
3151.1, -4.252e-08
3153.1, -3.563e-08
3155.2, -4.002e-08
3157.2, -3.761e-08
3159.2, -3.894e-08
3161.2, -4.013e-08
3163.2, -3.793e-08
3165.2, -3.831e-08
3167.2, -4.017e-08
3169.2, -3.682e-08
3171.2, -4.215e-08
3173.2, -4.051e-08
3175.2, -3.792e-08
3177.2, -3.628e-08
3179.2, -3.665e-08
3181.2, -3.645e-08
3183.2, -3.838e-08
3185.2, -3.714e-08
3187.2, -4.108e-08
3189.2, -4.032e-08
3191.2, -4.03e-08
3193.2, -4.008e-08
3195.2, -4.273e-08
3197.2, -4.079e-08
3199.2, -4.332e-08
3201.2, -3.93e-08
3203.2, -4.404e-08
3205.2, -4.283e-08
3207.2, -4.265e-08
3209.2, -4.126e-08
3211.2, -3.672e-08
3213.2, -3.819e-08
3215.2, -4.265e-08
3217.2, -3.751e-08
3219.2, -3.843e-08
3221.2, -4.063e-08
3223.2, -3.717e-08
3225.2, -3.905e-08
3227.2, 1.0543e-06
3229.2, 7.7523e-07
3231.2, 1.0797e-06
3233.2, 9.1671e-07
3235.2, 1.0697e-06
3237.2, 1.0941e-06
3239.2, 1.185e-06
3241.2, 1.0256e-06
3243.2, 1.0142e-06
3245.2, 1.0123e-06
3247.2, 1.1016e-06
3249.2, 9.5166e-07
3251.2, 9.0675e-07
3253.2, 9.9808e-07
3255.3, 1.0989e-06
3257.3, 8.4772e-07
3259.3, 1.1663e-06
3261.3, 1.0182e-06
3263.3, 7.3727e-07
3265.3, 9.9147e-07
3267.3, 9.7844e-07
3269.3, 9.1724e-07
3271.3, 9.881e-07
3273.3, 1.3348e-06
3275.3, 1.2067e-06
3277.3, 9.2224e-07
3279.3, 1.205e-06
3281.3, 1.1196e-06
3283.3, 1.098e-06
3285.3, 9.3057e-07
3287.3, 1.1686e-06
3289.3, 1.2117e-06
3291.3, 1.0382e-06
3293.3, 1.1092e-06
3295.3, 1.2708e-06
3297.3, 1.2791e-06
3299.3, 1.0153e-06
3301.3, 1.0516e-06
3303.3, 9.7546e-07
3305.3, 8.4303e-07
3307.3, 9.877e-07
3309.3, 1.1622e-06
3311.3, 1.008e-06
3313.3, 1.1131e-06
3315.3, 1.281e-06
3317.3, 9.3386e-07
3319.3, 1.1603e-06
3321.3, 1.1077e-06
3323.3, 1.13e-06
3325.3, 1.0904e-06
3327.3, 1.3057e-06
3329.3, 1.2815e-06
3331.3, 1.1e-06
3333.3, 1.1419e-06
3335.3, 1.366e-06
3337.3, 1.3884e-06
3339.3, 1.3164e-06
3341.3, 1.2824e-06
3343.3, 1.078e-06
3345.3, 1.3032e-06
3347.3, 1.0894e-06
3349.3, 9.2125e-07
3351.3, 9.7568e-07
3353.3, 1.0146e-06
3355.4, 1.1e-06
3357.4, 1.1005e-06
3359.4, 1.0586e-06
3361.4, 1.3048e-06
3363.4, 1.232e-06
3365.4, 1.0284e-06
3367.4, 1.2022e-06
3369.4, 1.3015e-06
3371.4, 1.1232e-06
3373.4, 1.2087e-06
3375.4, 1.4137e-06
3377.4, 1.0725e-06
3379.4, 1.1703e-06
3381.4, 1.0849e-06
3383.4, 1.2063e-06
3385.4, 1.2432e-06
3387.4, 1.0007e-06
3389.4, 1.2132e-06
3391.4, 1.2851e-06
3393.4, 1.3239e-06
3395.4, 9.043e-07
3397.4, 1.0133e-06
3399.4, 1.151e-06
3401.4, 1.4009e-06
3403.4, 1.1675e-06
3405.4, 1.2745e-06
3407.4, 1.2107e-06
3409.4, 1.2734e-06
3411.4, 1.0525e-06
3413.4, 8.6186e-07
3415.4, 1.3329e-06
3417.4, 1.2196e-06
3419.4, 1.4103e-06
3421.4, 1.4639e-06
3423.4, 1.3522e-06
3425.4, 8.7965e-07
3427.4, 1.5006e-06
3429.4, 1.2025e-06
3431.4, 8.2922e-07
3433.4, 1.179e-06
3435.4, 8.622e-07
3437.4, 1.5406e-06
3439.4, 1.2348e-06
3441.4, 1.2068e-06
3443.4, 9.8978e-07
3445.4, 1.2638e-06
3447.4, 1.4583e-06
3449.4, 9.5196e-07
3451.4, 1.3098e-06
3453.4, 1.5634e-06
3455.5, 1.4533e-06
3457.5, 1.4866e-06
3459.5, 1.2034e-06
3461.5, 1.2861e-06
3463.5, 1.1567e-06
3465.5, 1.248e-06
3467.5, 1.4031e-06
3469.5, 1.158e-06
3471.5, 1.288e-06
3473.5, 1.2907e-06
3475.5, 9.9312e-07
3477.5, 1.2072e-06
3479.5, 1.0823e-06
3481.5, 1.3471e-06
3483.5, 1.2751e-06
3485.5, 1.3957e-06
3487.5, 1.4342e-06
3489.5, 1.2636e-06
3491.5, 1.6486e-06
3493.5, 1.4911e-06
3495.5, 1.2766e-06
3497.5, 1.3219e-06
3499.5, 1.3186e-06
3501.5, 1.1085e-06
3503.5, 1.238e-06
3505.5, 1.2684e-06
3507.5, 1.2719e-06
3509.5, 1.2105e-06
3511.5, 1.1374e-06
3513.5, 1.1887e-06
3515.5, 1.506e-06
3517.5, 1.6117e-06
3519.5, 1.1872e-06
3521.5, 1.617e-06
3523.5, 1.1623e-06
3525.5, 1.1426e-06
3527.5, 1.1196e-06
3529.5, 1.3832e-06
3531.5, 1.4137e-06
3533.5, 1.266e-06
3535.5, 1.2493e-06
3537.5, 1.4333e-06
3539.5, 1.4114e-06
3541.5, 1.2365e-06
3543.5, 9.3767e-07
3545.5, 1.2139e-06
3547.5, 1.3058e-06
3549.5, 1.5944e-06
3551.5, 1.1565e-06
3553.5, 1.4397e-06
3555.6, 1.5403e-06
3557.6, 1.2576e-06
3559.6, 1.3232e-06
3561.6, 1.3302e-06
3563.6, 1.3084e-06
3565.6, 1.5926e-06
3567.6, 1.1452e-06
3569.6, 9.8525e-07
3571.6, 1.2272e-06
3573.6, 1.104e-06
3575.6, 1.5147e-06
3577.6, 1.4681e-06
3579.6, 1.3151e-06
3581.6, 1.3184e-06
3583.6, 1.3149e-06
3585.6, 9.8945e-07
3587.6, 1.1405e-06
3589.6, 1.1866e-06
3591.6, 1.5354e-06
3593.6, 1.5067e-06
3595.6, 1.3455e-06
3597.6, 1.1983e-06
3599.6, 1.2258e-06
3601.6, 1.2019e-06
3603.6, 1.0011e-06
3605.6, 1.0975e-06
3607.6, 1.3535e-06
3609.6, 1.3421e-06
3611.6, 1.2766e-06
3613.6, 9.8521e-07
3615.6, 1.3043e-06
3617.6, 1.0078e-06
3619.6, 1.4174e-06
3621.6, 1.1968e-06
3623.6, 1.2053e-06
3625.6, 1.5835e-06
3627.6, 1.3599e-06
3629.6, 1.1141e-06
3631.6, 1.1784e-06
3633.6, 1.9117e-06
3635.6, 1.2691e-06
3637.6, 1.2989e-06
3639.6, 1.1142e-06
3641.6, 8.7041e-07
3643.6, 1.4581e-06
3645.6, 1.4222e-06
3647.6, 1.3237e-06
3649.6, 1.6772e-06
3651.6, 1.4997e-06
3653.6, 1.6669e-06
3655.7, 1.4808e-06
3657.7, 1.6018e-06
3659.7, 1.4238e-06
3661.7, 1.5178e-06
3663.7, 1.1633e-06
3665.7, 1.6438e-06
3667.7, 1.7991e-06
3669.7, 1.2373e-06
3671.7, 1.1385e-06
3673.7, 1.379e-06
3675.7, 1.2728e-06
3677.7, 1.3186e-06
3679.7, 1.3489e-06
3681.7, 1.1764e-06
3683.7, 1.5702e-06
3685.7, 1.373e-06
3687.7, 1.2888e-06
3689.7, 1.4747e-06
3691.7, 8.9882e-07
3693.7, 1.4329e-06
3695.7, 9.9438e-07
3697.7, 1.1086e-06
3699.7, 1.4804e-06
3701.7, 1.3858e-06
3703.7, 1.3793e-06
3705.7, 1.25e-06
3707.7, 1.1628e-06
3709.7, 1.3663e-06
3711.7, 1.4406e-06
3713.7, 1.515e-06
3715.7, 1.4754e-06
3717.7, 1.0623e-06
3719.7, 1.0911e-06
3721.7, 1.3084e-06
3723.7, 1.1272e-06
3725.7, 8.5582e-07
3727.7, 1.5508e-06
3729.7, 1.4011e-06
3731.7, 1.7015e-06
3733.7, 1.2266e-06
3735.7, 1.1976e-06
3737.7, 1.316e-06
3739.7, 1.3285e-06
3741.7, 1.448e-06
3743.7, 1.1801e-06
3745.7, 1.4463e-06
3747.7, 1.3356e-06
3749.7, 1.4168e-06
3751.7, 1.1747e-06
3753.7, 1.5746e-06
3755.8, 1.4057e-06
3757.8, 1.4053e-06
3759.8, 1.3562e-06
3761.8, 1.291e-06
3763.8, 1.2947e-06
3765.8, 1.3293e-06
3767.8, 1.3925e-06
3769.8, 1.4291e-06
3771.8, 1.1226e-06
3773.8, 1.1763e-06
3775.8, 1.3667e-06
3777.8, 1.2305e-06
3779.8, 1.4435e-06
3781.8, 1.3176e-06
3783.8, 1.4435e-06
3785.8, 1.47e-06
3787.8, 1.2959e-06
3789.8, 1.7563e-06
3791.8, 8.6083e-07
3793.8, 1.4973e-06
3795.8, 1.3586e-06
3797.8, 1.6279e-06
3799.8, 1.4924e-06
3801.8, 1.547e-06
3803.8, 1.3258e-06
3805.8, 1.3153e-06
3807.8, 1.2763e-06
3809.8, 1.2583e-06
3811.8, 1.345e-06
3813.8, 1.1812e-06
3815.8, 1.4995e-06
3817.8, 1.3933e-06
3819.8, 1.5024e-06
3821.8, 1.1633e-06
3823.8, 1.4816e-06
3825.8, 1.1913e-06
3827.8, 1.4592e-06
3829.8, 1.2864e-06
3831.8, 9.6838e-07
3833.8, 1.2055e-06
3835.8, 1.6802e-06
3837.8, 1.2588e-06
3839.8, 1.3225e-06
3841.8, 1.5094e-06
3843.8, 1.1771e-06
3845.8, 1.2852e-06
3847.8, 1.2564e-06
3849.8, 1.645e-06
3851.8, 1.394e-06
3853.8, 1.239e-06
3855.9, 1.3115e-06
3857.9, 1.3446e-06
3859.9, 1.3603e-06
3861.9, 1.5019e-06
3863.9, 1.2529e-06
3865.9, 1.6341e-06
3867.9, 1.4824e-06
3869.9, 1.4171e-06
3871.9, 1.0436e-06
3873.9, 1.5391e-06
3875.9, 1.5753e-06
3877.9, 1.0761e-06
3879.9, 1.2526e-06
3881.9, 1.4957e-06
3883.9, 1.2169e-06
3885.9, 1.2629e-06
3887.9, 1.4804e-06
3889.9, 1.6367e-06
3891.9, 1.0928e-06
3893.9, 1.2943e-06
3895.9, 1.1112e-06
3897.9, 1.382e-06
3899.9, 1.4834e-06
3901.9, 1.7293e-06
3903.9, 1.1481e-06
3905.9, 1.604e-06
3907.9, 1.2741e-06
3909.9, 1.3973e-06
3911.9, 1.7453e-06
3913.9, 1.548e-06
3915.9, 9.4356e-07
3917.9, 1.3458e-06
3919.9, 1.2541e-06
3921.9, 1.4179e-06
3923.9, 1.3334e-06
3925.9, 1.6252e-06
3927.9, 1.3971e-06
3929.9, 1.7742e-06
3931.9, 1.1186e-06
3933.9, 1.2491e-06
3935.9, 1.0613e-06
3937.9, 1.2558e-06
3939.9, 1.3362e-06
3941.9, 1.2385e-06
3943.9, 1.3229e-06
3945.9, 1.1454e-06
3947.9, 1.1712e-06
3949.9, 1.4186e-06
3951.9, 1.3712e-06
3953.9, 1.4248e-06
3956.0, 1.3026e-06
3958.0, 1.1325e-06
3960.0, 1.3567e-06
3962.0, 1.0909e-06
3964.0, 1.1749e-06
3966.0, 1.1722e-06
3968.0, 1.6672e-06
3970.0, 1.2322e-06
3972.0, 1.6437e-06
3974.0, 1.3002e-06
3976.0, 1.5372e-06
3978.0, 1.5092e-06
3980.0, 1.5456e-06
3982.0, 1.142e-06
3984.0, 1.3489e-06
3986.0, 1.5672e-06
3988.0, 1.6577e-06
3990.0, 1.148e-06
3992.0, 1.4991e-06
3994.0, 1.5986e-06
3996.0, 1.4483e-06
3998.0, 1.4952e-06
4000.0, 1.5655e-06
4002.0, 1.1979e-06
4004.0, 1.2509e-06
4006.0, 1.2052e-06
4008.0, 1.5598e-06
4010.0, 1.3731e-06
4012.0, 1.1717e-06
4014.0, 1.3561e-06
4016.0, 1.0021e-06
4018.0, 1.252e-06
4020.0, 1.5295e-06
4022.0, 1.3086e-06
4024.0, 1.5685e-06
4026.0, 1.6055e-06
4028.0, 1.7434e-06
4030.0, 1.3296e-06
4032.0, 1.3396e-06
4034.0, 1.3867e-06
4036.0, 1.3299e-06
4038.0, 1.6951e-06
4040.0, 1.3787e-06
4042.0, 1.1517e-06
4044.0, 1.4776e-06
4046.0, 1.5693e-06
4048.0, 1.0705e-06
4050.0, 1.806e-06
4052.0, 1.2858e-06
4054.0, 1.4575e-06
4056.1, 1.5336e-06
4058.1, 1.288e-06
4060.1, 1.4354e-06
4062.1, 1.3977e-06
4064.1, 1.3263e-06
4066.1, 1.3142e-06
4068.1, 1.2215e-06
4070.1, 1.5108e-06
4072.1, 1.4165e-06
4074.1, 1.475e-06
4076.1, 1.4123e-06
4078.1, 9.6769e-07
4080.1, 1.6808e-06
4082.1, 1.2861e-06
4084.1, 1.577e-06
4086.1, 1.1969e-06
4088.1, 1.5836e-06
4090.1, 1.3028e-06
4092.1, 1.3103e-06
4094.1, 1.6193e-06
4096.1, 1.6157e-06
4098.1, 1.3514e-06
4100.1, 1.467e-06
4102.1, 1.637e-06
4104.1, 1.4996e-06
4106.1, 1.4875e-06
4108.1, 1.5002e-06
4110.1, 1.1826e-06
4112.1, 1.3521e-06
4114.1, 9.8626e-07
4116.1, 1.2807e-06
4118.1, 1.4906e-06
4120.1, 1.2881e-06
4122.1, 1.1915e-06
4124.1, 1.4552e-06
4126.1, 1.3759e-06
4128.1, 1.6242e-06
4130.1, 1.3111e-06
4132.1, 1.3332e-06
4134.1, 1.2809e-06
4136.1, 1.3351e-06
4138.1, 1.4671e-06
4140.1, 1.3989e-06
4142.1, 1.6351e-06
4144.1, 1.6029e-06
4146.1, 1.6236e-06
4148.1, 1.5346e-06
4150.1, 1.3594e-06
4152.1, 1.1946e-06
4154.1, 1.0425e-06
4156.2, 1.1258e-06
4158.2, 1.1235e-06
4160.2, 1.1202e-06
4162.2, 1.5471e-06
4164.2, 1.5587e-06
4166.2, 1.5799e-06
4168.2, 1.3717e-06
4170.2, 1.4779e-06
4172.2, 1.341e-06
4174.2, 1.5815e-06
4176.2, 1.3811e-06
4178.2, 1.3656e-06
4180.2, 1.2155e-06
4182.2, 1.6062e-06
4184.2, 1.2237e-06
4186.2, 1.4269e-06
4188.2, 1.3278e-06
4190.2, 1.4408e-06
4192.2, 1.3816e-06
4194.2, 1.5808e-06
4196.2, 1.4304e-06
4198.2, 1.2108e-06
4200.2, 1.2446e-06
4202.2, 1.3072e-06
4204.2, 1.5067e-06
4206.2, 1.0397e-06
4208.2, 1.5873e-06
4210.2, 1.3024e-06
4212.2, 1.107e-06
4214.2, 1.6019e-06
4216.2, 1.8588e-06
4218.2, 1.0786e-06
4220.2, 1.3631e-06
4222.2, 1.0339e-06
4224.2, 1.358e-06
4226.2, 1.2185e-06
4228.2, -3.81e-08
4230.2, -3.857e-08
4232.2, -4.141e-08
4234.2, -4.084e-08
4236.2, -4.405e-08
4238.2, -3.978e-08
4240.2, -4.334e-08
4242.2, -4.35e-08
4244.2, -3.86e-08
4246.2, -4.371e-08
4248.2, -4.535e-08
4250.2, -4.362e-08
4252.2, -4.301e-08
4254.2, -4.271e-08
4256.3, -4.144e-08
4258.3, -4.569e-08
4260.3, -3.886e-08
4262.3, -4.027e-08
4264.3, -3.616e-08
4266.3, -4.04e-08
4268.3, -4.083e-08
4270.3, -3.955e-08
4272.3, -4.163e-08
4274.3, -3.981e-08
4276.3, -3.542e-08
4278.3, -4.168e-08
4280.3, -3.776e-08
4282.3, -4.341e-08
4284.3, -4.12e-08
4286.3, -3.827e-08
4288.3, -4.153e-08
4290.3, -3.781e-08
4292.3, -3.82e-08
4294.3, -3.854e-08
4296.3, -3.85e-08
4298.3, -3.816e-08
4300.3, -3.731e-08
4302.3, -3.477e-08
4304.3, -3.423e-08
4306.3, -3.659e-08
4308.3, -3.594e-08
4310.3, -3.529e-08
4312.3, -3.797e-08
4314.3, -4.024e-08
4316.3, -4.37e-08
4318.3, -4.027e-08
4320.3, -4.01e-08
4322.3, -3.932e-08
4324.3, -4.173e-08
4326.3, -3.893e-08
4328.3, -4.143e-08
4330.3, -3.738e-08
4332.3, -3.931e-08
4334.3, -3.848e-08
4336.3, -3.748e-08
4338.3, -3.978e-08
4340.3, -3.954e-08
4342.3, -3.829e-08
4344.3, -3.548e-08
4346.3, -3.694e-08
4348.3, -4.152e-08
4350.3, -4.181e-08
4352.3, -3.803e-08
4354.3, -3.635e-08
4356.4, -3.93e-08
4358.4, -3.87e-08
4360.4, -3.965e-08
4362.4, -4.158e-08
4364.4, -3.804e-08
4366.4, -3.685e-08
4368.4, -3.858e-08
4370.4, -3.953e-08
4372.4, -3.549e-08
4374.4, -3.723e-08
4376.4, -3.913e-08
4378.4, -3.592e-08
4380.4, -3.732e-08
4382.4, -4.099e-08
4384.4, -4.213e-08
4386.4, -3.97e-08
4388.4, -4.065e-08
4390.4, -3.695e-08
4392.4, -3.999e-08
4394.4, -4.15e-08
4396.4, -3.86e-08
4398.4, -3.922e-08
4400.4, -3.765e-08
4402.4, -3.962e-08
4404.4, -4.069e-08
4406.4, -3.998e-08
4408.4, -4.203e-08
4410.4, -4.151e-08
4412.4, -3.753e-08
4414.4, -4.207e-08
4416.4, -4.422e-08
4418.4, -3.985e-08
4420.4, -4.167e-08
4422.4, -4.185e-08
4424.4, -4.086e-08
4426.4, -4.377e-08
4428.4, -4.386e-08
4430.4, -4.034e-08
4432.4, -3.487e-08
4434.4, -4.221e-08
4436.4, -4.615e-08
4438.4, -4.491e-08
4440.4, -4.219e-08
4442.4, -4.24e-08
4444.4, -4.131e-08
4446.4, -4.18e-08
4448.4, -4.308e-08
4450.4, -4.186e-08
4452.4, -4.302e-08
4454.4, -4.003e-08
4456.5, -4.207e-08
4458.5, -4.214e-08
4460.5, -4.213e-08
4462.5, -3.88e-08
4464.5, -4.344e-08
4466.5, -4.534e-08
4468.5, -4.135e-08
4470.5, -4.132e-08
4472.5, -4.15e-08
4474.5, -4.232e-08
4476.5, -4.178e-08
4478.5, -4.339e-08
4480.5, -4.237e-08
4482.5, -4.422e-08
4484.5, -4.29e-08
4486.5, -4.53e-08
4488.5, -4.085e-08
4490.5, -4.244e-08
4492.5, -4.383e-08
4494.5, -4.344e-08
4496.5, -4.123e-08
4498.5, -4.207e-08
4500.5, -4.319e-08
4502.5, -4.16e-08
4504.5, -4.136e-08
4506.5, -4.289e-08
4508.5, -4.182e-08
4510.5, -4.747e-08
4512.5, -4.46e-08
4514.5, -4.285e-08
4516.5, -4.072e-08
4518.5, -3.858e-08
4520.5, -4.087e-08
4522.5, -3.884e-08
4524.5, -4.277e-08
4526.5, -4.472e-08
4528.5, -4.506e-08
4530.5, -4.289e-08
4532.5, -4.147e-08
4534.5, -4.229e-08
4536.5, -4.18e-08
4538.5, -4.129e-08
4540.5, -4.113e-08
4542.5, -4.307e-08
4544.5, -3.9e-08
4546.5, -4.047e-08
4548.5, -4.349e-08
4550.5, -4.138e-08
4552.5, -4.098e-08
4554.5, -4.061e-08
4556.6, -4.014e-08
4558.6, -3.873e-08
4560.6, -4.005e-08
4562.6, -3.899e-08
4564.6, -4.017e-08
4566.6, -4.129e-08
4568.6, -3.952e-08
4570.6, -3.813e-08
4572.6, -4.02e-08
4574.6, -3.872e-08
4576.6, -4.2e-08
4578.6, -4.136e-08
4580.6, -4.165e-08
4582.6, -4.1e-08
4584.6, -3.969e-08
4586.6, -4.349e-08
4588.6, -4.214e-08
4590.6, -3.957e-08
4592.6, -4.169e-08
4594.6, -3.685e-08
4596.6, -4.095e-08
4598.6, -4.05e-08
4600.6, -4.44e-08
4602.6, -4.217e-08
4604.6, -3.944e-08
4606.6, -4.109e-08
4608.6, -4.103e-08
4610.6, -4.169e-08
4612.6, -4.197e-08
4614.6, -4.393e-08
4616.6, -4.386e-08
4618.6, -4.241e-08
4620.6, -3.968e-08
4622.6, -4.127e-08
4624.6, -4.481e-08
4626.6, -4.299e-08
4628.6, -4.094e-08
4630.6, -3.891e-08
4632.6, -3.976e-08
4634.6, -4.083e-08
4636.6, -4.25e-08
4638.6, -4.342e-08
4640.6, -4.487e-08
4642.6, -4.143e-08
4644.6, -4.025e-08
4646.6, -3.894e-08
4648.6, -3.843e-08
4650.6, -3.798e-08
4652.6, -3.953e-08
4654.6, -3.978e-08
4656.7, -4.067e-08
4658.7, -4.133e-08
4660.7, -3.928e-08
4662.7, -4.029e-08
4664.7, -4.199e-08
4666.7, -4.032e-08
4668.7, -3.854e-08
4670.7, -3.722e-08
4672.7, -3.426e-08
4674.7, -3.595e-08
4676.7, -4.014e-08
4678.7, -4.038e-08
4680.7, -3.895e-08
4682.7, -4.012e-08
4684.7, -3.926e-08
4686.7, -4.175e-08
4688.7, -4.233e-08
4690.7, -3.602e-08
4692.7, -4.189e-08
4694.7, -3.982e-08
4696.7, -4.528e-08
4698.7, -4.283e-08
4700.7, -4.377e-08
4702.7, -4.249e-08
4704.7, -4.168e-08
4706.7, -4.26e-08
4708.7, -4.21e-08
4710.7, -4.165e-08
4712.7, -4.041e-08
4714.7, -3.825e-08
4716.7, -4.228e-08
4718.7, -4.035e-08
4720.7, -4.268e-08
4722.7, -4.113e-08
4724.7, -4.367e-08
4726.7, -3.883e-08
4728.7, -4.153e-08
4730.7, -4.079e-08
4732.7, -3.614e-08
4734.7, -3.717e-08
4736.7, -3.698e-08
4738.7, -4.115e-08
4740.7, -4.005e-08
4742.7, -3.835e-08
4744.7, -4.327e-08
4746.7, -4.083e-08
4748.7, -4.224e-08
4750.7, -4.32e-08
4752.7, -3.887e-08
4754.7, -4.148e-08
4756.8, -4.181e-08
4758.8, -4.076e-08
4760.8, -3.984e-08
4762.8, -4.189e-08
4764.8, -3.989e-08
4766.8, -4.077e-08
4768.8, -4.101e-08
4770.8, -4.622e-08
4772.8, -4.166e-08
4774.8, -4.292e-08
4776.8, -4.084e-08
4778.8, -3.971e-08
4780.8, -4.024e-08
4782.8, -4.315e-08
4784.8, -4.561e-08
4786.8, -4.619e-08
4788.8, -4.565e-08
4790.8, -4.303e-08
4792.8, -4.353e-08
4794.8, -4.521e-08
4796.8, -4.428e-08
4798.8, -4.311e-08
4800.8, -4.042e-08
4802.8, -3.795e-08
4804.8, -4.193e-08
4806.8, -4.334e-08
4808.8, -4.063e-08
4810.8, -3.871e-08
4812.8, -4.017e-08
4814.8, -3.66e-08
4816.8, -4.042e-08
4818.8, -4.103e-08
4820.8, -3.786e-08
4822.8, -4.012e-08
4824.8, -3.634e-08
4826.8, -4.368e-08
4828.8, -4.141e-08
4830.8, -3.879e-08
4832.8, -3.815e-08
4834.8, -3.587e-08
4836.8, -3.941e-08
4838.8, -3.831e-08
4840.8, -4.002e-08
4842.8, -3.704e-08
4844.8, -3.578e-08
4846.8, -3.722e-08
4848.8, -3.801e-08
4850.8, -3.736e-08
4852.8, -3.615e-08
4854.8, -3.62e-08
4856.9, -3.988e-08
4858.9, -4.026e-08
4860.9, -3.74e-08
4862.9, -3.323e-08
4864.9, -3.577e-08
4866.9, -3.484e-08
4868.9, -3.41e-08
4870.9, -3.414e-08
4872.9, -3.562e-08
4874.9, -3.809e-08
4876.9, -3.625e-08
4878.9, -3.351e-08
4880.9, -3.246e-08
4882.9, -3.584e-08
4884.9, -3.728e-08
4886.9, -3.529e-08
4888.9, -3.809e-08
4890.9, -4.003e-08
4892.9, -3.723e-08
4894.9, -3.778e-08
4896.9, -3.775e-08
4898.9, -3.579e-08
4900.9, -3.551e-08
4902.9, -3.855e-08
4904.9, -4.14e-08
4906.9, -3.988e-08
4908.9, -4.018e-08
4910.9, -3.887e-08
4912.9, -4.094e-08
4914.9, -3.806e-08
4916.9, -4.024e-08
4918.9, -4.081e-08
4920.9, -3.887e-08
4922.9, -3.754e-08
4924.9, -3.649e-08
4926.9, -4.01e-08
4928.9, -3.873e-08
4930.9, -3.913e-08
4932.9, -3.694e-08
4934.9, -3.916e-08
4936.9, -3.986e-08
4938.9, -4.094e-08
4940.9, -3.74e-08
4942.9, -4.249e-08
4944.9, -3.923e-08
4946.9, -4.171e-08
4948.9, -4.798e-08
4950.9, -4.413e-08
4952.9, -4.348e-08
4954.9, -4.488e-08
4957.0, -4.469e-08
4959.0, -4.408e-08
4961.0, -4.421e-08
4963.0, -4.428e-08
4965.0, -4.529e-08
4967.0, -4.526e-08
4969.0, -4.553e-08
4971.0, -4.422e-08
4973.0, -4.401e-08
4975.0, -4.456e-08
4977.0, -4.162e-08
4979.0, -4.659e-08
4981.0, -4.591e-08
4983.0, -4.42e-08
4985.0, -4.205e-08
4987.0, -4.378e-08
4989.0, -4.456e-08
4991.0, -4.295e-08
4993.0, -4.307e-08
4995.0, -4.345e-08
4997.0, -4.473e-08
4999.0, -4.222e-08
5001.0, -4.417e-08
5003.0, -4.162e-08
5005.0, -4.004e-08
5007.0, -4.627e-08
5009.0, -4.409e-08
5011.0, -4.519e-08
5013.0, -4.271e-08
5015.0, -4.317e-08
5017.0, -4.202e-08
5019.0, -4.404e-08
5021.0, -4.464e-08
5023.0, -4.374e-08
5025.0, -4.583e-08
5027.0, -4.158e-08
5029.0, -4.286e-08
5031.0, -4.35e-08
5033.0, -4.312e-08
5035.0, -4.345e-08
5037.0, -4.318e-08
5039.0, -4.241e-08
5041.0, -4.371e-08
5043.0, -4.401e-08
5045.0, -4.27e-08
5047.0, -4.642e-08
5049.0, -4.111e-08
5051.0, -4.466e-08
5053.0, -3.91e-08
5055.0, -4.233e-08
5057.1, -4.503e-08
5059.1, -4.043e-08
5061.1, -3.817e-08
5063.1, -4.321e-08
5065.1, -4.261e-08
5067.1, -3.971e-08
5069.1, -4.212e-08
5071.1, -4.219e-08
5073.1, -4.072e-08
5075.1, -4.316e-08
5077.1, -4.532e-08
5079.1, -4.403e-08
5081.1, -4.433e-08
5083.1, -4.412e-08
5085.1, -4.018e-08
5087.1, -4.383e-08
5089.1, -4.325e-08
5091.1, -4.547e-08
5093.1, -4.145e-08
5095.1, -4.318e-08
5097.1, -4.422e-08
5099.1, -4.628e-08
5101.1, -4.596e-08
5103.1, -4.342e-08
5105.1, -4.496e-08
5107.1, -4.579e-08
5109.1, -4.525e-08
5111.1, -4.248e-08
5113.1, -4.244e-08
5115.1, -4.857e-08
5117.1, -4.683e-08
5119.1, -4.78e-08
5121.1, -4.578e-08
5123.1, -4.427e-08
5125.1, -4.367e-08
5127.1, -4.471e-08
5129.1, -4.605e-08
5131.1, -4.777e-08
5133.1, -4.343e-08
5135.1, -4.293e-08
5137.1, -4.295e-08
5139.1, -4.683e-08
5141.1, -4.175e-08
5143.1, -4.468e-08
5145.1, -4.877e-08
5147.1, -4.777e-08
5149.1, -4.474e-08
5151.1, -4.121e-08
5153.1, -4.086e-08
5155.1, -4.198e-08
5157.2, -4.579e-08
5159.2, -4.588e-08
5161.2, -4.239e-08
5163.2, -4.466e-08
5165.2, -4.797e-08
5167.2, -4.649e-08
5169.2, -4.61e-08
5171.2, -4.314e-08
5173.2, -4.424e-08
5175.2, -4.144e-08
5177.2, -4.484e-08
5179.2, -4.46e-08
5181.2, -4.09e-08
5183.2, -4.292e-08
5185.2, -4.457e-08
5187.2, -4.403e-08
5189.2, -4.552e-08
5191.2, -4.016e-08
5193.2, -4.055e-08
5195.2, -3.874e-08
5197.2, -3.861e-08
5199.2, -4.206e-08
5201.2, -4.182e-08
5203.2, -4.377e-08
5205.2, -4.139e-08
5207.2, -4.285e-08
5209.2, -4.205e-08
5211.2, -3.963e-08
5213.2, -4.065e-08
5215.2, -4.429e-08
5217.2, -4.389e-08
5219.2, -4.352e-08
5221.2, -3.985e-08
5223.2, -4.295e-08
5225.2, -4.356e-08
5227.2, -4.482e-08
5229.2, -4.211e-08
5231.2, -4.462e-08
5233.2, -4.275e-08
5235.2, -4.695e-08
5237.2, -4.437e-08
5239.2, -4.46e-08
5241.2, -4.127e-08
5243.2, -4.301e-08
5245.2, -4.514e-08
5247.2, -4.159e-08
5249.2, -4.174e-08
5251.2, -4.131e-08
5253.2, -4.039e-08
5255.2, -4.353e-08
5257.3, -4.753e-08
5259.3, -4.082e-08
5261.3, -4.472e-08
5263.3, -4.335e-08
5265.3, -4.59e-08
5267.3, -4.332e-08
5269.3, -4.471e-08
5271.3, -4.108e-08
5273.3, -4.199e-08
5275.3, -4.253e-08
5277.3, -4.269e-08
5279.3, -4.911e-08
5281.3, -4.52e-08
5283.3, -4.676e-08
5285.3, -4.343e-08
5287.3, -4.945e-08
5289.3, -4.813e-08
5291.3, -4.788e-08
5293.3, -4.757e-08
5295.3, -4.501e-08
5297.3, -4.69e-08
5299.3, -4.804e-08
5301.3, -4.492e-08
5303.3, -4.519e-08
5305.3, -4.517e-08
5307.3, -4.724e-08
5309.3, -4.515e-08
5311.3, -4.555e-08
5313.3, -4.613e-08
5315.3, -4.388e-08
5317.3, -4.532e-08
5319.3, -4.381e-08
5321.3, -4.85e-08
5323.3, -4.982e-08
5325.3, -4.942e-08
5327.3, 7.1398e-07
5329.3, 1.0552e-06
5331.3, 7.1664e-07
5333.3, 8.4706e-07
5335.3, 8.9806e-07
5337.3, 8.9927e-07
5339.3, 7.4552e-07
5341.3, 1.3689e-06
5343.3, 7.5646e-07
5345.3, 1.2012e-06
5347.3, 1.0013e-06
5349.3, 8.4031e-07
5351.3, 1.0223e-06
5353.3, 7.5769e-07
5355.3, 1.1398e-06
5357.4, 1.0733e-06
5359.4, 9.0803e-07
5361.4, 7.0203e-07
5363.4, 8.9122e-07
5365.4, 8.4354e-07
5367.4, 8.7125e-07
5369.4, 1.1652e-06
5371.4, 9.8358e-07
5373.4, 9.7413e-07
5375.4, 8.7913e-07
5377.4, 8.9122e-07
5379.4, 1.0921e-06
5381.4, 1.1964e-06
5383.4, 9.5113e-07
5385.4, 1.4337e-06
5387.4, 1.1939e-06
5389.4, 1.0121e-06
5391.4, 9.1883e-07
5393.4, 1.0659e-06
5395.4, 1.2485e-06
5397.4, 1.171e-06
5399.4, 1.1385e-06
5401.4, 1.442e-06
5403.4, 1.1411e-06
5405.4, 1.1586e-06
5407.4, 9.4452e-07
5409.4, 1.0464e-06
5411.4, 1.2657e-06
5413.4, 8.8427e-07
5415.4, 1.3042e-06
5417.4, 9.0338e-07
5419.4, 1.0918e-06
5421.4, 1.2057e-06
5423.4, 1.0457e-06
5425.4, 1.0151e-06
5427.4, 1.012e-06
5429.4, 1.3063e-06
5431.4, 1.5628e-06
5433.4, 1.2337e-06
5435.4, 1.1115e-06
5437.4, 1.0754e-06
5439.4, 9.9587e-07
5441.4, 1.2166e-06
5443.4, 8.6332e-07
5445.4, 1.1718e-06
5447.4, 1.1009e-06
5449.4, 9.1282e-07
5451.4, 1.2176e-06
5453.4, 1.2156e-06
5455.4, 1.0113e-06
5457.5, 1.1912e-06
5459.5, 8.8686e-07
5461.5, 1.0256e-06
5463.5, 1.2111e-06
5465.5, 1.5134e-06
5467.5, 1.2619e-06
5469.5, 1.0399e-06
5471.5, 1.1806e-06
5473.5, 1.0235e-06
5475.5, 8.8709e-07
5477.5, 1.4195e-06
5479.5, 1.5535e-06
5481.5, 1.3618e-06
5483.5, 1.5694e-06
5485.5, 1.401e-06
5487.5, 8.9388e-07
5489.5, 1.2152e-06
5491.5, 1.1854e-06
5493.5, 1.633e-06
5495.5, 7.8122e-07
5497.5, 1.0736e-06
5499.5, 8.1127e-07
5501.5, 1.0187e-06
5503.5, 1.2886e-06
5505.5, 1.6151e-06
5507.5, 1.1522e-06
5509.5, 1.5054e-06
5511.5, 1.0908e-06
5513.5, 1.4048e-06
5515.5, 1.3183e-06
5517.5, 1.1589e-06
5519.5, 8.6554e-07
5521.5, 1.4706e-06
5523.5, 1.2693e-06
5525.5, 1.4322e-06
5527.5, 1.1396e-06
5529.5, 1.3792e-06
5531.5, 1.0271e-06
5533.5, 1.2439e-06
5535.5, 1.3473e-06
5537.5, 1.4493e-06
5539.5, 1.1035e-06
5541.5, 1.2389e-06
5543.5, 1.3318e-06
5545.5, 1.369e-06
5547.5, 1.6407e-06
5549.5, 9.966e-07
5551.5, 1.0588e-06
5553.5, 1.0435e-06
5555.5, 1.3274e-06
5557.6, 1.1781e-06
5559.6, 1.1734e-06
5561.6, 1.0105e-06
5563.6, 1.541e-06
5565.6, 1.159e-06
5567.6, 1.1097e-06
5569.6, 1.2905e-06
5571.6, 1.2599e-06
5573.6, 1.3964e-06
5575.6, 1.3328e-06
5577.6, 1.2683e-06
5579.6, 1.1002e-06
5581.6, 1.3722e-06
5583.6, 1.1132e-06
5585.6, 1.4111e-06
5587.6, 1.2468e-06
5589.6, 1.0532e-06
5591.6, 1.4091e-06
5593.6, 1.2757e-06
5595.6, 1.4221e-06
5597.6, 1.2884e-06
5599.6, 1.1983e-06
5601.6, 1.2568e-06
5603.6, 1.1682e-06
5605.6, 1.5681e-06
5607.6, 1.1603e-06
5609.6, 1.2712e-06
5611.6, 1.1603e-06
5613.6, 1.6417e-06
5615.6, 1.0524e-06
5617.6, 9.5545e-07
5619.6, 1.3583e-06
5621.6, 9.8461e-07
5623.6, 1.236e-06
5625.6, 1.4997e-06
5627.6, 1.4005e-06
5629.6, 1.3545e-06
5631.6, 1.2323e-06
5633.6, 1.4546e-06
5635.6, 1.1368e-06
5637.6, 1.7552e-06
5639.6, 1.123e-06
5641.6, 1.1102e-06
5643.6, 1.3613e-06
5645.6, 1.3597e-06
5647.6, 1.5521e-06
5649.6, 1.1243e-06
5651.6, 1.35e-06
5653.6, 1.1984e-06
5655.6, 1.2839e-06
5657.7, 1.4243e-06
5659.7, 1.3014e-06
5661.7, 1.1026e-06
5663.7, 1.1135e-06
5665.7, 1.2211e-06
5667.7, 1.0851e-06
5669.7, 1.1755e-06
5671.7, 1.2773e-06
5673.7, 1.2287e-06
5675.7, 1.0352e-06
5677.7, 9.2182e-07
5679.7, 1.463e-06
5681.7, 9.3815e-07
5683.7, 1.129e-06
5685.7, 1.3474e-06
5687.7, 1.112e-06
5689.7, 9.6012e-07
5691.7, 1.391e-06
5693.7, 1.3397e-06
5695.7, 1.3881e-06
5697.7, 1.4012e-06
5699.7, 1.0129e-06
5701.7, 1.5262e-06
5703.7, 1.1802e-06
5705.7, 1.3737e-06
5707.7, 1.1698e-06
5709.7, 9.8872e-07
5711.7, 1.1642e-06
5713.7, 1.3097e-06
5715.7, 1.3688e-06
5717.7, 1.0247e-06
5719.7, 1.4547e-06
5721.7, 9.4498e-07
5723.7, 1.7156e-06
5725.7, 1.7032e-06
5727.7, 1.2316e-06
5729.7, 1.4552e-06
5731.7, 1.586e-06
5733.7, 1.2337e-06
5735.7, 1.4306e-06
5737.7, 1.6398e-06
5739.7, 1.1527e-06
5741.7, 1.2913e-06
5743.7, 1.3562e-06
5745.7, 1.2561e-06
5747.7, 1.5684e-06
5749.7, 1.488e-06
5751.7, 1.2219e-06
5753.7, 1.698e-06
5755.7, 1.4242e-06
5757.8, 1.9885e-06
5759.8, 1.151e-06
5761.8, 1.1634e-06
5763.8, 1.5165e-06
5765.8, 1.058e-06
5767.8, 1.3767e-06
5769.8, 1.3414e-06
5771.8, 1.1125e-06
5773.8, 1.5564e-06
5775.8, 1.1182e-06
5777.8, 1.3345e-06
5779.8, 1.3564e-06
5781.8, 1.1554e-06
5783.8, 1.1453e-06
5785.8, 1.1918e-06
5787.8, 1.3955e-06
5789.8, 1.3986e-06
5791.8, 1.4946e-06
5793.8, 1.3238e-06
5795.8, 1.5378e-06
5797.8, 1.2615e-06
5799.8, 1.5637e-06
5801.8, 1.2611e-06
5803.8, 9.8491e-07
5805.8, 1.1569e-06
5807.8, 1.4776e-06
5809.8, 1.5306e-06
5811.8, 9.2542e-07
5813.8, 1.2556e-06
5815.8, 1.192e-06
5817.8, 1.5057e-06
5819.8, 1.2748e-06
5821.8, 1.1813e-06
5823.8, 1.1456e-06
5825.8, 1.4524e-06
5827.8, 1.3973e-06
5829.8, 1.5106e-06
5831.8, 1.4773e-06
5833.8, 1.4197e-06
5835.8, 1.0157e-06
5837.8, 1.2646e-06
5839.8, 1.2506e-06
5841.8, 1.5466e-06
5843.8, 1.3539e-06
5845.8, 1.0906e-06
5847.8, 1.3039e-06
5849.8, 1.2811e-06
5851.8, 1.5544e-06
5853.8, 1.3284e-06
5855.8, 1.5206e-06
5857.9, 1.582e-06
5859.9, 1.3931e-06
5861.9, 1.0318e-06
5863.9, 1.2346e-06
5865.9, 1.3042e-06
5867.9, 1.6054e-06
5869.9, 1.7283e-06
5871.9, 1.3071e-06
5873.9, 1.2751e-06
5875.9, 1.2842e-06
5877.9, 1.1754e-06
5879.9, 1.3295e-06
5881.9, 8.207e-07
5883.9, 1.4449e-06
5885.9, 1.7074e-06
5887.9, 1.2882e-06
5889.9, 1.5664e-06
5891.9, 1.1113e-06
5893.9, 1.3784e-06
5895.9, 1.1777e-06
5897.9, 1.7736e-06
5899.9, 1.4131e-06
5901.9, 1.5651e-06
5903.9, 1.2573e-06
5905.9, 1.1528e-06
5907.9, 1.5253e-06
5909.9, 1.377e-06
5911.9, 1.5797e-06
5913.9, 1.2075e-06
5915.9, 1.4688e-06
5917.9, 1.2236e-06
5919.9, 1.5286e-06
5921.9, 1.0612e-06
5923.9, 1.4461e-06
5925.9, 1.6744e-06
5927.9, 1.5059e-06
5929.9, 1.1255e-06
5931.9, 1.373e-06
5933.9, 1.3742e-06
5935.9, 1.0572e-06
5937.9, 1.363e-06
5939.9, 1.4223e-06
5941.9, 1.8425e-06
5943.9, 1.5161e-06
5945.9, 1.0652e-06
5947.9, 1.5423e-06
5949.9, 1.6064e-06
5951.9, 1.3001e-06
5953.9, 1.4401e-06
5955.9, 1.5479e-06
5958.0, 1.4872e-06
5960.0, 1.2836e-06
5962.0, 1.1537e-06
5964.0, 1.6411e-06
5966.0, 1.4403e-06
5968.0, 1.0891e-06
5970.0, 1.1389e-06
5972.0, 1.1036e-06
5974.0, 1.4931e-06
5976.0, 1.5283e-06
5978.0, 1.3212e-06
5980.0, 1.2552e-06
5982.0, 1.2302e-06
5984.0, 1.6228e-06
5986.0, 1.1594e-06
5988.0, 1.3055e-06
5990.0, 1.3079e-06
5992.0, 1.4344e-06
5994.0, 1.8355e-06
5996.0, 1.2666e-06
5998.0, 1.6005e-06
6000.0, 1.4564e-06
6002.0, 1.0807e-06
6004.0, 1.282e-06
6006.0, 1.3624e-06
6008.0, 1.1042e-06
6010.0, 1.8363e-06
6012.0, 1.5371e-06
6014.0, 1.6392e-06
6016.0, 1.1339e-06
6018.0, 1.3273e-06
6020.0, 1.1816e-06
6022.0, 1.0983e-06
6024.0, 1.3947e-06
6026.0, 1.2776e-06
6028.0, 1.0964e-06
6030.0, 1.0863e-06
6032.0, 1.2049e-06
6034.0, 1.2268e-06
6036.0, 1.6842e-06
6038.0, 1.421e-06
6040.0, 1.7024e-06
6042.0, 1.4387e-06
6044.0, 1.4556e-06
6046.0, 1.2488e-06
6048.0, 1.2418e-06
6050.0, 1.4106e-06
6052.0, 1.3591e-06
6054.0, 1.0534e-06
6056.0, 1.3609e-06
6058.1, 1.2375e-06
6060.1, 1.2407e-06
6062.1, 1.4919e-06
6064.1, 1.4064e-06
6066.1, 1.2895e-06
6068.1, 1.1934e-06
6070.1, 1.7134e-06
6072.1, 1.6532e-06
6074.1, 1.4125e-06
6076.1, 1.2695e-06
6078.1, 1.2272e-06
6080.1, 9.8761e-07
6082.1, 1.4712e-06
6084.1, 1.6238e-06
6086.1, 1.3003e-06
6088.1, 1.1747e-06
6090.1, 1.2626e-06
6092.1, 1.5181e-06
6094.1, 1.6911e-06
6096.1, 1.2789e-06
6098.1, 1.1742e-06
6100.1, 1.3945e-06
6102.1, 1.3232e-06
6104.1, 1.2147e-06
6106.1, 1.3635e-06
6108.1, 1.309e-06
6110.1, 2.0106e-06
6112.1, 1.688e-06
6114.1, 1.805e-06
6116.1, 1.5414e-06
6118.1, 1.4666e-06
6120.1, 1.0651e-06
6122.1, 1.1861e-06
6124.1, 1.7326e-06
6126.1, 1.6846e-06
6128.1, 1.1549e-06
6130.1, 1.4562e-06
6132.1, 1.5371e-06
6134.1, 1.3722e-06
6136.1, 1.4583e-06
6138.1, 1.3122e-06
6140.1, 1.117e-06
6142.1, 1.3976e-06
6144.1, 1.1395e-06
6146.1, 1.7251e-06
6148.1, 1.5411e-06
6150.1, 1.4501e-06
6152.1, 1.5648e-06
6154.1, 1.3158e-06
6156.1, 1.5565e-06
6158.2, 9.5003e-07
6160.2, 1.2889e-06
6162.2, 1.6117e-06
6164.2, 1.2237e-06
6166.2, 1.2749e-06
6168.2, 1.3256e-06
6170.2, 1.3752e-06
6172.2, 1.1638e-06
6174.2, 1.4584e-06
6176.2, 1.4821e-06
6178.2, 1.1481e-06
6180.2, 1.3466e-06
6182.2, 1.4003e-06
6184.2, 1.2694e-06
6186.2, 1.3503e-06
6188.2, 1.2278e-06
6190.2, 1.4714e-06
6192.2, 1.1326e-06
6194.2, 1.7494e-06
6196.2, 1.4038e-06
6198.2, 1.6496e-06
6200.2, 1.3316e-06
6202.2, 1.6677e-06
6204.2, 1.353e-06
6206.2, 1.366e-06
6208.2, 1.2082e-06
6210.2, 1.3521e-06
6212.2, 1.0105e-06
6214.2, 1.75e-06
6216.2, 1.0975e-06
6218.2, 1.1613e-06
6220.2, 1.4737e-06
6222.2, 1.4055e-06
6224.2, 1.7085e-06
6226.2, 1.6542e-06
6228.2, 1.4518e-06
6230.2, 1.1623e-06
6232.2, 1.515e-06
6234.2, 1.3261e-06
6236.2, 1.5278e-06
6238.2, 1.3396e-06
6240.2, 1.4757e-06
6242.2, 1.2541e-06
6244.2, 1.3527e-06
6246.2, 1.1682e-06
6248.2, 1.5764e-06
6250.2, 9.7035e-07
6252.2, 1.3201e-06
6254.2, 1.1691e-06
6256.2, 1.3426e-06
6258.3, 1.4439e-06
6260.3, 1.491e-06
6262.3, 1.4513e-06
6264.3, 1.0939e-06
6266.3, 1.2643e-06
6268.3, 1.5113e-06
6270.3, 1.4241e-06
6272.3, 1.35e-06
6274.3, 1.5773e-06
6276.3, 1.6278e-06
6278.3, 1.3543e-06
6280.3, 1.1449e-06
6282.3, 1.3782e-06
6284.3, 1.4221e-06
6286.3, 1.1613e-06
6288.3, 1.5025e-06
6290.3, 1.6875e-06
6292.3, 1.4079e-06
6294.3, 1.5376e-06
6296.3, 1.1426e-06
6298.3, 1.3339e-06
6300.3, 1.0311e-06
6302.3, 1.1392e-06
6304.3, 1.6703e-06
6306.3, 1.343e-06
6308.3, 1.8719e-06
6310.3, 1.2291e-06
6312.3, 9.861e-07
6314.3, 1.4006e-06
6316.3, 1.4345e-06
6318.3, 1.0671e-06
6320.3, 1.3584e-06
6322.3, 1.1725e-06
6324.3, 1.2934e-06
6326.3, 1.3789e-06
6328.3, 6.061e-07
6330.3, -3.728e-08
6332.3, -3.45e-08
6334.3, -3.344e-08
6336.3, -3.944e-08
6338.3, -3.69e-08
6340.3, -3.163e-08
6342.3, -3.47e-08
6344.3, -3.506e-08
6346.3, -3.782e-08
6348.3, -3.58e-08
6350.3, -3.841e-08
6352.3, -3.55e-08
6354.3, -3.763e-08
6356.3, -3.588e-08
6358.4, -3.87e-08
6360.4, -3.873e-08
6362.4, -3.947e-08
6364.4, -3.718e-08
6366.4, -3.986e-08
6368.4, -4.029e-08
6370.4, -3.615e-08
6372.4, -3.761e-08
6374.4, -3.89e-08
6376.4, -3.692e-08
6378.4, -3.777e-08
6380.4, -3.756e-08
6382.4, -3.614e-08
6384.4, -3.753e-08
6386.4, -3.818e-08
6388.4, -3.676e-08
6390.4, -3.549e-08
6392.4, -3.729e-08
6394.4, -3.996e-08
6396.4, -3.69e-08
6398.4, -3.401e-08
6400.4, -3.503e-08
6402.4, -3.525e-08
6404.4, -3.637e-08
6406.4, -3.778e-08
6408.4, -3.876e-08
6410.4, -3.791e-08
6412.4, -3.581e-08
6414.4, -3.789e-08
6416.4, -3.829e-08
6418.4, -4.024e-08
6420.4, -3.875e-08
6422.4, -3.862e-08
6424.4, -4.11e-08
6426.4, -3.918e-08
6428.4, -4.443e-08
6430.4, -3.975e-08
6432.4, -3.976e-08
6434.4, -4.311e-08
6436.4, -3.561e-08
6438.4, -3.633e-08
6440.4, -3.81e-08
6442.4, -3.831e-08
6444.4, -3.883e-08
6446.4, -3.993e-08
6448.4, -3.899e-08
6450.4, -3.955e-08
6452.4, -3.975e-08
6454.4, -3.943e-08
6456.4, -4.252e-08
6458.5, -3.878e-08
6460.5, -3.968e-08
6462.5, -4.031e-08
6464.5, -3.642e-08
6466.5, -4.251e-08
6468.5, -4.542e-08
6470.5, -4.235e-08
6472.5, -4.299e-08
6474.5, -4.199e-08
6476.5, -3.931e-08
6478.5, -3.641e-08
6480.5, -3.688e-08
6482.5, -4.094e-08
6484.5, -3.965e-08
6486.5, -4.138e-08
6488.5, -3.895e-08
6490.5, -3.77e-08
6492.5, -4.379e-08
6494.5, -3.701e-08
6496.5, -3.866e-08
6498.5, -3.731e-08
6500.5, -3.856e-08
6502.5, -3.877e-08
6504.5, -3.553e-08
6506.5, -3.843e-08
6508.5, -3.798e-08
6510.5, -3.641e-08
6512.5, -3.247e-08
6514.5, -3.546e-08
6516.5, -3.551e-08
6518.5, -3.736e-08
6520.5, -3.652e-08
6522.5, -3.25e-08
6524.5, -3.082e-08
6526.5, -3.418e-08
6528.5, -3.438e-08
6530.5, -3.542e-08
6532.5, -3.827e-08
6534.5, -3.361e-08
6536.5, -3.05e-08
6538.5, -3.532e-08
6540.5, -3.739e-08
6542.5, -3.436e-08
6544.5, -3.518e-08
6546.5, -3.862e-08
6548.5, -3.966e-08
6550.5, -3.901e-08
6552.5, -4.1e-08
6554.5, -3.647e-08
6556.5, -3.645e-08
6558.6, -3.754e-08
6560.6, -3.915e-08
6562.6, -3.928e-08
6564.6, -3.797e-08
6566.6, -3.626e-08
6568.6, -3.702e-08
6570.6, -3.708e-08
6572.6, -3.677e-08
6574.6, -3.852e-08
6576.6, -3.993e-08
6578.6, -3.981e-08
6580.6, -3.719e-08
6582.6, -3.494e-08
6584.6, -3.726e-08
6586.6, -3.609e-08
6588.6, -3.722e-08
6590.6, -3.925e-08
6592.6, -3.768e-08
6594.6, -3.617e-08
6596.6, -3.95e-08
6598.6, -4.044e-08
6600.6, -4.25e-08
6602.6, -3.863e-08
6604.6, -4.004e-08
6606.6, -3.893e-08
6608.6, -3.725e-08
6610.6, -4.056e-08
6612.6, -3.871e-08
6614.6, -3.497e-08
6616.6, -3.682e-08
6618.6, -3.738e-08
6620.6, -3.762e-08
6622.6, -3.875e-08
6624.6, -3.773e-08
6626.6, -4.2e-08
6628.6, -4.009e-08
6630.6, -3.811e-08
6632.6, -3.644e-08
6634.6, -3.54e-08
6636.6, -3.755e-08
6638.6, -3.836e-08
6640.6, -3.973e-08
6642.6, -3.986e-08
6644.6, -3.63e-08
6646.6, -3.423e-08
6648.6, -3.515e-08
6650.6, -3.88e-08
6652.6, -4.006e-08
6654.6, -3.624e-08
6656.6, -3.995e-08
6658.7, -3.423e-08
6660.7, -3.402e-08
6662.7, -3.722e-08
6664.7, -3.774e-08
6666.7, -4.004e-08
6668.7, -3.856e-08
6670.7, -3.982e-08
6672.7, -3.767e-08
6674.7, -4.027e-08
6676.7, -3.656e-08
6678.7, -4.096e-08
6680.7, -3.358e-08
6682.7, -3.642e-08
6684.7, -3.679e-08
6686.7, -3.799e-08
6688.7, -4.176e-08
6690.7, -4.154e-08
6692.7, -3.889e-08
6694.7, -3.763e-08
6696.7, -3.708e-08
6698.7, -3.679e-08
6700.7, -3.829e-08
6702.7, -3.452e-08
6704.7, -3.786e-08
6706.7, -3.518e-08
6708.7, -3.976e-08
6710.7, -3.911e-08
6712.7, -3.564e-08
6714.7, -3.574e-08
6716.7, -3.445e-08
6718.7, -3.575e-08
6720.7, -3.875e-08
6722.7, -3.478e-08
6724.7, -3.771e-08
6726.7, -3.834e-08
6728.7, -3.665e-08
6730.7, -4.025e-08
6732.7, -3.673e-08
6734.7, -3.32e-08
6736.7, -3.794e-08
6738.7, -4.122e-08
6740.7, -3.768e-08
6742.7, -3.866e-08
6744.7, -3.856e-08
6746.7, -3.986e-08
6748.7, -4.071e-08
6750.7, -3.691e-08
6752.7, -3.672e-08
6754.7, -4.022e-08
6756.7, -3.992e-08
6758.8, -3.936e-08
6760.8, -3.645e-08
6762.8, -3.685e-08
6764.8, -3.687e-08
6766.8, -3.793e-08
6768.8, -3.54e-08
6770.8, -3.586e-08
6772.8, -3.67e-08
6774.8, -3.633e-08
6776.8, -3.585e-08
6778.8, -3.963e-08
6780.8, -3.591e-08
6782.8, -3.401e-08
6784.8, -3.713e-08
6786.8, -3.632e-08
6788.8, -3.937e-08
6790.8, -3.863e-08
6792.8, -3.983e-08
6794.8, -3.75e-08
6796.8, -3.633e-08
6798.8, -3.599e-08
6800.8, -3.389e-08
6802.8, -3.504e-08
6804.8, -3.92e-08
6806.8, -3.731e-08
6808.8, -3.739e-08
6810.8, -3.317e-08
6812.8, -3.7e-08
6814.8, -3.824e-08
6816.8, -3.501e-08
6818.8, -4.084e-08
6820.8, -3.599e-08
6822.8, -3.684e-08
6824.8, -3.348e-08
6826.8, -3.788e-08
6828.8, -3.654e-08
6830.8, -3.957e-08
6832.8, -3.271e-08
6834.8, -3.791e-08
6836.8, -4.052e-08
6838.8, -3.912e-08
6840.8, -4.043e-08
6842.8, -3.538e-08
6844.8, -4.088e-08
6846.8, -3.857e-08
6848.8, -3.676e-08
6850.8, -3.817e-08
6852.8, -3.494e-08
6854.8, -3.584e-08
6856.8, -3.616e-08
6858.9, -3.811e-08
6860.9, -3.493e-08
6862.9, -3.989e-08
6864.9, -3.948e-08
6866.9, -3.672e-08
6868.9, -3.954e-08
6870.9, -3.892e-08
6872.9, -3.739e-08
6874.9, -4.311e-08
6876.9, -3.758e-08
6878.9, -3.953e-08
6880.9, -3.995e-08
6882.9, -4.152e-08
6884.9, -3.915e-08
6886.9, -3.503e-08
6888.9, -4.136e-08
6890.9, -4.208e-08
6892.9, -4.162e-08
6894.9, -3.766e-08
6896.9, -3.97e-08
6898.9, -3.48e-08
6900.9, -3.72e-08
6902.9, -3.848e-08
6904.9, -3.981e-08
6906.9, -4.1e-08
6908.9, -3.886e-08
6910.9, -3.925e-08
6912.9, -3.787e-08
6914.9, -3.63e-08
6916.9, -3.632e-08
6918.9, -3.685e-08
6920.9, -3.417e-08
6922.9, -3.632e-08
6924.9, -3.861e-08
6926.9, -3.916e-08
6928.9, -3.61e-08
6930.9, -3.596e-08
6932.9, -3.598e-08
6934.9, -3.458e-08
6936.9, -3.697e-08
6938.9, -3.701e-08
6940.9, -3.606e-08
6942.9, -3.625e-08
6944.9, -3.765e-08
6946.9, -3.159e-08
6948.9, -3.61e-08
6950.9, -3.781e-08
6952.9, -3.734e-08
6954.9, -3.545e-08
6956.9, -3.816e-08
6959.0, -3.85e-08
6961.0, -3.924e-08
6963.0, -3.759e-08
6965.0, -3.84e-08
6967.0, -4.135e-08
6969.0, -4.424e-08
6971.0, -4.296e-08
6973.0, -4.245e-08
6975.0, -4.403e-08
6977.0, -4.224e-08
6979.0, -4.16e-08
6981.0, -3.974e-08
6983.0, -3.426e-08
6985.0, -3.907e-08
6987.0, -4.19e-08
6989.0, -4.415e-08
6991.0, -3.986e-08
6993.0, -4.041e-08
6995.0, -4.047e-08
6997.0, -4.101e-08
6999.0, -4.025e-08
7001.0, -3.662e-08
7003.0, -4.115e-08
7005.0, -3.717e-08
7007.0, -3.871e-08
7009.0, -4.178e-08
7011.0, -3.853e-08
7013.0, -3.867e-08
7015.0, -3.943e-08
7017.0, -4.216e-08
7019.0, -4.184e-08
7021.0, -3.942e-08
7023.0, -4.119e-08
7025.0, -3.85e-08
7027.0, -3.663e-08
7029.0, -4.102e-08
7031.0, -3.739e-08
7033.0, -3.676e-08
7035.0, -4.043e-08
7037.0, -3.792e-08
7039.0, -3.966e-08
7041.0, -4.193e-08
7043.0, -4.349e-08
7045.0, -3.836e-08
7047.0, -3.967e-08
7049.0, -4.31e-08
7051.0, -3.728e-08
7053.0, -3.782e-08
7055.0, -3.763e-08
7057.0, -4.277e-08
7059.1, -3.981e-08
7061.1, -3.696e-08
7063.1, -3.754e-08
7065.1, -4.173e-08
7067.1, -4.154e-08
7069.1, -4.015e-08
7071.1, -3.852e-08
7073.1, -3.977e-08
7075.1, -3.544e-08
7077.1, -4.003e-08
7079.1, -4.083e-08
7081.1, -4.202e-08
7083.1, -4.039e-08
7085.1, -3.756e-08
7087.1, -4.075e-08
7089.1, -4.574e-08
7091.1, -4.127e-08
7093.1, -3.903e-08
7095.1, -4.04e-08
7097.1, -4.35e-08
7099.1, -4.204e-08
7101.1, -3.988e-08
7103.1, -4.059e-08
7105.1, -4.041e-08
7107.1, -3.991e-08
7109.1, -3.975e-08
7111.1, -4.342e-08
7113.1, -4.217e-08
7115.1, -3.894e-08
7117.1, -3.796e-08
7119.1, -3.761e-08
7121.1, -3.893e-08
7123.1, -3.798e-08
7125.1, -3.895e-08
7127.1, -4.368e-08
7129.1, -3.771e-08
7131.1, -3.863e-08
7133.1, -4.097e-08
7135.1, -3.964e-08
7137.1, -4.099e-08
7139.1, -3.768e-08
7141.1, -4.292e-08
7143.1, -3.995e-08
7145.1, -3.984e-08
7147.1, -3.746e-08
7149.1, -4.112e-08
7151.1, -4.027e-08
7153.1, -4.207e-08
7155.1, -3.799e-08
7157.1, -4.261e-08
7159.2, -3.718e-08
7161.2, -3.794e-08
7163.2, -3.803e-08
7165.2, -4.011e-08
7167.2, -4.07e-08
7169.2, -3.897e-08
7171.2, -4.086e-08
7173.2, -4.003e-08
7175.2, -3.754e-08
7177.2, -4.053e-08
7179.2, -4.061e-08
7181.2, -3.784e-08
7183.2, -3.871e-08
7185.2, -4.054e-08
7187.2, -4.409e-08
7189.2, -4.072e-08
7191.2, -4.441e-08
7193.2, -4.271e-08
7195.2, -3.917e-08
7197.2, -4.137e-08
7199.2, -4.097e-08
7201.2, -4.674e-08
7203.2, -4.603e-08
7205.2, -4.413e-08
7207.2, -4.243e-08
7209.2, -4.241e-08
7211.2, -4.679e-08
7213.2, -4.007e-08
7215.2, -4.354e-08
7217.2, -4.118e-08
7219.2, -4.189e-08
7221.2, -4.013e-08
7223.2, -4.303e-08
7225.2, -4.203e-08
7227.2, -3.994e-08
7229.2, -4.093e-08
7231.2, -4.224e-08
7233.2, -3.927e-08
7235.2, -4.16e-08
7237.2, -3.912e-08
7239.2, -3.897e-08
7241.2, -4.065e-08
7243.2, -3.887e-08
7245.2, -3.565e-08
7247.2, -4.107e-08
7249.2, -3.71e-08
7251.2, -3.983e-08
7253.2, -3.504e-08
7255.2, -3.634e-08
7257.2, -4.09e-08
7259.3, -4.01e-08
7261.3, -3.667e-08
7263.3, -3.956e-08
7265.3, -3.624e-08
7267.3, -3.272e-08
7269.3, -3.823e-08
7271.3, -3.618e-08
7273.3, -4.086e-08
7275.3, -4.263e-08
7277.3, -4.427e-08
7279.3, -4.251e-08
7281.3, -4.285e-08
7283.3, -4.164e-08
7285.3, -4.084e-08
7287.3, -4.245e-08
7289.3, -4.466e-08
7291.3, -3.957e-08
7293.3, -4.073e-08
7295.3, -4.021e-08
7297.3, -4.301e-08
7299.3, -4.041e-08
7301.3, -4.231e-08
7303.3, -4.352e-08
7305.3, -4.321e-08
7307.3, -4.114e-08
7309.3, -3.759e-08
7311.3, -3.7e-08
7313.3, -3.95e-08
7315.3, -3.798e-08
7317.3, -4.22e-08
7319.3, -3.994e-08
7321.3, -3.901e-08
7323.3, -3.582e-08
7325.3, -3.638e-08
7327.3, -3.959e-08
7329.3, -3.548e-08
7331.3, -3.459e-08
7333.3, -3.842e-08
7335.3, -3.935e-08
7337.3, -4.038e-08
7339.3, -3.948e-08
7341.3, -4.275e-08
7343.3, -3.907e-08
7345.3, -3.832e-08
7347.3, -3.884e-08
7349.3, -3.895e-08
7351.3, -3.848e-08
7353.3, -4.469e-08
7355.3, -3.929e-08
7357.3, -4.179e-08
7359.4, -4.178e-08
7361.4, -3.891e-08
7363.4, -4.305e-08
7365.4, -4.636e-08
7367.4, -3.936e-08
7369.4, -4.118e-08
7371.4, -4.209e-08
7373.4, -4.444e-08
7375.4, -4.392e-08
7377.4, -4.148e-08
7379.4, -4.249e-08
7381.4, -4.196e-08
7383.4, -4.274e-08
7385.4, -3.879e-08
7387.4, -4.175e-08
7389.4, -4.144e-08
7391.4, -4.174e-08
7393.4, -4.243e-08
7395.4, -4.266e-08
7397.4, -4.015e-08
7399.4, -4.117e-08
7401.4, -4.172e-08
7403.4, -4.149e-08
7405.4, -4.113e-08
7407.4, -4.085e-08
7409.4, -3.862e-08
7411.4, -3.868e-08
7413.4, -3.639e-08
7415.4, -3.545e-08
7417.4, -3.875e-08
7419.4, -3.913e-08
7421.4, -3.669e-08
7423.4, -3.727e-08
7425.4, -3.521e-08
7427.4, -3.947e-08
7429.4, -3.822e-08
7431.4, -3.431e-08
7433.4, -3.448e-08
7435.4, -3.995e-08
7437.4, -3.925e-08
7439.4, 1.1529e-06
7441.4, 8.8209e-07
7443.4, 8.6154e-07
7445.4, 9.5114e-07
7447.4, 9.5056e-07
7449.4, 8.6772e-07
7451.4, 9.8569e-07
7453.4, 9.2825e-07
7455.4, 9.1484e-07
7457.4, 9.0595e-07
7459.5, 1.2285e-06
7461.5, 8.676e-07
7463.5, 1.0887e-06
7465.5, 1.206e-06
7467.5, 7.5092e-07
7469.5, 1.2308e-06
7471.5, 9.9703e-07
7473.5, 9.4883e-07
7475.5, 1.165e-06
7477.5, 7.4993e-07
7479.5, 1.3964e-06
7481.5, 1.0569e-06
7483.5, 1.363e-06
7485.5, 9.9627e-07
7487.5, 9.5171e-07
7489.5, 8.825e-07
7491.5, 1.3192e-06
7493.5, 1.0413e-06
7495.5, 1.5844e-06
7497.5, 1.3228e-06
7499.5, 1.2054e-06
7501.5, 1.0184e-06
7503.5, 1.3077e-06
7505.5, 1.1024e-06
7507.5, 1.2658e-06
7509.5, 1.3785e-06
7511.5, 1.358e-06
7513.5, 9.4672e-07
7515.5, 1.197e-06
7517.5, 1.2069e-06
7519.5, 1.2357e-06
7521.5, 1.0838e-06
7523.5, 1.4383e-06
7525.5, 1.1326e-06
7527.5, 1.3498e-06
7529.5, 1.1587e-06
7531.5, 1.5316e-06
7533.5, 1.1362e-06
7535.5, 1.116e-06
7537.5, 9.8792e-07
7539.5, 1.2055e-06
7541.5, 1.1802e-06
7543.5, 1.3918e-06
7545.5, 1.1839e-06
7547.5, 1.3244e-06
7549.5, 1.1975e-06
7551.5, 1.233e-06
7553.5, 1.3054e-06
7555.5, 1.1689e-06
7557.5, 1.324e-06
7559.6, 7.1269e-07
7561.6, 1.681e-06
7563.6, 1.2067e-06
7565.6, 1.0052e-06
7567.6, 8.9513e-07
7569.6, 1.3714e-06
7571.6, 1.2731e-06
7573.6, 1.3506e-06
7575.6, 1.0556e-06
7577.6, 1.1122e-06
7579.6, 1.4431e-06
7581.6, 1.3832e-06
7583.6, 1.1705e-06
7585.6, 1.4921e-06
7587.6, 1.3749e-06
7589.6, 1.2412e-06
7591.6, 1.0103e-06
7593.6, 1.3032e-06
7595.6, 1.0295e-06
7597.6, 1.2448e-06
7599.6, 1.1929e-06
7601.6, 1.223e-06
7603.6, 1.4132e-06
7605.6, 1.365e-06
7607.6, 1.0952e-06
7609.6, 1.1506e-06
7611.6, 1.3863e-06
7613.6, 1.4648e-06
7615.6, 1.1848e-06
7617.6, 9.3325e-07
7619.6, 1.1304e-06
7621.6, 1.3053e-06
7623.6, 1.2452e-06
7625.6, 1.22e-06
7627.6, 1.3526e-06
7629.6, 1.2694e-06
7631.6, 1.1569e-06
7633.6, 1.4588e-06
7635.6, 1.2512e-06
7637.6, 1.3013e-06
7639.6, 1.2561e-06
7641.6, 1.1789e-06
7643.6, 1.1814e-06
7645.6, 1.2187e-06
7647.6, 1.2864e-06
7649.6, 1.2416e-06
7651.6, 1.3651e-06
7653.6, 1.3601e-06
7655.6, 1.2454e-06
7657.6, 1.3056e-06
7659.7, 1.3892e-06
7661.7, 1.2877e-06
7663.7, 1.1552e-06
7665.7, 1.6115e-06
7667.7, 9.2166e-07
7669.7, 1.2919e-06
7671.7, 1.3087e-06
7673.7, 1.3414e-06
7675.7, 9.8618e-07
7677.7, 8.5626e-07
7679.7, 1.0136e-06
7681.7, 1.2514e-06
7683.7, 1.3467e-06
7685.7, 1.1993e-06
7687.7, 1.0741e-06
7689.7, 1.4001e-06
7691.7, 1.3958e-06
7693.7, 9.0818e-07
7695.7, 1.1235e-06
7697.7, 1.4585e-06
7699.7, 1.5869e-06
7701.7, 1.333e-06
7703.7, 1.3494e-06
7705.7, 1.2994e-06
7707.7, 1.2554e-06
7709.7, 1.6903e-06
7711.7, 9.47e-07
7713.7, 1.3499e-06
7715.7, 9.8996e-07
7717.7, 1.3803e-06
7719.7, 8.8202e-07
7721.7, 1.6516e-06
7723.7, 1.6793e-06
7725.7, 1.2387e-06
7727.7, 9.2559e-07
7729.7, 1.2354e-06
7731.7, 1.4661e-06
7733.7, 1.4302e-06
7735.7, 1.5938e-06
7737.7, 1.2606e-06
7739.7, 9.6786e-07
7741.7, 1.4342e-06
7743.7, 1.0386e-06
7745.7, 1.1853e-06
7747.7, 1.1251e-06
7749.7, 1.5267e-06
7751.7, 1.1918e-06
7753.7, 1.1264e-06
7755.7, 1.6472e-06
7757.7, 1.4578e-06
7759.8, 1.241e-06
7761.8, 1.1662e-06
7763.8, 1.3319e-06
7765.8, 1.3971e-06
7767.8, 1.4566e-06
7769.8, 1.5933e-06
7771.8, 1.1967e-06
7773.8, 1.2193e-06
7775.8, 1.6727e-06
7777.8, 1.0598e-06
7779.8, 1.4108e-06
7781.8, 1.3862e-06
7783.8, 1.4215e-06
7785.8, 1.4592e-06
7787.8, 1.257e-06
7789.8, 1.223e-06
7791.8, 1.3141e-06
7793.8, 1.1663e-06
7795.8, 1.0334e-06
7797.8, 1.3397e-06
7799.8, 1.2087e-06
7801.8, 1.3388e-06
7803.8, 1.2973e-06
7805.8, 1.1946e-06
7807.8, 1.2875e-06
7809.8, 1.105e-06
7811.8, 9.3951e-07
7813.8, 1.3348e-06
7815.8, 1.3516e-06
7817.8, 1.4502e-06
7819.8, 1.3464e-06
7821.8, 1.1256e-06
7823.8, 1.8642e-06
7825.8, 1.5173e-06
7827.8, 1.0953e-06
7829.8, 1.475e-06
7831.8, 1.2762e-06
7833.8, 1.6636e-06
7835.8, 1.3124e-06
7837.8, 1.1394e-06
7839.8, 1.4732e-06
7841.8, 1.1885e-06
7843.8, 1.4561e-06
7845.8, 1.3371e-06
7847.8, 1.4156e-06
7849.8, 1.2193e-06
7851.8, 1.4807e-06
7853.8, 1.7276e-06
7855.8, 1.35e-06
7857.8, 1.5474e-06
7859.9, 1.0596e-06
7861.9, 1.1963e-06
7863.9, 1.2681e-06
7865.9, 1.17e-06
7867.9, 1.4126e-06
7869.9, 9.6715e-07
7871.9, 2.1985e-06
7873.9, 1.4683e-06
7875.9, 1.4624e-06
7877.9, 1.3852e-06
7879.9, 1.3283e-06
7881.9, 1.5347e-06
7883.9, 1.1339e-06
7885.9, 1.2672e-06
7887.9, 1.1204e-06
7889.9, 1.4431e-06
7891.9, 1.3214e-06
7893.9, 1.5417e-06
7895.9, 1.5503e-06
7897.9, 1.6268e-06
7899.9, 1.1677e-06
7901.9, 1.2283e-06
7903.9, 1.2724e-06
7905.9, 1.1882e-06
7907.9, 1.1312e-06
7909.9, 1.3771e-06
7911.9, 9.9775e-07
7913.9, 1.4891e-06
7915.9, 1.6159e-06
7917.9, 1.176e-06
7919.9, 1.1769e-06
7921.9, 1.6302e-06
7923.9, 1.347e-06
7925.9, 1.1813e-06
7927.9, 1.1777e-06
7929.9, 1.496e-06
7931.9, 1.0822e-06
7933.9, 1.0148e-06
7935.9, 1.2173e-06
7937.9, 1.824e-06
7939.9, 1.3128e-06
7941.9, 1.1617e-06
7943.9, 1.6093e-06
7945.9, 1.3557e-06
7947.9, 1.6379e-06
7949.9, 2.0261e-06
7951.9, 1.351e-06
7953.9, 1.1083e-06
7955.9, 1.3025e-06
7957.9, 1.4346e-06
7960.0, 1.1292e-06
7962.0, 1.4286e-06
7964.0, 1.6746e-06
7966.0, 1.2292e-06
7968.0, 1.1691e-06
7970.0, 1.3788e-06
7972.0, 1.0609e-06
7974.0, 1.5133e-06
7976.0, 1.2296e-06
7978.0, 1.3014e-06
7980.0, 1.091e-06
7982.0, 1.5056e-06
7984.0, 1.3866e-06
7986.0, 1.0883e-06
7988.0, 1.3002e-06
7990.0, 1.181e-06
7992.0, 1.3082e-06
7994.0, 9.559e-07
7996.0, 1.7401e-06
7998.0, 1.4817e-06
8000.0, 1.2663e-06
8002.0, 1.3464e-06
8004.0, 1.1912e-06
8006.0, 1.2557e-06
8008.0, 1.451e-06
8010.0, 1.3618e-06
8012.0, 1.52e-06
8014.0, 1.2576e-06
8016.0, 1.3279e-06
8018.0, 1.1228e-06
8020.0, 1.2151e-06
8022.0, 1.1702e-06
8024.0, 1.5785e-06
8026.0, 1.7045e-06
8028.0, 1.2135e-06
8030.0, 1.2835e-06
8032.0, 1.1048e-06
8034.0, 9.5112e-07
8036.0, 1.2867e-06
8038.0, 1.5801e-06
8040.0, 1.224e-06
8042.0, 1.7168e-06
8044.0, 1.1522e-06
8046.0, 1.6433e-06
8048.0, 1.3655e-06
8050.0, 1.4365e-06
8052.0, 1.1468e-06
8054.0, 1.31e-06
8056.0, 1.3567e-06
8058.0, 1.1621e-06
8060.1, 1.2662e-06
8062.1, 1.2428e-06
8064.1, 1.2689e-06
8066.1, 1.3481e-06
8068.1, 1.5851e-06
8070.1, 1.3747e-06
8072.1, 1.2461e-06
8074.1, 1.1292e-06
8076.1, 1.5062e-06
8078.1, 1.5786e-06
8080.1, 1.1824e-06
8082.1, 1.0879e-06
8084.1, 1.5279e-06
8086.1, 1.1724e-06
8088.1, 1.3725e-06
8090.1, 1.2794e-06
8092.1, 1.1667e-06
8094.1, 1.4087e-06
8096.1, 1.2165e-06
8098.1, 1.4544e-06
8100.1, 1.0489e-06
8102.1, 1.3298e-06
8104.1, 1.2628e-06
8106.1, 1.3581e-06
8108.1, 1.6258e-06
8110.1, 1.1881e-06
8112.1, 1.3533e-06
8114.1, 1.5485e-06
8116.1, 1.6209e-06
8118.1, 1.2959e-06
8120.1, 1.4029e-06
8122.1, 1.3415e-06
8124.1, 1.4742e-06
8126.1, 1.2865e-06
8128.1, 1.4257e-06
8130.1, 1.27e-06
8132.1, 1.4957e-06
8134.1, 1.4533e-06
8136.1, 1.3073e-06
8138.1, 1.1599e-06
8140.1, 1.5954e-06
8142.1, 1.1517e-06
8144.1, 1.5769e-06
8146.1, 1.5552e-06
8148.1, 1.2229e-06
8150.1, 1.341e-06
8152.1, 1.4531e-06
8154.1, 1.5137e-06
8156.1, 1.4207e-06
8158.1, 1.5987e-06
8160.2, 1.5187e-06
8162.2, 1.5252e-06
8164.2, 1.2175e-06
8166.2, 1.5837e-06
8168.2, 1.5391e-06
8170.2, 1.4803e-06
8172.2, 1.2957e-06
8174.2, 1.5898e-06
8176.2, 1.3368e-06
8178.2, 1.2676e-06
8180.2, 1.497e-06
8182.2, 1.4738e-06
8184.2, 1.4947e-06
8186.2, 1.4346e-06
8188.2, 1.3831e-06
8190.2, 1.2925e-06
8192.2, 1.2269e-06
8194.2, 1.3494e-06
8196.2, 1.622e-06
8198.2, 1.3365e-06
8200.2, 1.4104e-06
8202.2, 1.2104e-06
8204.2, 1.9269e-06
8206.2, 1.8302e-06
8208.2, 1.2455e-06
8210.2, 1.4393e-06
8212.2, 1.5531e-06
8214.2, 1.5921e-06
8216.2, 1.6886e-06
8218.2, 1.4818e-06
8220.2, 1.5047e-06
8222.2, 1.623e-06
8224.2, 1.4759e-06
8226.2, 1.3302e-06
8228.2, 1.3975e-06
8230.2, 1.6112e-06
8232.2, 1.6008e-06
8234.2, 1.2071e-06
8236.2, 1.1471e-06
8238.2, 1.6701e-06
8240.2, 1.1222e-06
8242.2, 1.5147e-06
8244.2, 1.5596e-06
8246.2, 1.5163e-06
8248.2, 1.7697e-06
8250.2, 1.4046e-06
8252.2, 1.5124e-06
8254.2, 1.0334e-06
8256.2, 1.4479e-06
8258.2, 1.7232e-06
8260.3, 1.5911e-06
8262.3, 1.5976e-06
8264.3, 1.3821e-06
8266.3, 1.3397e-06
8268.3, 1.5793e-06
8270.3, 1.4714e-06
8272.3, 1.539e-06
8274.3, 1.682e-06
8276.3, 1.5504e-06
8278.3, 1.5173e-06
8280.3, 1.5244e-06
8282.3, 1.5368e-06
8284.3, 1.3455e-06
8286.3, 1.288e-06
8288.3, 1.1607e-06
8290.3, 1.6687e-06
8292.3, 1.0956e-06
8294.3, 1.4867e-06
8296.3, 1.7971e-06
8298.3, 1.4718e-06
8300.3, 1.4786e-06
8302.3, 8.5273e-07
8304.3, 1.5325e-06
8306.3, 1.5036e-06
8308.3, 1.5076e-06
8310.3, 1.5743e-06
8312.3, 1.4342e-06
8314.3, 1.6519e-06
8316.3, 1.5781e-06
8318.3, 1.5391e-06
8320.3, 1.1417e-06
8322.3, 1.2244e-06
8324.3, 1.2765e-06
8326.3, 1.5009e-06
8328.3, 1.6883e-06
8330.3, 1.2284e-06
8332.3, 1.404e-06
8334.3, 1.1483e-06
8336.3, 1.3966e-06
8338.3, 1.2463e-06
8340.3, 1.662e-06
8342.3, 1.474e-06
8344.3, 1.577e-06
8346.3, 9.8364e-07
8348.3, 1.3224e-06
8350.3, 1.4049e-06
8352.3, 1.0123e-06
8354.3, 1.4204e-06
8356.3, 1.7333e-06
8358.3, 1.3502e-06
8360.4, 1.3836e-06
8362.4, 1.4873e-06
8364.4, 1.7836e-06
8366.4, 1.4143e-06
8368.4, 1.3541e-06
8370.4, 1.558e-06
8372.4, 1.2592e-06
8374.4, 1.3781e-06
8376.4, 1.392e-06
8378.4, 1.2137e-06
8380.4, 1.5794e-06
8382.4, 2.0234e-06
8384.4, 1.0726e-06
8386.4, 1.2499e-06
8388.4, 1.1244e-06
8390.4, 1.4187e-06
8392.4, 1.4532e-06
8394.4, 1.1161e-06
8396.4, 1.784e-06
8398.4, 8.4301e-07
8400.4, 1.2188e-06
8402.4, 1.4492e-06
8404.4, 1.5325e-06
8406.4, 1.569e-06
8408.4, 1.5632e-06
8410.4, 1.4543e-06
8412.4, 1.1989e-06
8414.4, 1.1023e-06
8416.4, 1.4066e-06
8418.4, 1.5228e-06
8420.4, 1.3861e-06
8422.4, 1.3201e-06
8424.4, 1.38e-06
8426.4, 1.3699e-06
8428.4, 1.5508e-06
8430.4, 1.4535e-06
8432.4, 1.1609e-06
8434.4, 1.5262e-06
8436.4, 1.5019e-06
8438.4, 1.2906e-06
8440.4, -3.191e-08
8442.4, -3.598e-08
8444.4, -3.559e-08
8446.4, -3.616e-08
8448.4, -3.718e-08
8450.4, -3.869e-08
8452.4, -3.859e-08
8454.4, -3.517e-08
8456.4, -3.755e-08
8458.4, -3.558e-08
8460.5, -3.601e-08
8462.5, -3.637e-08
8464.5, -3.498e-08
8466.5, -3.501e-08
8468.5, -3.847e-08
8470.5, -3.489e-08
8472.5, -3.53e-08
8474.5, -3.516e-08
8476.5, -3.814e-08
8478.5, -3.603e-08
8480.5, -3.495e-08
8482.5, -3.84e-08
8484.5, -4.025e-08
8486.5, -3.915e-08
8488.5, -4.06e-08
8490.5, -3.952e-08
8492.5, -4.124e-08
8494.5, -4.059e-08
8496.5, -4.085e-08
8498.5, -3.528e-08
8500.5, -4.182e-08
8502.5, -3.956e-08
8504.5, -4.545e-08
8506.5, -4.146e-08
8508.5, -3.957e-08
8510.5, -3.913e-08
8512.5, -3.89e-08
8514.5, -3.898e-08
8516.5, -3.727e-08
8518.5, -3.338e-08
8520.5, -3.727e-08
8522.5, -3.716e-08
8524.5, -3.588e-08
8526.5, -3.572e-08
8528.5, -3.797e-08
8530.5, -3.751e-08
8532.5, -3.492e-08
8534.5, -3.379e-08
8536.5, -3.787e-08
8538.5, -3.625e-08
8540.5, -3.932e-08
8542.5, -4.083e-08
8544.5, -4.074e-08
8546.5, -4.152e-08
8548.5, -4.343e-08
8550.5, -4.075e-08
8552.5, -4.004e-08
8554.5, -3.733e-08
8556.5, -3.95e-08
8558.5, -4.074e-08
8560.6, -3.88e-08
8562.6, -3.73e-08
8564.6, -3.599e-08
8566.6, -3.829e-08
8568.6, -3.804e-08
8570.6, -3.669e-08
8572.6, -3.841e-08
8574.6, -3.923e-08
8576.6, -3.661e-08
8578.6, -3.14e-08
8580.6, -3.626e-08
8582.6, -3.322e-08
8584.6, -3.428e-08
8586.6, -3.29e-08
8588.6, -3.483e-08
8590.6, -3.179e-08
8592.6, -3.737e-08
8594.6, -3.604e-08
8596.6, -3.636e-08
8598.6, -3.829e-08
8600.6, -3.401e-08
8602.6, -3.899e-08
8604.6, -3.724e-08
8606.6, -3.469e-08
8608.6, -3.781e-08
8610.6, -3.707e-08
8612.6, -3.173e-08
8614.6, -3.43e-08
8616.6, -3.888e-08
8618.6, -3.981e-08
8620.6, -3.733e-08
8622.6, -3.991e-08
8624.6, -3.723e-08
8626.6, -3.777e-08
8628.6, -3.964e-08
8630.6, -4.11e-08
8632.6, -3.728e-08
8634.6, -3.456e-08
8636.6, -3.341e-08
8638.6, -3.487e-08
8640.6, -3.738e-08
8642.6, -3.724e-08
8644.6, -3.907e-08
8646.6, -3.876e-08
8648.6, -3.88e-08
8650.6, -3.761e-08
8652.6, -3.587e-08
8654.6, -3.561e-08
8656.6, -3.256e-08
8658.6, -3.372e-08
8660.7, -3.342e-08
8662.7, -3.253e-08
8664.7, -3.739e-08
8666.7, -3.784e-08
8668.7, -3.683e-08
8670.7, -3.841e-08
8672.7, -3.561e-08
8674.7, -3.791e-08
8676.7, -3.536e-08
8678.7, -3.709e-08
8680.7, -3.686e-08
8682.7, -3.399e-08
8684.7, -3.678e-08
8686.7, -3.712e-08
8688.7, -3.667e-08
8690.7, -3.824e-08
8692.7, -3.747e-08
8694.7, -3.908e-08
8696.7, -3.829e-08
8698.7, -3.959e-08
8700.7, -3.795e-08
8702.7, -3.703e-08
8704.7, -3.462e-08
8706.7, -3.669e-08
8708.7, -3.842e-08
8710.7, -3.285e-08
8712.7, -3.554e-08
8714.7, -4.053e-08
8716.7, -3.839e-08
8718.7, -3.946e-08
8720.7, -3.786e-08
8722.7, -3.746e-08
8724.7, -3.722e-08
8726.7, -4.102e-08
8728.7, -3.899e-08
8730.7, -3.469e-08
8732.7, -3.76e-08
8734.7, -3.564e-08
8736.7, -3.728e-08
8738.7, -3.878e-08
8740.7, -3.861e-08
8742.7, -4.06e-08
8744.7, -4.064e-08
8746.7, -4.226e-08
8748.7, -3.815e-08
8750.7, -4.154e-08
8752.7, -3.986e-08
8754.7, -3.744e-08
8756.7, -3.745e-08
8758.7, -3.833e-08
8760.8, -3.699e-08
8762.8, -3.712e-08
8764.8, -3.566e-08
8766.8, -3.962e-08
8768.8, -3.812e-08
8770.8, -3.919e-08
8772.8, -3.982e-08
8774.8, -3.93e-08
8776.8, -4.326e-08
8778.8, -4.141e-08
8780.8, -4.084e-08
8782.8, -3.961e-08
8784.8, -3.748e-08
8786.8, -4.085e-08
8788.8, -4.288e-08
8790.8, -4.423e-08
8792.8, -4.084e-08
8794.8, -4.118e-08
8796.8, -3.892e-08
8798.8, -4.076e-08
8800.8, -4.014e-08
8802.8, -3.793e-08
8804.8, -4.291e-08
8806.8, -4.188e-08
8808.8, -4.033e-08
8810.8, -4.047e-08
8812.8, -4.39e-08
8814.8, -4.207e-08
8816.8, -4.225e-08
8818.8, -4.127e-08
8820.8, -4.103e-08
8822.8, -3.96e-08
8824.8, -4.455e-08
8826.8, -4.137e-08
8828.8, -3.984e-08
8830.8, -4.256e-08
8832.8, -4.19e-08
8834.8, -4.015e-08
8836.8, -3.623e-08
8838.8, -3.948e-08
8840.8, -3.828e-08
8842.8, -3.549e-08
8844.8, -3.752e-08
8846.8, -3.996e-08
8848.8, -3.852e-08
8850.8, -3.752e-08
8852.8, -4.061e-08
8854.8, -3.707e-08
8856.8, -3.658e-08
8858.8, -3.751e-08
8860.9, -3.944e-08
8862.9, -4.105e-08
8864.9, -3.459e-08
8866.9, -3.608e-08
8868.9, -3.837e-08
8870.9, -3.652e-08
8872.9, -4.135e-08
8874.9, -3.552e-08
8876.9, -3.774e-08
8878.9, -3.635e-08
8880.9, -3.736e-08
8882.9, -3.603e-08
8884.9, -3.822e-08
8886.9, -3.752e-08
8888.9, -3.596e-08
8890.9, -3.742e-08
8892.9, -3.921e-08
8894.9, -3.626e-08
8896.9, -3.84e-08
8898.9, -3.81e-08
8900.9, -3.861e-08
8902.9, -3.478e-08
8904.9, -3.593e-08
8906.9, -3.626e-08
8908.9, -3.705e-08
8910.9, -3.776e-08
8912.9, -3.472e-08
8914.9, -3.766e-08
8916.9, -4.001e-08
8918.9, -3.636e-08
8920.9, -4.012e-08
8922.9, -4.011e-08
8924.9, -4.242e-08
8926.9, -3.688e-08
8928.9, -3.951e-08
8930.9, -3.773e-08
8932.9, -4.008e-08
8934.9, -4.08e-08
8936.9, -3.631e-08
8938.9, -4.056e-08
8940.9, -4.276e-08
8942.9, -4.352e-08
8944.9, -4.032e-08
8946.9, -3.953e-08
8948.9, -4.053e-08
8950.9, -4.171e-08
8952.9, -3.933e-08
8954.9, -3.88e-08
8956.9, -3.708e-08
8958.9, -4.038e-08
8961.0, -3.757e-08
8963.0, -3.722e-08
8965.0, -3.99e-08
8967.0, -3.88e-08
8969.0, -3.756e-08
8971.0, -4.302e-08
8973.0, -3.992e-08
8975.0, -4.151e-08
8977.0, -4.129e-08
8979.0, -3.913e-08
8981.0, -3.928e-08
8983.0, -4.141e-08
8985.0, -3.969e-08
8987.0, -4.011e-08
8989.0, -3.972e-08
8991.0, -3.856e-08
8993.0, -4.354e-08
8995.0, -4.021e-08
8997.0, -3.902e-08
8999.0, -3.836e-08
9001.0, -3.906e-08
9003.0, -3.789e-08
9005.0, -4.043e-08
9007.0, -4.166e-08
9009.0, -4.548e-08
9011.0, -4.311e-08
9013.0, -4.144e-08
9015.0, -3.976e-08
9017.0, -4.017e-08
9019.0, -4.047e-08
9021.0, -4.05e-08
9023.0, -3.718e-08
9025.0, -3.904e-08
9027.0, -3.833e-08
9029.0, -4.132e-08
9031.0, -4.397e-08
9033.0, -4.342e-08
9035.0, -4.02e-08
9037.0, -3.713e-08
9039.0, -3.513e-08
9041.0, -4.092e-08
9043.0, -3.937e-08
9045.0, -3.853e-08
9047.0, -3.609e-08
9049.0, -4.084e-08
9051.0, -3.77e-08
9053.0, -3.613e-08
9055.0, -4.061e-08
9057.0, -3.928e-08
9059.0, -3.944e-08
9061.1, -3.555e-08
9063.1, -3.675e-08
9065.1, -3.778e-08
9067.1, -3.562e-08
9069.1, -4.18e-08
9071.1, -3.882e-08
9073.1, -3.676e-08
9075.1, -3.818e-08
9077.1, -3.945e-08
9079.1, -3.836e-08
9081.1, -3.867e-08
9083.1, -3.456e-08
9085.1, -3.64e-08
9087.1, -3.884e-08
9089.1, -3.904e-08
9091.1, -3.952e-08
9093.1, -3.986e-08
9095.1, -3.856e-08
9097.1, -3.85e-08
9099.1, -3.875e-08
9101.1, -4.252e-08
9103.1, -4.19e-08
9105.1, -3.851e-08
9107.1, -3.979e-08
9109.1, -4.081e-08
9111.1, -3.858e-08
9113.1, -3.874e-08
9115.1, -3.596e-08
9117.1, -3.787e-08
9119.1, -3.65e-08
9121.1, -3.304e-08
9123.1, -3.277e-08
9125.1, -3.702e-08
9127.1, -3.517e-08
9129.1, -3.983e-08
9131.1, -3.852e-08
9133.1, -3.481e-08
9135.1, -3.947e-08
9137.1, -3.66e-08
9139.1, -3.832e-08
9141.1, -3.533e-08
9143.1, -3.278e-08
9145.1, -3.351e-08
9147.1, -3.537e-08
9149.1, -4.042e-08
9151.1, -3.932e-08
9153.1, -3.53e-08
9155.1, -3.426e-08
9157.1, -3.729e-08
9159.1, -3.836e-08
9161.2, -3.928e-08
9163.2, -3.7e-08
9165.2, -3.744e-08
9167.2, -3.674e-08
9169.2, -3.98e-08
9171.2, -3.865e-08
9173.2, -4.17e-08
9175.2, -3.976e-08
9177.2, -3.579e-08
9179.2, -3.959e-08
9181.2, -4.168e-08
9183.2, -4.281e-08
9185.2, -4.158e-08
9187.2, -4.167e-08
9189.2, -3.894e-08
9191.2, -4.391e-08
9193.2, -3.877e-08
9195.2, -4.101e-08
9197.2, -3.778e-08
9199.2, -4.103e-08
9201.2, -3.553e-08
9203.2, -3.559e-08
9205.2, -3.982e-08
9207.2, -3.748e-08
9209.2, -3.962e-08
9211.2, -3.534e-08
9213.2, -3.89e-08
9215.2, -3.811e-08
9217.2, -3.987e-08
9219.2, -3.952e-08
9221.2, -3.999e-08
9223.2, -4.255e-08
9225.2, -3.743e-08
9227.2, -3.877e-08
9229.2, -3.81e-08
9231.2, -3.774e-08
9233.2, -3.786e-08
9235.2, -3.841e-08
9237.2, -3.83e-08
9239.2, -3.758e-08
9241.2, -3.494e-08
9243.2, -3.67e-08
9245.2, -3.869e-08
9247.2, -4.191e-08
9249.2, -3.656e-08
9251.2, -3.709e-08
9253.2, -3.548e-08
9255.2, -3.885e-08
9257.2, -3.947e-08
9259.2, -3.532e-08
9261.3, -3.574e-08
9263.3, -3.697e-08
9265.3, -3.482e-08
9267.3, -3.672e-08
9269.3, -3.718e-08
9271.3, -3.88e-08
9273.3, -3.428e-08
9275.3, -3.335e-08
9277.3, -3.429e-08
9279.3, -3.766e-08
9281.3, -4.04e-08
9283.3, -3.726e-08
9285.3, -3.77e-08
9287.3, -4.039e-08
9289.3, -3.853e-08
9291.3, -3.964e-08
9293.3, -4.195e-08
9295.3, -3.865e-08
9297.3, -3.796e-08
9299.3, -3.982e-08
9301.3, -4.085e-08
9303.3, -3.756e-08
9305.3, -4.266e-08
9307.3, -3.943e-08
9309.3, -4.113e-08
9311.3, -3.955e-08
9313.3, -3.384e-08
9315.3, -3.792e-08
9317.3, -3.77e-08
9319.3, -3.839e-08
9321.3, -4.173e-08
9323.3, -3.914e-08
9325.3, -4.055e-08
9327.3, -4.244e-08
9329.3, -3.992e-08
9331.3, -3.958e-08
9333.3, -3.847e-08
9335.3, -3.99e-08
9337.3, -3.945e-08
9339.3, -3.916e-08
9341.3, -3.832e-08
9343.3, -3.841e-08
9345.3, -4.102e-08
9347.3, -3.972e-08
9349.3, -4.054e-08
9351.3, -3.75e-08
9353.3, -3.669e-08
9355.3, -3.892e-08
9357.3, -4.105e-08
9359.3, -3.633e-08
9361.4, -3.741e-08
9363.4, -3.896e-08
9365.4, -3.639e-08
9367.4, -3.698e-08
9369.4, -3.783e-08
9371.4, -3.855e-08
9373.4, -4.118e-08
9375.4, -4.026e-08
9377.4, -4.211e-08
9379.4, -4.153e-08
9381.4, -3.77e-08
9383.4, -3.699e-08
9385.4, -4.101e-08
9387.4, -4.054e-08
9389.4, -4.368e-08
9391.4, -4.049e-08
9393.4, -3.893e-08
9395.4, -3.75e-08
9397.4, -3.566e-08
9399.4, -4.288e-08
9401.4, -4.094e-08
9403.4, -3.785e-08
9405.4, -4.201e-08
9407.4, -4.011e-08
9409.4, -3.733e-08
9411.4, -3.916e-08
9413.4, -3.684e-08
9415.4, -3.74e-08
9417.4, -3.929e-08
9419.4, -3.922e-08
9421.4, -3.738e-08
9423.4, -3.724e-08
9425.4, -4.017e-08
9427.4, -4.011e-08
9429.4, -4.176e-08
9431.4, -4.154e-08
9433.4, -4.224e-08
9435.4, -4.157e-08
9437.4, -4.055e-08
9439.4, -4.328e-08
9441.4, -4.117e-08
9443.4, -4.073e-08
9445.4, -3.88e-08
9447.4, -4.103e-08
9449.4, -4.438e-08
9451.4, -4.016e-08
9453.4, -3.882e-08
9455.4, -4.004e-08
9457.4, -3.944e-08
9459.4, -3.846e-08
9461.5, -4.123e-08
9463.5, -4.252e-08
9465.5, -4.421e-08
9467.5, -4.009e-08
9469.5, -4.404e-08
9471.5, -4.044e-08
9473.5, -4.471e-08
9475.5, -4.041e-08
9477.5, -4.275e-08
9479.5, -4.406e-08
9481.5, -4.166e-08
9483.5, -3.768e-08
9485.5, -4.157e-08
9487.5, -4.238e-08
9489.5, -4.116e-08
9491.5, -4.193e-08
9493.5, -4.039e-08
9495.5, -4.028e-08
9497.5, -4.004e-08
9499.5, -4.361e-08
9501.5, -4.44e-08
9503.5, -4.076e-08
9505.5, -4.072e-08
9507.5, -3.746e-08
9509.5, -4.045e-08
9511.5, -4.223e-08
9513.5, -4.466e-08
9515.5, -4.227e-08
9517.5, -4.229e-08
9519.5, -4.295e-08
9521.5, -4.089e-08
9523.5, -4.373e-08
9525.5, -4e-08
9527.5, -4.193e-08
9529.5, -4.318e-08
9531.5, -3.942e-08
9533.5, -3.758e-08
9535.5, -3.893e-08
9537.5, -4.535e-08
9539.5, -3.926e-08
9541.5, -3.562e-08
9543.5, -3.963e-08
9545.5, 5.0398e-07
9547.5, 1.0255e-06
9549.5, 1.1278e-06
9551.5, 8.1266e-07
9553.5, 1.1143e-06
9555.5, 8.2887e-07
9557.5, 1.0812e-06
9559.5, 1.1942e-06
9561.6, 1.0174e-06
9563.6, 1.4461e-06
9565.6, 1.302e-06
9567.6, 1.0177e-06
9569.6, 9.7901e-07
9571.6, 1.2132e-06
9573.6, 1.011e-06
9575.6, 8.7885e-07
9577.6, 1.5093e-06
9579.6, 1.0902e-06
9581.6, 1.2371e-06
9583.6, 9.1647e-07
9585.6, 1.1449e-06
9587.6, 1.2287e-06
9589.6, 1.0932e-06
9591.6, 1.3329e-06
9593.6, 1.089e-06
9595.6, 1.1878e-06
9597.6, 9.6203e-07
9599.6, 8.163e-07
9601.6, 9.3965e-07
9603.6, 1.0067e-06
9605.6, 1.3084e-06
9607.6, 1.1687e-06
9609.6, 1.1586e-06
9611.6, 1.2991e-06
9613.6, 1.4147e-06
9615.6, 8.7809e-07
9617.6, 1.0809e-06
9619.6, 1.0397e-06
9621.6, 1.1021e-06
9623.6, 1.1781e-06
9625.6, 1.0394e-06
9627.6, 1.3825e-06
9629.6, 9.5806e-07
9631.6, 1.1931e-06
9633.6, 9.1041e-07
9635.6, 1.1732e-06
9637.6, 1.236e-06
9639.6, 1.1085e-06
9641.6, 8.6294e-07
9643.6, 1.1004e-06
9645.6, 6.8069e-07
9647.6, 1.4511e-06
9649.6, 1.1107e-06
9651.6, 1.427e-06
9653.6, 1.2286e-06
9655.6, 1.6045e-06
9657.6, 1.3684e-06
9659.6, 1.3532e-06
9661.7, 1.1322e-06
9663.7, 1.2583e-06
9665.7, 1.1936e-06
9667.7, 1.102e-06
9669.7, 1.1728e-06
9671.7, 1.0808e-06
9673.7, 1.3758e-06
9675.7, 1.3722e-06
9677.7, 1.4123e-06
9679.7, 1.1493e-06
9681.7, 1.3857e-06
9683.7, 1.4202e-06
9685.7, 1.3148e-06
9687.7, 1.134e-06
9689.7, 1.4184e-06
9691.7, 1.326e-06
9693.7, 1.0358e-06
9695.7, 1.5368e-06
9697.7, 1.343e-06
9699.7, 1.1632e-06
9701.7, 1.0525e-06
9703.7, 1.4392e-06
9705.7, 1.0912e-06
9707.7, 1.3696e-06
9709.7, 1.6218e-06
9711.7, 1.3586e-06
9713.7, 1.0609e-06
9715.7, 1.0137e-06
9717.7, 9.0276e-07
9719.7, 1.0383e-06
9721.7, 1.39e-06
9723.7, 1.3022e-06
9725.7, 1.0956e-06
9727.7, 1.3612e-06
9729.7, 1.7793e-06
9731.7, 1.3359e-06
9733.7, 1.4769e-06
9735.7, 1.1564e-06
9737.7, 1.0588e-06
9739.7, 1.2423e-06
9741.7, 1.2277e-06
9743.7, 1.3336e-06
9745.7, 1.1545e-06
9747.7, 9.7613e-07
9749.7, 1.5324e-06
9751.7, 1.1013e-06
9753.7, 1.3481e-06
9755.7, 1.2179e-06
9757.7, 1.1807e-06
9759.7, 1.5522e-06
9761.8, 1.447e-06
9763.8, 1.1355e-06
9765.8, 1.287e-06
9767.8, 1.4569e-06
9769.8, 1.2243e-06
9771.8, 1.4207e-06
9773.8, 1.5174e-06
9775.8, 1.3845e-06
9777.8, 1.0719e-06
9779.8, 1.3903e-06
9781.8, 1.1816e-06
9783.8, 1.2219e-06
9785.8, 1.455e-06
9787.8, 1.5758e-06
9789.8, 1.1498e-06
9791.8, 1.348e-06
9793.8, 1.19e-06
9795.8, 1.2801e-06
9797.8, 1.5589e-06
9799.8, 1.3529e-06
9801.8, 1.3338e-06
9803.8, 1.2605e-06
9805.8, 1.3667e-06
9807.8, 1.09e-06
9809.8, 1.7648e-06
9811.8, 1.4321e-06
9813.8, 1.1949e-06
9815.8, 1.1152e-06
9817.8, 1.2923e-06
9819.8, 1.1666e-06
9821.8, 1.1438e-06
9823.8, 1.5155e-06
9825.8, 1.6814e-06
9827.8, 1.3035e-06
9829.8, 1.3314e-06
9831.8, 1.1813e-06
9833.8, 1.0725e-06
9835.8, 1.0338e-06
9837.8, 1.4007e-06
9839.8, 8.5587e-07
9841.8, 1.3435e-06
9843.8, 1.3794e-06
9845.8, 1.428e-06
9847.8, 1.0764e-06
9849.8, 1.5464e-06
9851.8, 1.1207e-06
9853.8, 1.2462e-06
9855.8, 1.1625e-06
9857.8, 1.4494e-06
9859.8, 1.0628e-06
9861.9, 1.2772e-06
9863.9, 1.3895e-06
9865.9, 1.5908e-06
9867.9, 1.386e-06
9869.9, 1.3501e-06
9871.9, 1.2902e-06
9873.9, 1.7366e-06
9875.9, 1.1717e-06
9877.9, 1.1536e-06
9879.9, 1.4661e-06
9881.9, 1.3215e-06
9883.9, 1.6881e-06
9885.9, 1.155e-06
9887.9, 1.3763e-06
9889.9, 1.2544e-06
9891.9, 1.3965e-06
9893.9, 1.5098e-06
9895.9, 1.3309e-06
9897.9, 1.5106e-06
9899.9, 1.3896e-06
9901.9, 1.7624e-06
9903.9, 1.424e-06
9905.9, 1.3996e-06
9907.9, 1.0063e-06
9909.9, 1.5247e-06
9911.9, 1.4414e-06
9913.9, 1.2313e-06
9915.9, 1.2905e-06
9917.9, 1.2546e-06
9919.9, 1.4057e-06
9921.9, 1.4935e-06
9923.9, 1.5635e-06
9925.9, 1.4464e-06
9927.9, 1.1989e-06
9929.9, 1.5618e-06
9931.9, 1.6374e-06
9933.9, 1.3662e-06
9935.9, 1.5445e-06
9937.9, 1.2426e-06
9939.9, 1.576e-06
9941.9, 1.6129e-06
9943.9, 1.538e-06
9945.9, 1.5477e-06
9947.9, 1.7306e-06
9949.9, 1.3848e-06
9951.9, 1.4152e-06
9953.9, 1.5878e-06
9955.9, 1.32e-06
9957.9, 1.5584e-06
9959.9, 1.4164e-06
9962.0, 1.3478e-06
9964.0, 1.533e-06
9966.0, 1.5936e-06
9968.0, 1.5325e-06
9970.0, 1.4117e-06
9972.0, 1.4406e-06
9974.0, 1.2454e-06
9976.0, 1.4811e-06
9978.0, 1.6008e-06
9980.0, 1.5162e-06
9982.0, 1.7286e-06
9984.0, 1.287e-06
9986.0, 1.5744e-06
9988.0, 1.3101e-06
9990.0, 1.4402e-06
9992.0, 1.3115e-06
9994.0, 1.4061e-06
9996.0, 1.4255e-06
9998.0, 1.4056e-06
10000.0, 1.811e-06
10002.0, 1.4698e-06
10004.0, 1.53e-06
10006.0, 1.4128e-06
10008.0, 1.5185e-06
10010.0, 1.4686e-06
10012.0, 1.4262e-06
10014.0, 1.5824e-06
10016.0, 1.9739e-06
10018.0, 1.6383e-06
10020.0, 1.316e-06
10022.0, 1.3143e-06
10024.0, 1.4436e-06
10026.0, 1.3888e-06
10028.0, 1.4084e-06
10030.0, 1.5593e-06
10032.0, 1.3131e-06
10034.0, 1.3319e-06
10036.0, 1.5975e-06
10038.0, 1.5715e-06
10040.0, 1.951e-06
10042.0, 1.7847e-06
10044.0, 1.5274e-06
10046.0, 1.6766e-06
10048.0, 1.7808e-06
10050.0, 1.176e-06
10052.0, 1.5226e-06
10054.0, 1.3436e-06
10056.0, 1.4897e-06
10058.0, 1.5238e-06
10060.0, 1.2045e-06
10062.0, 1.272e-06
10064.0, 1.028e-06
10066.0, 1.1891e-06
10068.0, 1.2858e-06
10070.0, 1.7471e-06
10072.0, 1.8338e-06
10074.0, 1.1848e-06
10076.0, 1.7522e-06
10078.0, 1.1185e-06
10080.0, 1.5495e-06
10082.0, 1.4726e-06
10084.0, 1.6256e-06
10086.0, 1.3789e-06
10088.0, 1.5201e-06
10090.0, 1.1912e-06
10092.0, 1.5277e-06
10094.0, 1.172e-06
10096.0, 1.2199e-06
10098.0, 1.3246e-06
10100.0, 1.6864e-06
10102.0, 1.5862e-06
10104.0, 1.2088e-06
10106.0, 1.7029e-06
10108.0, 9.7611e-07
10110.0, 1.5407e-06
10112.0, 1.119e-06
10114.0, 1.0483e-06
10116.0, 1.1034e-06
10118.0, 1.1929e-06
10120.0, 1.6278e-06
10122.0, 1.4334e-06
10124.0, 1.5774e-06
10126.0, 1.2577e-06
10128.0, 1.1674e-06
10130.0, 1.41e-06
10132.0, 1.7141e-06
10134.0, 1.4916e-06
10136.0, 1.4993e-06
10138.0, 1.5205e-06
10140.0, 1.6544e-06
10142.0, 1.4922e-06
10144.0, 1.469e-06
10146.0, 1.5648e-06
10148.0, 1.7984e-06
10150.0, 1.6602e-06
10152.0, 1.7423e-06
10154.0, 1.6377e-06
10156.0, 1.8707e-06
10158.0, 1.2997e-06
10160.0, 1.1878e-06
10162.0, 1.631e-06
10164.0, 1.5209e-06
10166.0, 1.1994e-06
10168.0, 1.1726e-06
10170.0, 1.5504e-06
10172.0, 1.164e-06
10174.0, 1.42e-06
10176.0, 1.489e-06
10178.0, 1.4807e-06
10180.0, 1.2274e-06
10182.0, 1.6681e-06
10184.0, 1.6454e-06
10186.0, 1.2396e-06
10188.0, 1.4645e-06
10190.0, 1.4035e-06
10192.0, 1.4164e-06
10194.0, 1.3352e-06
10196.0, 1.8616e-06
10198.0, 1.5288e-06
10200.0, 1.4355e-06
10202.0, 1.6107e-06
10204.0, 1.7212e-06
10206.0, 1.3924e-06
10208.0, 1.2963e-06
10210.0, 1.6936e-06
10212.0, 1.8124e-06
10214.0, 1.3459e-06
10216.0, 1.416e-06
10218.0, 1.2936e-06
10220.0, 1.6258e-06
10222.0, 1.4596e-06
10224.0, 1.495e-06
10226.0, 1.5432e-06
10228.0, 1.3607e-06
10230.0, 1.6784e-06
10232.0, 1.2805e-06
10234.0, 1.3721e-06
10236.0, 1.7127e-06
10238.0, 1.8021e-06
10240.0, 1.2792e-06
10242.0, 1.243e-06
10244.0, 1.8731e-06
10246.0, 1.287e-06
10248.0, 1.1757e-06
10250.0, 1.4048e-06
10252.0, 1.3355e-06
10254.0, 1.5329e-06
10256.0, 1.3517e-06
10258.0, 1.6085e-06
10260.0, 1.42e-06
10262.0, 1.4146e-06
10264.0, 1.2844e-06
10266.0, 1.5158e-06
10268.0, 1.5175e-06
10270.0, 1.3731e-06
10272.0, 1.6355e-06
10274.0, 1.3613e-06
10276.0, 1.4035e-06
10278.0, 1.2449e-06
10280.0, 1.1868e-06
10282.0, 1.3225e-06
10284.0, 1.3973e-06
10286.0, 1.7789e-06
10288.0, 1.6487e-06
10290.0, 1.4179e-06
10292.0, 1.4469e-06
10294.0, 1.1832e-06
10296.0, 1.314e-06
10298.0, 1.4172e-06
10300.0, 1.3681e-06
10302.0, 1.2833e-06
10304.0, 1.2645e-06
10306.0, 1.2361e-06
10308.0, 1.0764e-06
10310.0, 1.5528e-06
10312.0, 1.298e-06
10314.0, 1.5029e-06
10316.0, 1.4169e-06
10318.0, 1.4871e-06
10320.0, 1.496e-06
10322.0, 1.3255e-06
10324.0, 1.6567e-06
10326.0, 1.5132e-06
10328.0, 1.3542e-06
10330.0, 1.2489e-06
10332.0, 1.7194e-06
10334.0, 1.3528e-06
10336.0, 1.0903e-06
10338.0, 1.5684e-06
10340.0, 1.5538e-06
10342.0, 1.5026e-06
10344.0, 1.5315e-06
10346.0, 1.093e-06
10348.0, 1.4029e-06
10350.0, 1.3109e-06
10352.0, 1.2658e-06
10354.0, 1.0742e-06
10356.0, 1.7121e-06
10358.0, 1.7065e-06
10360.0, 1.5363e-06
10362.0, 1.771e-06
10364.0, 1.3562e-06
10366.0, 1.5145e-06
10368.0, 1.3773e-06
10370.0, 1.436e-06
10372.0, 1.1223e-06
10374.0, 1.0966e-06
10376.0, 1.3395e-06
10378.0, 1.2657e-06
10380.0, 1.3205e-06
10382.0, 1.5126e-06
10384.0, 1.2341e-06
10386.0, 1.4472e-06
10388.0, 1.5452e-06
10390.0, 1.1128e-06
10392.0, 1.2638e-06
10394.0, 1.6888e-06
10396.0, 1.5144e-06
10398.0, 1.3979e-06
10400.0, 1.6136e-06
10402.0, 1.2221e-06
10404.0, 1.3632e-06
10406.0, 1.5441e-06
10408.0, 1.3228e-06
10410.0, 1.4573e-06
10412.0, 1.6615e-06
10414.0, 1.4979e-06
10416.0, 1.271e-06
10418.0, 1.4913e-06
10420.0, 1.1714e-06
10422.0, 1.4152e-06
10424.0, 1.7108e-06
10426.0, 1.5729e-06
10428.0, 1.859e-06
10430.0, 1.3083e-06
10432.0, 1.1516e-06
10434.0, 1.4622e-06
10436.0, 1.372e-06
10438.0, 1.9219e-06
10440.0, 1.1756e-06
10442.0, 1.1935e-06
10444.0, 1.4958e-06
10446.0, 1.3428e-06
10448.0, 1.7255e-06
10450.0, 1.3592e-06
10452.0, 1.2975e-06
10454.0, 1.2866e-06
10456.0, 1.3463e-06
10458.0, 1.5158e-06
10460.0, 1.5671e-06
10462.0, 1.5149e-06
10464.0, 1.505e-06
10466.0, 1.2965e-06
10468.0, 1.7381e-06
10470.0, 1.3647e-06
10472.0, 1.3784e-06
10474.0, 1.323e-06
10476.0, 1.6925e-06
10478.0, 1.8133e-06
10480.0, 9.02e-07
10482.0, 1.345e-06
10484.0, 1.5717e-06
10486.0, 1.7168e-06
10488.0, 1.2424e-06
10490.0, 1.5462e-06
10492.0, 1.5578e-06
10494.0, 1.2923e-06
10496.0, 1.5489e-06
10498.0, 1.38e-06
10500.0, 1.3639e-06
10502.0, 1.707e-06
10504.0, 1.5149e-06
10506.0, 1.1769e-06
10508.0, 1.4802e-06
10510.0, 1.4018e-06
10513.0, 1.818e-06
10515.0, 1.251e-06
10517.0, 1.5002e-06
10519.0, 1.3626e-06
10521.0, 1.2978e-06
10523.0, 1.6233e-06
10525.0, 1.5679e-06
10527.0, 1.8904e-06
10529.0, 1.4062e-06
10531.0, 2.0532e-06
10533.0, 1.3573e-06
10535.0, 1.7584e-06
10537.0, 1.4197e-06
10539.0, 1.4478e-06
10541.0, 1.6847e-06
10543.0, 1.5596e-06
10545.0, 1.3152e-06
10547.0, 6.2997e-07
10549.0, -4.024e-08
10551.0, -4.016e-08
10553.0, -4.455e-08
10555.0, -3.897e-08
10557.0, -3.959e-08
10559.0, -3.924e-08
10561.0, -4.177e-08
10563.0, -3.821e-08
10565.0, -3.941e-08
10567.0, -4.046e-08
10569.0, -3.967e-08
10571.0, -4.036e-08
10573.0, -3.657e-08
10575.0, -3.945e-08
10577.0, -3.814e-08
10579.0, -3.841e-08
10581.0, -4.276e-08
10583.0, -4.048e-08
10585.0, -3.802e-08
10587.0, -3.959e-08
10589.0, -3.953e-08
10591.0, -4.147e-08
10593.0, -4.199e-08
10595.0, -4.284e-08
10597.0, -4.311e-08
10599.0, -4.418e-08
10601.0, -3.874e-08
10603.0, -4.336e-08
10605.0, -4.159e-08
10607.0, -3.876e-08
10609.0, -4.288e-08
10611.0, -4.157e-08
10613.0, -4.486e-08
10615.0, -4.31e-08
10617.0, -4.106e-08
10619.0, -4.092e-08
10621.0, -4.382e-08
10623.0, -4.188e-08
10625.0, -4.445e-08
10627.0, -4.234e-08
10629.0, -4.343e-08
10631.0, -4.476e-08
10633.0, -4.408e-08
10635.0, -3.989e-08
10637.0, -4.35e-08
10639.0, -4.044e-08
10641.0, -4.244e-08
10643.0, -4.11e-08
10645.0, -4.399e-08
10647.0, -4.107e-08
10649.0, -3.804e-08
10651.0, -4.244e-08
10653.0, -4.009e-08
10655.0, -3.723e-08
10657.0, -3.885e-08
10659.0, -4.13e-08
10661.0, -3.776e-08
10663.0, -3.421e-08
10665.0, -4.009e-08
10667.0, -4.007e-08
10669.0, -4.037e-08
10671.0, -3.653e-08
10673.0, -3.446e-08
10675.0, -3.446e-08
10677.0, -3.602e-08
10679.0, -3.627e-08
10681.0, -3.435e-08
10683.0, -3.869e-08
10685.0, -3.931e-08
10687.0, -3.759e-08
10689.0, -3.879e-08
10691.0, -4.011e-08
10693.0, -3.609e-08
10695.0, -3.935e-08
10697.0, -3.986e-08
10699.0, -4.16e-08
10701.0, -3.789e-08
10703.0, -4.024e-08
10705.0, -4.063e-08
10707.0, -4.11e-08
10709.0, -4.366e-08
10711.0, -4.63e-08
10713.0, -4.53e-08
10715.0, -4.5e-08
10717.0, -4.31e-08
10719.0, -3.997e-08
10721.0, -3.972e-08
10723.0, -3.783e-08
10725.0, -4.447e-08
10727.0, -3.884e-08
10729.0, -4.425e-08
10731.0, -4.007e-08
10733.0, -4.244e-08
10735.0, -4.025e-08
10737.0, -4.212e-08
10739.0, -4.206e-08
10741.0, -3.984e-08
10743.0, -4.021e-08
10745.0, -4.175e-08
10747.0, -4.092e-08
10749.0, -4.77e-08
10751.0, -4.072e-08
10753.0, -4.321e-08
10755.0, -4.279e-08
10757.0, -4.11e-08
10759.0, -4.278e-08
10761.0, -4.365e-08
10763.0, -4.302e-08
10765.0, -3.924e-08
10767.0, -4.401e-08
10769.0, -4.047e-08
10771.0, -4.281e-08
10773.0, -4.119e-08
10775.0, -4.095e-08
10777.0, -4.132e-08
10779.0, -3.951e-08
10781.0, -3.87e-08
10783.0, -3.919e-08
10785.0, -4.054e-08
10787.0, -4.04e-08
10789.0, -4.199e-08
10791.0, -4.362e-08
10793.0, -4.246e-08
10795.0, -4.188e-08
10797.0, -4.133e-08
10799.0, -4.418e-08
10801.0, -4.163e-08
10803.0, -4.046e-08
10805.0, -4.314e-08
10807.0, -3.634e-08
10809.0, -3.852e-08
10811.0, -3.8e-08
10813.0, -3.621e-08
10815.0, -3.287e-08
10817.0, -3.582e-08
10819.0, -3.847e-08
10821.0, -3.636e-08
10823.0, -3.859e-08
10825.0, -3.647e-08
10827.0, -3.813e-08
10829.0, -4.011e-08
10831.0, -3.726e-08
10833.0, -3.625e-08
10835.0, -3.707e-08
10837.0, -3.807e-08
10839.0, -4.139e-08
10841.0, -3.717e-08
10843.0, -4.146e-08
10845.0, -4.073e-08
10847.0, -4.084e-08
10849.0, -4.325e-08
10851.0, -3.984e-08
10853.0, -3.686e-08
10855.0, -3.829e-08
10857.0, -3.913e-08
10859.0, -4.463e-08
10861.0, -4.179e-08
10863.0, -3.828e-08
10865.0, -3.565e-08
10867.0, -4.025e-08
10869.0, -4.102e-08
10871.0, -3.723e-08
10873.0, -4.029e-08
10875.0, -3.811e-08
10877.0, -4.097e-08
10879.0, -3.691e-08
10881.0, -3.762e-08
10883.0, -4.241e-08
10885.0, -3.731e-08
10887.0, -3.563e-08
10889.0, -3.967e-08
10891.0, -3.733e-08
10893.0, -3.995e-08
10895.0, -4.24e-08
10897.0, -4.205e-08
10899.0, -4.308e-08
10901.0, -4.188e-08
10903.0, -4.563e-08
10905.0, -4.554e-08
10907.0, -3.986e-08
10909.0, -4.246e-08
10911.0, -4.091e-08
10913.0, -4.339e-08
10915.0, -4.035e-08
10917.0, -4.165e-08
10919.0, -4.179e-08
10921.0, -4.35e-08
10923.0, -3.965e-08
10925.0, -4.349e-08
10927.0, -4.242e-08
10929.0, -4.557e-08
10931.0, -4.629e-08
10933.0, -4.472e-08
10935.0, -4.163e-08
10937.0, -4.563e-08
10939.0, -4.371e-08
10941.0, -4.315e-08
10943.0, -3.983e-08
10945.0, -3.946e-08
10947.0, -4.122e-08
10949.0, -4.137e-08
10951.0, -3.899e-08
10953.0, -3.859e-08
10955.0, -3.789e-08
10957.0, -4.2e-08
10959.0, -3.788e-08
10961.0, -3.969e-08
10963.0, -3.83e-08
10965.0, -4.058e-08
10967.0, -4.095e-08
10969.0, -4.068e-08
10971.0, -4.093e-08
10973.0, -3.705e-08
10975.0, -4.09e-08
10977.0, -4.068e-08
10979.0, -3.709e-08
10981.0, -3.812e-08
10983.0, -3.972e-08
10985.0, -4.075e-08
10987.0, -3.892e-08
10989.0, -3.841e-08
10991.0, -4.045e-08
10993.0, -4.046e-08
10995.0, -3.741e-08
10997.0, -4.201e-08
10999.0, -4.177e-08
11001.0, -4.334e-08
11003.0, -4.274e-08
11005.0, -4.025e-08
11007.0, -3.803e-08
11009.0, -3.86e-08
