Time sep (ms?), Current (A)
0.0, -2.19e-08
2.002, -1.706e-08
4.004, -1.75e-08
6.005999999999999, -1.747e-08
8.008, -1.747e-08
10.009999999999998, -1.987e-08
12.011999999999999, -1.935e-08
14.014, -2.121e-08
16.016, -2.373e-08
18.017999999999997, -2.187e-08
20.019999999999996, -1.848e-08
22.022, -1.627e-08
24.023999999999997, -1.884e-08
26.025999999999996, -1.577e-08
28.028, -1.776e-08
30.029999999999998, -1.607e-08
32.032, -1.636e-08
34.034, -1.459e-08
36.035999999999994, -1.705e-08
38.038, -1.964e-08
40.03999999999999, -1.945e-08
42.041999999999994, -1.593e-08
44.044, -2.103e-08
46.04599999999999, -1.485e-08
48.047999999999995, -1.694e-08
50.05, -1.732e-08
52.05199999999999, -1.31e-08
54.053999999999995, -2.063e-08
56.056, -1.96e-08
58.05799999999999, -1.799e-08
60.059999999999995, -2.118e-08
62.06199999999999, -2.173e-08
64.064, -1.715e-08
66.06599999999999, -1.938e-08
68.068, -2.041e-08
70.07, -1.902e-08
72.07199999999999, -1.804e-08
74.074, -2.016e-08
76.076, -2.123e-08
78.07799999999999, -1.878e-08
80.07999999999998, -1.615e-08
82.082, -1.839e-08
84.08399999999999, -1.766e-08
86.08599999999998, -1.977e-08
88.088, -1.982e-08
90.08999999999999, -2.194e-08
92.09199999999998, -1.975e-08
94.094, -1.787e-08
96.09599999999999, -1.579e-08
98.09799999999998, -2.202e-08
100.1, -2.065e-08
102.10199999999999, -1.67e-08
104.10399999999998, -1.605e-08
106.106, -1.855e-08
108.10799999999999, -1.904e-08
110.10999999999999, -2.155e-08
112.112, -2.05e-08
114.11399999999999, -1.809e-08
116.11599999999999, -1.679e-08
118.11799999999998, -1.387e-08
120.11999999999999, -1.784e-08
122.12199999999999, -1.421e-08
124.12399999999998, -1.652e-08
126.12599999999999, -1.533e-08
128.128, -1.35e-08
130.13, -1.539e-08
132.13199999999998, -1.411e-08
134.134, -1.578e-08
136.136, -1.637e-08
138.13799999999998, -1.546e-08
140.14, -1.819e-08
142.142, -1.849e-08
144.14399999999998, -1.436e-08
146.146, -1.119e-08
148.148, -1.355e-08
150.14999999999998, -1.384e-08
152.152, -9.03e-09
154.154, -1.561e-08
156.15599999999998, -1.35e-08
158.158, -1.282e-08
160.15999999999997, -1.181e-08
162.16199999999998, -1.812e-08
164.164, -1.743e-08
166.16599999999997, -1.6e-08
168.16799999999998, -1.962e-08
170.17, -1.72e-08
172.17199999999997, -1.794e-08
174.17399999999998, -1.989e-08
176.176, -2.069e-08
178.17799999999997, -1.508e-08
180.17999999999998, -1.75e-08
182.182, -2.277e-08
184.18399999999997, -1.672e-08
186.18599999999998, -1.518e-08
188.188, -1.949e-08
190.18999999999997, -1.479e-08
192.19199999999998, -1.731e-08
194.194, -1.53e-08
196.19599999999997, -1.923e-08
198.19799999999998, -2.092e-08
200.2, -1.79e-08
202.20199999999997, -1.576e-08
204.20399999999998, -1.74e-08
206.206, -2.082e-08
208.20799999999997, -1.933e-08
210.20999999999998, -1.462e-08
212.212, -1.542e-08
214.21399999999997, -1.451e-08
216.21599999999998, -1.252e-08
218.218, -1.474e-08
220.21999999999997, -1.306e-08
222.22199999999998, -1.376e-08
224.224, -1.294e-08
226.22599999999997, -1.505e-08
228.22799999999998, -1.94e-08
230.22999999999996, -1.953e-08
232.23199999999997, -1.781e-08
234.23399999999998, -1.496e-08
236.23599999999996, -1.412e-08
238.23799999999997, -1.771e-08
240.23999999999998, -1.738e-08
242.24199999999996, -1.689e-08
244.24399999999997, -2.008e-08
246.24599999999998, -1.745e-08
248.24799999999996, -1.552e-08
250.24999999999997, -1.855e-08
252.25199999999998, -1.556e-08
254.25399999999996, -1.757e-08
256.256, -1.497e-08
258.258, -1.839e-08
260.26, -1.542e-08
262.26199999999994, -1.548e-08
264.26399999999995, -1.966e-08
266.26599999999996, -1.69e-08
268.268, -1.778e-08
270.27, -1.426e-08
272.272, -1.456e-08
274.27399999999994, -1.486e-08
276.27599999999995, -1.916e-08
278.27799999999996, -1.329e-08
280.28, -1.578e-08
282.282, -2.075e-08
284.284, -2.146e-08
286.28599999999994, -1.937e-08
288.28799999999995, -1.926e-08
290.28999999999996, -1.93e-08
292.292, -2.063e-08
294.294, -1.925e-08
296.296, -1.923e-08
298.29799999999994, -1.65e-08
300.29999999999995, -1.808e-08
302.30199999999996, -2.283e-08
304.304, -1.907e-08
306.306, -2.08e-08
308.308, -1.946e-08
310.30999999999995, -1.636e-08
312.31199999999995, -1.587e-08
314.31399999999996, -1.839e-08
316.316, -1.753e-08
318.318, -1.974e-08
320.31999999999994, -1.854e-08
322.32199999999995, -2.248e-08
324.32399999999996, -1.881e-08
326.32599999999996, -1.679e-08
328.328, -1.478e-08
330.33, -1.551e-08
332.33199999999994, -1.602e-08
334.33399999999995, -1.76e-08
336.33599999999996, -1.624e-08
338.33799999999997, -1.864e-08
340.34, -1.626e-08
342.342, -1.147e-08
344.34399999999994, -1.371e-08
346.34599999999995, -1.744e-08
348.34799999999996, -1.749e-08
350.34999999999997, -1.536e-08
352.352, -1.666e-08
354.354, -1.625e-08
356.35599999999994, -1.7e-08
358.35799999999995, -1.448e-08
360.35999999999996, -1.296e-08
362.36199999999997, -1.656e-08
364.364, -1.908e-08
366.366, -1.848e-08
368.36799999999994, -1.708e-08
370.36999999999995, -1.993e-08
372.37199999999996, -1.356e-08
374.37399999999997, -1.586e-08
376.376, -1.571e-08
378.378, -1.468e-08
380.37999999999994, -1.693e-08
382.38199999999995, -1.871e-08
384.38399999999996, -2.046e-08
386.38599999999997, -1.906e-08
388.388, -1.503e-08
390.38999999999993, -1.397e-08
392.39199999999994, -1.592e-08
394.39399999999995, -1.834e-08
396.39599999999996, -1.656e-08
398.39799999999997, -1.877e-08
400.4, -1.813e-08
402.40199999999993, -1.963e-08
404.40399999999994, -2.153e-08
406.40599999999995, -1.579e-08
408.40799999999996, -1.487e-08
410.40999999999997, -2.06e-08
412.412, -1.69e-08
414.41399999999993, -1.901e-08
416.41599999999994, -2.074e-08
418.41799999999995, -2.108e-08
420.41999999999996, -1.753e-08
422.42199999999997, -2.003e-08
424.424, -1.827e-08
426.42599999999993, -1.811e-08
428.42799999999994, -1.6e-08
430.42999999999995, -1.865e-08
432.43199999999996, -1.888e-08
434.43399999999997, -1.76e-08
436.436, -1.896e-08
438.43799999999993, -1.669e-08
440.43999999999994, -1.635e-08
442.44199999999995, -1.591e-08
444.44399999999996, -1.72e-08
446.44599999999997, -1.994e-08
448.448, -2.148e-08
450.44999999999993, -1.955e-08
452.45199999999994, -1.935e-08
454.45399999999995, -1.908e-08
456.45599999999996, -1.662e-08
458.45799999999997, -1.675e-08
460.4599999999999, -1.627e-08
462.46199999999993, -1.391e-08
464.46399999999994, -1.489e-08
466.46599999999995, -1.66e-08
468.46799999999996, -1.669e-08
470.46999999999997, -1.498e-08
472.4719999999999, -1.461e-08
474.47399999999993, -1.631e-08
476.47599999999994, -1.971e-08
478.47799999999995, -1.996e-08
480.47999999999996, -1.898e-08
482.48199999999997, -1.795e-08
484.4839999999999, -1.774e-08
486.48599999999993, -1.861e-08
488.48799999999994, -1.949e-08
490.48999999999995, -1.934e-08
492.49199999999996, -1.713e-08
494.49399999999997, -1.803e-08
496.4959999999999, -1.98e-08
498.49799999999993, -1.372e-08
500.49999999999994, -1.79e-08
502.50199999999995, -1.963e-08
504.50399999999996, -1.919e-08
506.506, -1.88e-08
508.5079999999999, -1.981e-08
510.50999999999993, -1.675e-08
512.512, -1.726e-08
514.5139999999999, -1.745e-08
516.516, -1.643e-08
518.5179999999999, -1.656e-08
520.52, -1.902e-08
522.5219999999999, -1.989e-08
524.5239999999999, -1.847e-08
526.526, -2.041e-08
528.5279999999999, -2.176e-08
530.53, -2.31e-08
532.5319999999999, -2.033e-08
534.534, -2.268e-08
536.536, -2.438e-08
538.5379999999999, -2.084e-08
540.54, -1.917e-08
542.5419999999999, -2.156e-08
544.544, -1.932e-08
546.5459999999999, -1.781e-08
548.5479999999999, -2.061e-08
550.55, -1.563e-08
552.5519999999999, -1.714e-08
554.554, -1.797e-08
556.5559999999999, -1.717e-08
558.558, -2.115e-08
560.56, -2e-08
562.5619999999999, -2.043e-08
564.564, -2.044e-08
566.5659999999999, -1.91e-08
568.568, -1.844e-08
570.5699999999999, -2.168e-08
572.5719999999999, -2.376e-08
574.574, -2.131e-08
576.5759999999999, -1.986e-08
578.578, -1.902e-08
580.5799999999999, -2.038e-08
582.5819999999999, -1.91e-08
584.584, -1.972e-08
586.5859999999999, -1.618e-08
588.588, -1.603e-08
590.5899999999999, -1.809e-08
592.592, -1.709e-08
594.5939999999999, -1.824e-08
596.5959999999999, -2.212e-08
598.598, -1.789e-08
600.5999999999999, -1.633e-08
602.602, -1.761e-08
604.6039999999999, -1.786e-08
606.6059999999999, -1.823e-08
608.608, -1.911e-08
610.6099999999999, -1.781e-08
612.612, -1.895e-08
614.6139999999999, -1.809e-08
616.616, -1.731e-08
618.6179999999999, -1.774e-08
620.6199999999999, -1.809e-08
622.622, -1.999e-08
624.6239999999999, -1.757e-08
626.626, -1.916e-08
628.6279999999999, -1.572e-08
630.6299999999999, -1.67e-08
632.632, -1.579e-08
634.6339999999999, -1.827e-08
636.636, -1.623e-08
638.6379999999999, -1.606e-08
640.6399999999999, -1.529e-08
642.6419999999999, -1.785e-08
644.6439999999999, -2.052e-08
646.646, -1.59e-08
648.6479999999999, -1.846e-08
650.65, -1.571e-08
652.6519999999999, -1.846e-08
654.6539999999999, -1.822e-08
656.656, -1.35e-08
658.6579999999999, -1.599e-08
660.66, -1.326e-08
662.6619999999999, -1.204e-08
664.6639999999999, -1.603e-08
666.6659999999999, -1.884e-08
668.6679999999999, -1.476e-08
670.67, -1.685e-08
672.6719999999999, -1.693e-08
674.674, -1.828e-08
676.6759999999999, -1.688e-08
678.6779999999999, -1.827e-08
680.68, -1.57e-08
682.6819999999999, -1.834e-08
684.684, -1.743e-08
686.6859999999999, -1.923e-08
688.6879999999999, -1.536e-08
690.6899999999999, -1.863e-08
692.6919999999999, -1.725e-08
694.694, -1.928e-08
696.6959999999999, -1.542e-08
698.698, -1.767e-08
700.6999999999999, -1.363e-08
702.7019999999999, -1.44e-08
704.704, -1.679e-08
706.7059999999999, -1.983e-08
708.708, -2.162e-08
710.7099999999999, -2.02e-08
712.7119999999999, -1.851e-08
714.7139999999999, -1.626e-08
716.7159999999999, -1.681e-08
718.718, -2.131e-08
720.7199999999999, -2.182e-08
722.7219999999999, -1.727e-08
724.7239999999999, -1.614e-08
726.7259999999999, -1.423e-08
728.728, -1.819e-08
730.7299999999999, -1.782e-08
732.732, -1.648e-08
734.7339999999999, -1.533e-08
736.7359999999999, -1.966e-08
738.7379999999999, -1.811e-08
740.7399999999999, -1.62e-08
742.742, -1.549e-08
744.7439999999999, -1.644e-08
746.7459999999999, -1.651e-08
748.7479999999999, -1.386e-08
750.7499999999999, -1.811e-08
752.752, -1.8e-08
754.7539999999999, -1.798e-08
756.756, -2.009e-08
758.7579999999999, -1.61e-08
760.7599999999999, -1.857e-08
762.762, -1.769e-08
764.7639999999999, -1.694e-08
766.766, -1.505e-08
768.7679999999999, -1.706e-08
770.7699999999999, -1.726e-08
772.7719999999999, -1.679e-08
774.7739999999999, -1.466e-08
776.776, -1.8e-08
778.7779999999999, -1.756e-08
780.7799999999999, -1.733e-08
782.7819999999999, -1.508e-08
784.7839999999999, -1.421e-08
786.786, -1.248e-08
788.7879999999999, -1.558e-08
790.79, -1.594e-08
792.7919999999999, -1.45e-08
794.7939999999999, -1.907e-08
796.7959999999999, -1.505e-08
798.7979999999999, -1.527e-08
800.8, -1.468e-08
802.8019999999999, -1.56e-08
804.8039999999999, -1.608e-08
806.8059999999999, -1.443e-08
808.8079999999999, -1.066e-08
810.81, -1.715e-08
812.8119999999999, -1.649e-08
814.814, -1.69e-08
816.8159999999999, -1.499e-08
818.8179999999999, -1.636e-08
820.8199999999999, -1.597e-08
822.8219999999999, -1.743e-08
824.824, -1.977e-08
826.8259999999999, -2.137e-08
828.8279999999999, -1.848e-08
830.8299999999999, -1.811e-08
832.8319999999999, -1.694e-08
834.834, -2.04e-08
836.8359999999999, -1.494e-08
838.8379999999999, -1.653e-08
840.8399999999999, -1.121e-08
842.8419999999999, -1.711e-08
844.8439999999999, -1.553e-08
846.8459999999999, -1.865e-08
848.848, -1.963e-08
850.8499999999999, -1.595e-08
852.8519999999999, -1.492e-08
854.8539999999999, -1.624e-08
856.8559999999999, -1.644e-08
858.858, -1.566e-08
860.8599999999999, -1.604e-08
862.8619999999999, -1.662e-08
864.8639999999999, -1.614e-08
866.8659999999999, -1.532e-08
868.8679999999999, -1.715e-08
870.8699999999999, -1.978e-08
872.872, -2.036e-08
874.8739999999999, -1.99e-08
876.8759999999999, -1.681e-08
878.8779999999999, -1.981e-08
880.8799999999999, -1.762e-08
882.882, -1.96e-08
884.8839999999999, -2.049e-08
886.8859999999999, -1.526e-08
888.8879999999999, -1.682e-08
890.8899999999999, -1.365e-08
892.8919999999999, -1.622e-08
894.8939999999999, -1.524e-08
896.896, -1.463e-08
898.8979999999999, -1.802e-08
900.8999999999999, -1.752e-08
902.9019999999999, -1.758e-08
904.9039999999999, -2.176e-08
906.906, -1.659e-08
908.9079999999999, -1.26e-08
910.9099999999999, -1.557e-08
912.9119999999999, -1.392e-08
914.9139999999999, -1.509e-08
916.9159999999999, -1.973e-08
918.9179999999999, -1.772e-08
920.9199999999998, -1.49e-08
922.9219999999999, -2.02e-08
924.9239999999999, -1.917e-08
926.9259999999999, -1.785e-08
928.9279999999999, -1.613e-08
930.93, -1.914e-08
932.9319999999999, -1.796e-08
934.9339999999999, -2.133e-08
936.9359999999999, -1.585e-08
938.9379999999999, -1.843e-08
940.9399999999999, -1.699e-08
942.9419999999999, -1.573e-08
944.9439999999998, -1.735e-08
946.9459999999999, -1.918e-08
948.9479999999999, -1.805e-08
950.9499999999999, -1.592e-08
952.9519999999999, -1.431e-08
954.954, -2.102e-08
956.9559999999999, -1.957e-08
958.9579999999999, -1.771e-08
960.9599999999999, -1.702e-08
962.9619999999999, -1.459e-08
964.9639999999999, -2.336e-08
966.9659999999999, -2.049e-08
968.9679999999998, -2.02e-08
970.9699999999999, -1.942e-08
972.9719999999999, -2.102e-08
974.9739999999999, -2.102e-08
976.9759999999999, -1.843e-08
978.9779999999998, -1.676e-08
980.9799999999999, -1.595e-08
982.9819999999999, -1.608e-08
984.9839999999999, -1.198e-08
986.9859999999999, -1.618e-08
988.9879999999999, -1.693e-08
990.9899999999999, -1.705e-08
992.9919999999998, -1.774e-08
994.9939999999999, -2.085e-08
996.9959999999999, -1.849e-08
998.9979999999999, -1.84e-08
1000.9999999999999, -1.484e-08
1003.0019999999998, -1.858e-08
1005.0039999999999, -2.154e-08
1007.0059999999999, -1.524e-08
1009.0079999999999, -1.642e-08
1011.0099999999999, -1.438e-08
1013.012, -1.541e-08
1015.0139999999999, -1.615e-08
1017.0159999999998, 4.1361e-07
1019.0179999999999, 4.021e-07
1021.0199999999999, 3.7016e-07
1023.0219999999999, 3.9866e-07
1025.024, 4.0694e-07
1027.0259999999998, 3.6815e-07
1029.0279999999998, 4.2098e-07
1031.03, 4.288e-07
1033.032, 3.384e-07
1035.0339999999999, 3.8367e-07
1037.0359999999998, 4.3858e-07
1039.0379999999998, 3.5442e-07
1041.04, 4.0657e-07
1043.042, 4.206e-07
1045.0439999999999, 3.9241e-07
1047.0459999999998, 3.5448e-07
1049.0479999999998, 4.4783e-07
1051.05, 3.8267e-07
1053.052, 4.1788e-07
1055.0539999999999, 4.4083e-07
1057.0559999999998, 3.847e-07
1059.058, 4.3834e-07
1061.06, 3.8869e-07
1063.062, 3.7469e-07
1065.0639999999999, 3.8858e-07
1067.0659999999998, 4.1685e-07
1069.068, 4.0219e-07
1071.07, 4.6588e-07
1073.072, 4.0426e-07
1075.0739999999998, 4.4408e-07
1077.0759999999998, 4.1755e-07
1079.078, 3.9069e-07
1081.08, 4.2603e-07
1083.0819999999999, 3.9234e-07
1085.0839999999998, 3.8364e-07
1087.0859999999998, 4.5698e-07
1089.088, 4.3678e-07
1091.09, 4.1731e-07
1093.0919999999999, 4.2018e-07
1095.0939999999998, 4.3218e-07
1097.0959999999998, 3.8943e-07
1099.098, 3.9142e-07
1101.1, 4.3176e-07
1103.1019999999999, 4.1314e-07
1105.1039999999998, 4.1284e-07
1107.1059999999998, 4.2505e-07
1109.108, 4.3799e-07
1111.11, 4.0104e-07
1113.1119999999999, 4.3534e-07
1115.1139999999998, 3.8399e-07
1117.116, 3.95e-07
1119.118, 3.9581e-07
1121.12, 4.1918e-07
1123.1219999999998, 4.3611e-07
1125.1239999999998, 4.2571e-07
1127.126, 4.529e-07
1129.128, 4.1561e-07
1131.1299999999999, 4.0558e-07
1133.1319999999998, 4.3932e-07
1135.1339999999998, 3.9008e-07
1137.136, 4.4596e-07
1139.138, 4.0646e-07
1141.1399999999999, 4.2125e-07
1143.1419999999998, 4.4378e-07
1145.1439999999998, 4.0649e-07
1147.146, 4.2627e-07
1149.148, 4.4182e-07
1151.1499999999999, 4.5307e-07
1153.1519999999998, 4.2999e-07
1155.1539999999998, 4.2623e-07
1157.156, 4.3571e-07
1159.158, 4.4419e-07
1161.1599999999999, 4.624e-07
1163.1619999999998, 4.4095e-07
1165.1639999999998, 4.146e-07
1167.166, 4.5728e-07
1169.168, 4.127e-07
1171.1699999999998, 4.1048e-07
1173.1719999999998, 4.4134e-07
1175.174, 4.2007e-07
1177.176, 4.4608e-07
1179.1779999999999, 4.4345e-07
1181.1799999999998, 4.4352e-07
1183.1819999999998, 4.1162e-07
1185.184, 4.3265e-07
1187.186, 4.0779e-07
1189.1879999999999, 4.2026e-07
1191.1899999999998, 4.2184e-07
1193.1919999999998, 4.1115e-07
1195.194, 4.4633e-07
1197.196, 4.3404e-07
1199.1979999999999, 4.4285e-07
1201.1999999999998, 4.3017e-07
1203.2019999999998, 4.1515e-07
1205.204, 4.4793e-07
1207.206, 4.1183e-07
1209.2079999999999, 4.2459e-07
1211.2099999999998, 4.4371e-07
1213.2119999999998, 4.1278e-07
1215.214, 4.0703e-07
1217.216, 4.9027e-07
1219.2179999999998, 4.4119e-07
1221.2199999999998, 3.9367e-07
1223.2219999999998, 4.4824e-07
1225.224, 4.6804e-07
1227.2259999999999, 4.5278e-07
1229.2279999999998, 4.5515e-07
1231.2299999999998, 4.1781e-07
1233.232, 4.4524e-07
1235.234, 4.179e-07
1237.2359999999999, 4.5315e-07
1239.2379999999998, 4.2703e-07
1241.2399999999998, 4.2823e-07
1243.242, 4.6119e-07
1245.244, 4.4765e-07
1247.2459999999999, 4.7108e-07
1249.2479999999998, 4.4046e-07
1251.2499999999998, 4.1741e-07
1253.252, 4.8087e-07
1255.254, 4.4099e-07
1257.2559999999999, 4.5802e-07
1259.2579999999998, 4.2362e-07
1261.2599999999998, 5.0349e-07
1263.262, 4.5312e-07
1265.264, 4.0525e-07
1267.2659999999998, 4.2051e-07
1269.2679999999998, 4.2176e-07
1271.2699999999998, 4.3642e-07
1273.272, 4.1126e-07
1275.274, 4.2345e-07
1277.2759999999998, 4.0449e-07
1279.2779999999998, 5.076e-07
1281.2799999999997, 4.5553e-07
1283.282, 4.0019e-07
1285.2839999999999, 4.576e-07
1287.2859999999998, 4.2697e-07
1289.2879999999998, 4.1855e-07
1291.29, 4.0951e-07
1293.292, 4.5247e-07
1295.2939999999999, 4.9301e-07
1297.2959999999998, 4.5673e-07
1299.2979999999998, 4.724e-07
1301.3, 4.4447e-07
1303.302, 4.5824e-07
1305.3039999999999, 3.9686e-07
1307.3059999999998, 4.5014e-07
1309.3079999999998, 4.5137e-07
1311.31, 4.4785e-07
1313.312, 4.3628e-07
1315.3139999999999, 4.2685e-07
1317.3159999999998, 4.6944e-07
1319.3179999999998, 4.443e-07
1321.32, 4.4687e-07
1323.322, 4.1636e-07
1325.3239999999998, 4.514e-07
1327.3259999999998, 4.7335e-07
1329.3279999999997, 4.4585e-07
1331.33, 4.4513e-07
1333.3319999999999, 4.602e-07
1335.3339999999998, 4.4563e-07
1337.3359999999998, 4.3139e-07
1339.338, 4.5929e-07
1341.34, 4.4396e-07
1343.3419999999999, 4.6212e-07
1345.3439999999998, 4.8753e-07
1347.3459999999998, 5.0296e-07
1349.348, 3.8307e-07
1351.35, 3.9332e-07
1353.3519999999999, 4.4984e-07
1355.3539999999998, 4.4791e-07
1357.3559999999998, 4.683e-07
1359.358, 4.9493e-07
1361.36, 4.4288e-07
1363.3619999999999, 4.6741e-07
1365.3639999999998, 4.5514e-07
1367.3659999999998, 4.4956e-07
1369.368, 4.5883e-07
1371.37, 4.255e-07
1373.3719999999998, 4.2616e-07
1375.3739999999998, 4.2011e-07
1377.3759999999997, 4.6925e-07
1379.378, 4.1816e-07
1381.3799999999999, 5.0692e-07
1383.3819999999998, 4.3179e-07
1385.3839999999998, 4.3689e-07
1387.3859999999997, 4.4957e-07
1389.388, 4.885e-07
1391.3899999999999, 4.4296e-07
1393.3919999999998, 4.1595e-07
1395.3939999999998, 4.3237e-07
1397.396, 4.906e-07
1399.398, 4.2691e-07
1401.3999999999999, 4.8334e-07
1403.4019999999998, 4.4759e-07
1405.4039999999998, 4.62e-07
1407.406, 4.666e-07
1409.408, 4.9325e-07
1411.4099999999999, 4.8111e-07
1413.4119999999998, 4.4742e-07
1415.4139999999998, 4.4808e-07
1417.416, 4.5814e-07
1419.418, 4.6329e-07
1421.4199999999998, 4.4122e-07
1423.4219999999998, 4.8799e-07
1425.4239999999998, 4.5341e-07
1427.426, 4.6629e-07
1429.4279999999999, 4.5962e-07
1431.4299999999998, 4.2809e-07
1433.4319999999998, 4.3965e-07
1435.4339999999997, 4.3381e-07
1437.436, 4.5566e-07
1439.4379999999999, 4.5796e-07
1441.4399999999998, 4.7316e-07
1443.4419999999998, 4.3595e-07
1445.4439999999997, 4.1357e-07
1447.446, 4.5154e-07
1449.4479999999999, 4.6657e-07
1451.4499999999998, 4.5158e-07
1453.4519999999998, 4.7927e-07
1455.454, 4.5044e-07
1457.456, 4.4847e-07
1459.4579999999999, 4.3583e-07
1461.4599999999998, 4.6014e-07
1463.4619999999998, 4.9203e-07
1465.464, 4.661e-07
1467.466, 4.4396e-07
1469.4679999999998, 4.2552e-07
1471.4699999999998, 3.9991e-07
1473.4719999999998, 4.137e-07
1475.474, 4.2434e-07
1477.4759999999999, 4.5366e-07
1479.4779999999998, 4.5917e-07
1481.4799999999998, 4.4394e-07
1483.4819999999997, 3.9937e-07
1485.484, 4.1114e-07
1487.4859999999999, 4.3084e-07
1489.4879999999998, 4.5888e-07
1491.4899999999998, 4.1633e-07
1493.4919999999997, 4.5234e-07
1495.494, 4.3517e-07
1497.4959999999999, 4.1714e-07
1499.4979999999998, 4.4505e-07
1501.4999999999998, 4.3455e-07
1503.5019999999997, 4.9259e-07
1505.504, 4.6708e-07
1507.5059999999999, 4.4815e-07
1509.5079999999998, 4.3833e-07
1511.5099999999998, 4.7619e-07
1513.512, 4.6981e-07
1515.514, 4.4957e-07
1517.5159999999998, 4.8534e-07
1519.5179999999998, 4.323e-07
1521.5199999999998, 4.4571e-07
1523.522, 4.593e-07
1525.524, 4.5789e-07
1527.5259999999998, 4.8821e-07
1529.5279999999998, 4.2443e-07
1531.5299999999997, 4.342e-07
1533.532, 4.7062e-07
1535.5339999999999, 4.53e-07
1537.5359999999998, 5.1598e-07
1539.5379999999998, 4.686e-07
1541.5399999999997, 5.1698e-07
1543.542, 4.3683e-07
1545.5439999999999, 4.1536e-07
1547.5459999999998, 4.5405e-07
1549.5479999999998, 4.4895e-07
1551.5499999999997, 4.4352e-07
1553.552, 4.9295e-07
1555.5539999999999, 4.5094e-07
1557.5559999999998, 5.0287e-07
1559.5579999999998, 4.6878e-07
1561.5599999999997, 4.126e-07
1563.562, 4.5471e-07
1565.5639999999999, 3.9833e-07
1567.5659999999998, 4.5109e-07
1569.5679999999998, 4.3742e-07
1571.57, 4.5001e-07
1573.572, 4.1218e-07
1575.5739999999998, 4.7596e-07
1577.5759999999998, 4.8922e-07
1579.5779999999997, 4.8777e-07
1581.58, 4.6295e-07
1583.5819999999999, 4.4127e-07
1585.5839999999998, 4.538e-07
1587.5859999999998, 4.9041e-07
1589.5879999999997, 4.4731e-07
1591.59, 4.3862e-07
1593.5919999999999, 4.3837e-07
1595.5939999999998, 4.5684e-07
1597.5959999999998, 4.9802e-07
1599.5979999999997, 4.7551e-07
1601.6, 4.4467e-07
1603.6019999999999, 4.3936e-07
1605.6039999999998, 4.4211e-07
1607.6059999999998, 4.4878e-07
1609.6079999999997, 4.4071e-07
1611.61, 4.0921e-07
1613.6119999999999, 4.0023e-07
1615.6139999999998, 4.2351e-07
1617.6159999999998, 4.6839e-07
1619.6179999999997, 4.987e-07
1621.62, 4.2794e-07
1623.6219999999998, 4.6297e-07
1625.6239999999998, 4.6406e-07
1627.6259999999997, 4.4789e-07
1629.628, 4.4564e-07
1631.6299999999999, 4.4393e-07
1633.6319999999998, 4.8213e-07
1635.6339999999998, 5.0194e-07
1637.6359999999997, 4.7455e-07
1639.638, 4.5593e-07
1641.6399999999999, 4.2011e-07
1643.6419999999998, 4.4279e-07
1645.6439999999998, 4.6074e-07
1647.6459999999997, 4.586e-07
1649.648, 4.4001e-07
1651.6499999999999, 4.6104e-07
1653.6519999999998, 4.6523e-07
1655.6539999999998, 4.8766e-07
1657.6559999999997, 4.7099e-07
1659.658, 4.4688e-07
1661.6599999999999, 4.5462e-07
1663.6619999999998, 4.5761e-07
1665.6639999999998, 4.3488e-07
1667.6659999999997, 4.6148e-07
1669.668, 4.4368e-07
1671.6699999999998, 4.5232e-07
1673.6719999999998, 4.3687e-07
1675.6739999999998, 4.7907e-07
1677.6759999999997, 4.1719e-07
1679.6779999999999, 4.5669e-07
1681.6799999999998, 4.5096e-07
1683.6819999999998, 4.9811e-07
1685.6839999999997, 4.4932e-07
1687.686, 4.8743e-07
1689.6879999999999, 4.4001e-07
1691.6899999999998, 4.326e-07
1693.6919999999998, 4.2293e-07
1695.6939999999997, 4.6544e-07
1697.696, 4.4023e-07
1699.6979999999999, 4.66e-07
1701.6999999999998, 4.5435e-07
1703.7019999999998, 4.9405e-07
1705.7039999999997, 4.8518e-07
1707.706, 4.4265e-07
1709.7079999999999, 4.5192e-07
1711.7099999999998, 4.5065e-07
1713.7119999999998, 4.2359e-07
1715.7139999999997, 4.5106e-07
1717.716, 4.5065e-07
1719.7179999999998, 4.3664e-07
1721.7199999999998, 5.0751e-07
1723.7219999999998, 4.281e-07
1725.7239999999997, 4.8091e-07
1727.7259999999999, 4.529e-07
1729.7279999999998, 4.2525e-07
1731.7299999999998, 5.0351e-07
1733.7319999999997, 4.4269e-07
1735.7339999999997, 4.201e-07
1737.7359999999999, 4.5033e-07
1739.7379999999998, 4.51e-07
1741.7399999999998, 4.094e-07
1743.7419999999997, 4.486e-07
1745.744, 3.9791e-07
1747.7459999999999, 4.3701e-07
1749.7479999999998, 4.5548e-07
1751.7499999999998, 4.5483e-07
1753.7519999999997, 4.1045e-07
1755.754, 4.5822e-07
1757.7559999999999, 4.5014e-07
1759.7579999999998, 4.7177e-07
1761.7599999999998, 4.8676e-07
1763.7619999999997, 4.6944e-07
1765.764, 4.7428e-07
1767.7659999999998, 4.4443e-07
1769.7679999999998, 4.215e-07
1771.7699999999998, 4.4455e-07
1773.7719999999997, 4.3128e-07
1775.774, 4.7566e-07
1777.7759999999998, 4.2126e-07
1779.7779999999998, 4.6079e-07
1781.7799999999997, 4.0774e-07
1783.7819999999997, 4.2402e-07
1785.7839999999999, 4.3569e-07
1787.7859999999998, 4.198e-07
1789.7879999999998, 4.6231e-07
1791.7899999999997, 4.4002e-07
1793.792, 4.4146e-07
1795.7939999999999, 4.8083e-07
1797.7959999999998, 4.8735e-07
1799.7979999999998, 4.8767e-07
1801.7999999999997, 4.7335e-07
1803.802, 4.9716e-07
1805.8039999999999, 4.8094e-07
1807.8059999999998, 4.4454e-07
1809.8079999999998, 4.5394e-07
1811.8099999999997, 4.494e-07
1813.812, 4.3349e-07
1815.8139999999999, 4.588e-07
1817.8159999999998, 4.3e-07
1819.8179999999998, 4.3887e-07
1821.8199999999997, 4.202e-07
1823.822, 4.4315e-07
1825.8239999999998, 4.6286e-07
1827.8259999999998, 4.2437e-07
1829.8279999999997, 4.6055e-07
1831.8299999999997, 4.8287e-07
1833.8319999999999, 4.3404e-07
1835.8339999999998, 5.0236e-07
1837.8359999999998, 4.6679e-07
1839.8379999999997, 4.4663e-07
1841.8399999999997, 4.3068e-07
1843.8419999999999, 4.5412e-07
1845.8439999999998, 4.6636e-07
1847.8459999999998, 4.5837e-07
1849.8479999999997, 4.421e-07
1851.85, 4.6223e-07
1853.8519999999999, 4.6788e-07
1855.8539999999998, 4.4881e-07
1857.8559999999998, 4.0001e-07
1859.8579999999997, 4.452e-07
1861.86, 4.8447e-07
1863.8619999999999, 3.8632e-07
1865.8639999999998, 4.335e-07
1867.8659999999998, 4.1742e-07
1869.8679999999997, 4.5873e-07
1871.87, 4.8102e-07
1873.8719999999998, 4.8703e-07
1875.8739999999998, 4.4557e-07
1877.8759999999997, 4.5578e-07
1879.8779999999997, 4.4491e-07
1881.8799999999999, 4.5057e-07
1883.8819999999998, 4.5276e-07
1885.8839999999998, 4.9755e-07
1887.8859999999997, 4.4147e-07
1889.8879999999997, 4.3264e-07
1891.8899999999999, 4.6974e-07
1893.8919999999998, 4.4179e-07
1895.8939999999998, 4.7589e-07
1897.8959999999997, 4.7301e-07
1899.8979999999997, 4.7387e-07
1901.8999999999999, 4.5566e-07
1903.9019999999998, 4.754e-07
1905.9039999999998, 4.6554e-07
1907.9059999999997, 4.7099e-07
1909.908, 4.4341e-07
1911.9099999999999, 5.0011e-07
1913.9119999999998, 4.5191e-07
1915.9139999999998, 4.2675e-07
1917.9159999999997, 4.7975e-07
1919.918, 3.8986e-07
1921.9199999999998, 4.3177e-07
1923.9219999999998, 4.4291e-07
1925.9239999999998, 4.5761e-07
1927.9259999999997, 4.7455e-07
1929.9279999999999, 4.401e-07
1931.9299999999998, 4.6549e-07
1933.9319999999998, 4.6155e-07
1935.9339999999997, 4.3167e-07
1937.9359999999997, 4.7036e-07
1939.9379999999999, 4.4103e-07
1941.9399999999998, 4.8698e-07
1943.9419999999998, 4.2823e-07
1945.9439999999997, 4.726e-07
1947.9459999999997, 4.658e-07
1949.9479999999999, 4.9295e-07
1951.9499999999998, 4.5653e-07
1953.9519999999998, 4.7117e-07
1955.9539999999997, 4.4834e-07
1957.9559999999997, 4.8524e-07
1959.9579999999999, 4.4467e-07
1961.9599999999998, 4.4667e-07
1963.9619999999998, 5.3591e-07
1965.9639999999997, 4.1994e-07
1967.966, 4.5725e-07
1969.9679999999998, 4.7018e-07
1971.9699999999998, 4.692e-07
1973.9719999999998, 4.6544e-07
1975.9739999999997, 5.1361e-07
1977.9759999999999, 4.8423e-07
1979.9779999999998, 4.3425e-07
1981.9799999999998, 4.534e-07
1983.9819999999997, 4.6829e-07
1985.9839999999997, 5.1404e-07
1987.9859999999999, 4.3376e-07
1989.9879999999998, 4.9051e-07
1991.9899999999998, 4.8384e-07
1993.9919999999997, 4.5645e-07
1995.9939999999997, 4.5562e-07
1997.9959999999999, 4.8999e-07
1999.9979999999998, 4.7458e-07
2001.9999999999998, 4.1306e-07
2004.0019999999997, 4.2829e-07
2006.0039999999997, 4.852e-07
2008.0059999999999, 4.8144e-07
2010.0079999999998, 4.8268e-07
2012.0099999999998, 4.5933e-07
2014.0119999999997, 4.8943e-07
2016.0139999999997, 4.785e-07
2018.0159999999998, -2.527e-08
2020.0179999999998, -2.29e-08
2022.0199999999998, -2.131e-08
2024.0219999999997, -2.091e-08
2026.024, -2.157e-08
2028.0259999999998, -2.182e-08
2030.0279999999998, -2.573e-08
2032.0299999999997, -2.403e-08
2034.0319999999997, -2.274e-08
2036.0339999999999, -2.05e-08
2038.0359999999998, -2.009e-08
2040.0379999999998, -1.819e-08
2042.0399999999997, -1.651e-08
2044.0419999999997, -2.224e-08
2046.0439999999999, -2.137e-08
2048.046, -2.055e-08
2050.048, -1.947e-08
2052.0499999999997, -1.878e-08
2054.0519999999997, -1.857e-08
2056.0539999999996, -1.829e-08
2058.0559999999996, -1.815e-08
2060.058, -2.436e-08
2062.06, -1.885e-08
2064.062, -2.273e-08
2066.064, -1.873e-08
2068.066, -1.855e-08
2070.0679999999998, -2.447e-08
2072.0699999999997, -2.59e-08
2074.0719999999997, -2.383e-08
2076.0739999999996, -2.246e-08
2078.0759999999996, -2.195e-08
2080.078, -2.132e-08
2082.08, -2.071e-08
2084.082, -2.056e-08
2086.084, -1.639e-08
2088.086, -2.122e-08
2090.0879999999997, -1.962e-08
2092.0899999999997, -1.788e-08
2094.0919999999996, -1.65e-08
2096.0939999999996, -2.082e-08
2098.0959999999995, -2.263e-08
2100.098, -2.132e-08
2102.1, -1.926e-08
2104.102, -1.97e-08
2106.104, -2.344e-08
2108.1059999999998, -2.222e-08
2110.1079999999997, -2.164e-08
2112.1099999999997, -2.338e-08
2114.1119999999996, -2.639e-08
2116.1139999999996, -2.782e-08
2118.116, -2.505e-08
2120.118, -2.771e-08
2122.12, -2.487e-08
2124.122, -2.626e-08
2126.124, -2.699e-08
2128.1259999999997, -2.76e-08
2130.1279999999997, -2.47e-08
2132.1299999999997, -2.225e-08
2134.1319999999996, -2.308e-08
2136.1339999999996, -2.996e-08
2138.136, -2.192e-08
2140.138, -2.079e-08
2142.14, -1.934e-08
2144.142, -2.282e-08
2146.144, -2.443e-08
2148.1459999999997, -1.755e-08
2150.1479999999997, -2.054e-08
2152.1499999999996, -1.724e-08
2154.1519999999996, -2.143e-08
2156.1539999999995, -2.338e-08
2158.156, -2.189e-08
2160.158, -2.42e-08
2162.16, -2.537e-08
2164.162, -2.259e-08
2166.1639999999998, -2.33e-08
2168.1659999999997, -2.08e-08
2170.1679999999997, -2.251e-08
2172.1699999999996, -2.468e-08
2174.1719999999996, -2.09e-08
2176.174, -2.291e-08
2178.176, -2.307e-08
2180.178, -2.625e-08
2182.18, -2.643e-08
2184.182, -2.432e-08
2186.1839999999997, -2.483e-08
2188.1859999999997, -2.397e-08
2190.1879999999996, -2.171e-08
2192.1899999999996, -2.163e-08
2194.1919999999996, -2.565e-08
2196.194, -2.129e-08
2198.196, -2.009e-08
2200.198, -2.58e-08
2202.2, -2.172e-08
2204.2019999999998, -2.436e-08
2206.2039999999997, -1.952e-08
2208.2059999999997, -2.163e-08
2210.2079999999996, -2.266e-08
2212.2099999999996, -1.979e-08
2214.2119999999995, -2.128e-08
2216.214, -2.06e-08
2218.216, -2.169e-08
2220.218, -2.227e-08
2222.22, -1.96e-08
2224.2219999999998, -2.305e-08
2226.2239999999997, -2.399e-08
2228.2259999999997, -2.058e-08
2230.2279999999996, -2.161e-08
2232.2299999999996, -2.246e-08
2234.232, -1.933e-08
2236.234, -2.014e-08
2238.236, -2.453e-08
2240.238, -2.151e-08
2242.24, -1.893e-08
2244.2419999999997, -2.356e-08
2246.2439999999997, -1.833e-08
2248.2459999999996, -2.171e-08
2250.2479999999996, -2.151e-08
2252.2499999999995, -2.382e-08
2254.252, -2.366e-08
2256.254, -2.236e-08
2258.256, -1.985e-08
2260.258, -2.175e-08
2262.2599999999998, -2.084e-08
2264.2619999999997, -2.089e-08
2266.2639999999997, -2.114e-08
2268.2659999999996, -2.5e-08
2270.2679999999996, -2.098e-08
2272.2699999999995, -2.293e-08
2274.272, -2.216e-08
2276.274, -2.138e-08
2278.276, -1.917e-08
2280.278, -1.889e-08
2282.2799999999997, -1.818e-08
2284.2819999999997, -1.977e-08
2286.2839999999997, -2.157e-08
2288.2859999999996, -1.841e-08
2290.2879999999996, -2.038e-08
2292.29, -1.764e-08
2294.292, -1.776e-08
2296.294, -2.449e-08
2298.296, -2.372e-08
2300.298, -2.28e-08
2302.2999999999997, -2.277e-08
2304.3019999999997, -2.019e-08
2306.3039999999996, -2.621e-08
2308.3059999999996, -2.007e-08
2310.3079999999995, -2.604e-08
2312.31, -2.259e-08
2314.312, -2.288e-08
2316.314, -1.918e-08
2318.316, -2.045e-08
2320.3179999999998, -2.31e-08
2322.3199999999997, -2.147e-08
2324.3219999999997, -2.481e-08
2326.3239999999996, -2.705e-08
2328.3259999999996, -2.412e-08
2330.3279999999995, -2.819e-08
2332.33, -2.803e-08
2334.332, -2.875e-08
2336.334, -2.352e-08
2338.336, -2.778e-08
2340.3379999999997, -2.373e-08
2342.3399999999997, -2.484e-08
2344.3419999999996, -2.542e-08
2346.3439999999996, -2.031e-08
2348.3459999999995, -2.777e-08
2350.348, -2.778e-08
2352.35, -1.968e-08
2354.352, -2.605e-08
2356.354, -2.228e-08
2358.3559999999998, -2.338e-08
2360.3579999999997, -2.258e-08
2362.3599999999997, -2.475e-08
2364.3619999999996, -2.31e-08
2366.3639999999996, -2.84e-08
2368.3659999999995, -2.434e-08
2370.368, -2.759e-08
2372.37, -2.171e-08
2374.372, -2.194e-08
2376.374, -1.977e-08
2378.3759999999997, -2.151e-08
2380.3779999999997, -2.366e-08
2382.3799999999997, -2.536e-08
2384.3819999999996, -2.547e-08
2386.3839999999996, -2.592e-08
2388.3859999999995, -2.528e-08
2390.388, -2.488e-08
2392.39, -2.488e-08
2394.392, -2.769e-08
2396.394, -2.544e-08
2398.3959999999997, -2.895e-08
2400.3979999999997, -2.338e-08
2402.3999999999996, -2.783e-08
2404.4019999999996, -2.813e-08
2406.4039999999995, -2.74e-08
2408.406, -2.561e-08
2410.408, -2.931e-08
2412.41, -2.604e-08
2414.412, -2.507e-08
2416.4139999999998, -2.421e-08
2418.4159999999997, -2.474e-08
2420.4179999999997, -1.999e-08
2422.4199999999996, -2.438e-08
2424.4219999999996, -2.458e-08
2426.4239999999995, -2.633e-08
2428.426, -2.627e-08
2430.428, -2.46e-08
2432.43, -2.421e-08
2434.432, -2.741e-08
2436.4339999999997, -2.997e-08
2438.4359999999997, -2.616e-08
2440.4379999999996, -2.694e-08
2442.4399999999996, -2.348e-08
2444.4419999999996, -2.532e-08
2446.4439999999995, -2.496e-08
2448.446, -2.407e-08
2450.448, -2.402e-08
2452.45, -2.166e-08
2454.4519999999998, -2.469e-08
2456.4539999999997, -2.558e-08
2458.4559999999997, -2.33e-08
2460.4579999999996, -2.686e-08
2462.4599999999996, -2.802e-08
2464.4619999999995, -2.507e-08
2466.464, -2.525e-08
2468.466, -2.777e-08
2470.468, -2.771e-08
2472.47, -2.8e-08
2474.4719999999998, -2.527e-08
2476.4739999999997, -2.758e-08
2478.4759999999997, -2.433e-08
2480.4779999999996, -2.354e-08
2482.4799999999996, -2.543e-08
2484.4819999999995, -2.518e-08
2486.484, -2.748e-08
2488.486, -2.492e-08
2490.488, -2.546e-08
2492.49, -2.663e-08
2494.4919999999997, -2.303e-08
2496.4939999999997, -2.617e-08
2498.4959999999996, -3.061e-08
2500.4979999999996, -2.697e-08
2502.4999999999995, -2.517e-08
2504.5019999999995, -2.666e-08
2506.504, -2.489e-08
2508.506, -2.361e-08
2510.508, -2.492e-08
2512.5099999999998, -2.58e-08
2514.5119999999997, -2.972e-08
2516.5139999999997, -2.945e-08
2518.5159999999996, -2.922e-08
2520.5179999999996, -2.471e-08
2522.5199999999995, -2.616e-08
2524.522, -2.986e-08
2526.524, -2.754e-08
2528.526, -2.881e-08
2530.528, -2.657e-08
2532.5299999999997, -2.278e-08
2534.5319999999997, -2.293e-08
2536.5339999999997, -2.296e-08
2538.5359999999996, -2.558e-08
2540.5379999999996, -2.086e-08
2542.5399999999995, -2.286e-08
2544.542, -1.986e-08
2546.544, -2.343e-08
2548.546, -2.192e-08
2550.548, -2.47e-08
2552.5499999999997, -2.71e-08
2554.5519999999997, -2.54e-08
2556.5539999999996, -2.446e-08
2558.5559999999996, -2.528e-08
2560.5579999999995, -2.615e-08
2562.5599999999995, -2.58e-08
2564.562, -2.775e-08
2566.564, -2.447e-08
2568.566, -2.586e-08
2570.5679999999998, -2.404e-08
2572.5699999999997, -2.778e-08
2574.5719999999997, -2.331e-08
2576.5739999999996, -2.49e-08
2578.5759999999996, -2.583e-08
2580.5779999999995, -2.515e-08
2582.58, -2.567e-08
2584.582, -2.333e-08
2586.584, -2.679e-08
2588.586, -2.419e-08
2590.5879999999997, -2.215e-08
2592.5899999999997, -2.429e-08
2594.5919999999996, -2.435e-08
2596.5939999999996, -2.579e-08
2598.5959999999995, -2.439e-08
2600.5979999999995, -2.446e-08
2602.6, -2.112e-08
2604.602, -2.601e-08
2606.604, -2.073e-08
2608.6059999999998, -2.39e-08
2610.6079999999997, -2.321e-08
2612.6099999999997, -2.278e-08
2614.6119999999996, -2.454e-08
2616.6139999999996, -2.578e-08
2618.6159999999995, -2.678e-08
2620.618, -2.345e-08
2622.62, -2.213e-08
2624.622, -2.532e-08
2626.624, -2.743e-08
2628.6259999999997, -2.836e-08
2630.6279999999997, -2.577e-08
2632.6299999999997, -2.263e-08
2634.6319999999996, -2.701e-08
2636.6339999999996, -2.263e-08
2638.6359999999995, -2.528e-08
2640.638, -2.628e-08
2642.64, -2.333e-08
2644.642, -2.239e-08
2646.644, -1.936e-08
2648.6459999999997, -2.21e-08
2650.6479999999997, -1.935e-08
2652.6499999999996, -2.185e-08
2654.6519999999996, -2.368e-08
2656.6539999999995, -2.295e-08
2658.6559999999995, -2.087e-08
2660.658, -2.323e-08
2662.66, -2.197e-08
2664.662, -2.344e-08
2666.6639999999998, -2.299e-08
2668.6659999999997, -2.178e-08
2670.6679999999997, -2.468e-08
2672.6699999999996, -2.442e-08
2674.6719999999996, -2.444e-08
2676.6739999999995, -2.5e-08
2678.676, -2.394e-08
2680.678, -2.342e-08
2682.68, -2.211e-08
2684.682, -2.303e-08
2686.6839999999997, -1.98e-08
2688.6859999999997, -2.393e-08
2690.6879999999996, -2.234e-08
2692.6899999999996, -2.022e-08
2694.6919999999996, -2.277e-08
2696.6939999999995, -2.222e-08
2698.696, -2.072e-08
2700.698, -2.095e-08
2702.7, -2.186e-08
2704.7019999999998, -2.21e-08
2706.7039999999997, -2.416e-08
2708.7059999999997, -2.076e-08
2710.7079999999996, -1.923e-08
2712.7099999999996, -2.165e-08
2714.7119999999995, -2.157e-08
2716.7139999999995, -2.039e-08
2718.716, -2.266e-08
2720.718, -2.198e-08
2722.72, -2.546e-08
2724.7219999999998, -2.565e-08
2726.7239999999997, -2.512e-08
2728.7259999999997, -2.251e-08
2730.7279999999996, -2.485e-08
2732.7299999999996, -2.774e-08
2734.7319999999995, -2.535e-08
2736.734, -2.906e-08
2738.736, -2.391e-08
2740.738, -2.282e-08
2742.74, -2.337e-08
2744.7419999999997, -2.529e-08
2746.7439999999997, -2.951e-08
2748.7459999999996, -2.668e-08
2750.7479999999996, -2.48e-08
2752.7499999999995, -2.281e-08
2754.7519999999995, -2.492e-08
2756.754, -2.664e-08
2758.756, -2.752e-08
2760.758, -2.391e-08
2762.7599999999998, -2.154e-08
2764.7619999999997, -2.506e-08
2766.7639999999997, -2.316e-08
2768.7659999999996, -2.534e-08
2770.7679999999996, -2.597e-08
2772.7699999999995, -2.748e-08
2774.7719999999995, -2.732e-08
2776.774, -3.098e-08
2778.776, -3.008e-08
2780.778, -3.099e-08
2782.7799999999997, -3.308e-08
2784.7819999999997, -2.766e-08
2786.7839999999997, -2.575e-08
2788.7859999999996, -2.806e-08
2790.7879999999996, -2.738e-08
2792.7899999999995, -2.671e-08
2794.792, -2.239e-08
2796.794, -1.835e-08
2798.796, -2.135e-08
2800.798, -2.477e-08
2802.7999999999997, -2.426e-08
2804.8019999999997, -2.394e-08
2806.8039999999996, -2.769e-08
2808.8059999999996, -2.611e-08
2810.8079999999995, -2.526e-08
2812.8099999999995, -2.265e-08
2814.812, -2.392e-08
2816.814, -2.6e-08
2818.816, -2.821e-08
2820.8179999999998, -2.567e-08
2822.8199999999997, -2.85e-08
2824.8219999999997, -2.449e-08
2826.8239999999996, -2.473e-08
2828.8259999999996, -2.366e-08
2830.8279999999995, -2.788e-08
2832.8299999999995, -2.472e-08
2834.832, -2.523e-08
2836.834, -2.492e-08
2838.836, -2.398e-08
2840.8379999999997, -2.318e-08
2842.8399999999997, -2.064e-08
2844.8419999999996, -2.362e-08
2846.8439999999996, -2.662e-08
2848.8459999999995, -2.372e-08
2850.8479999999995, -2.458e-08
2852.85, -2.593e-08
2854.852, -2.241e-08
2856.854, -2.261e-08
2858.8559999999998, -2.262e-08
2860.8579999999997, -2.554e-08
2862.8599999999997, -2.319e-08
2864.8619999999996, -1.943e-08
2866.8639999999996, -2.354e-08
2868.8659999999995, -2.043e-08
2870.8679999999995, -2.185e-08
2872.87, -2.14e-08
2874.872, -2.345e-08
2876.874, -2.324e-08
2878.8759999999997, -2.254e-08
2880.8779999999997, -2.441e-08
2882.8799999999997, -2.485e-08
2884.8819999999996, -2.34e-08
2886.8839999999996, -2.357e-08
2888.8859999999995, -2.299e-08
2890.8879999999995, -2.01e-08
2892.89, -2.359e-08
2894.892, -2.354e-08
2896.894, -2.373e-08
2898.8959999999997, -2.355e-08
2900.8979999999997, -2.214e-08
2902.8999999999996, -2.108e-08
2904.9019999999996, -2.32e-08
2906.9039999999995, -2.551e-08
2908.9059999999995, -2.025e-08
2910.908, -2.401e-08
2912.91, -2.442e-08
2914.912, -2.322e-08
2916.9139999999998, -2.268e-08
2918.9159999999997, -1.87e-08
2920.9179999999997, -2.169e-08
2922.9199999999996, -2.39e-08
2924.9219999999996, -2.578e-08
2926.9239999999995, -2.335e-08
2928.9259999999995, -2.888e-08
2930.928, -2.457e-08
2932.93, -2.195e-08
2934.932, -2.252e-08
2936.9339999999997, -2.559e-08
2938.9359999999997, -2.138e-08
2940.9379999999996, -2.368e-08
2942.9399999999996, -2.438e-08
2944.9419999999996, -2.087e-08
2946.9439999999995, -2.408e-08
2948.9459999999995, -2.395e-08
2950.948, -2.152e-08
2952.95, -1.873e-08
2954.9519999999998, -1.966e-08
2956.9539999999997, -2.229e-08
2958.9559999999997, -2.377e-08
2960.9579999999996, -1.774e-08
2962.9599999999996, -2.204e-08
2964.9619999999995, -2.439e-08
2966.9639999999995, -2.636e-08
2968.966, -1.978e-08
2970.968, -2.394e-08
2972.97, -2.268e-08
2974.9719999999998, -2.116e-08
2976.9739999999997, -2.193e-08
2978.9759999999997, -1.928e-08
2980.9779999999996, -2.276e-08
2982.9799999999996, -2.503e-08
2984.9819999999995, -2.397e-08
2986.9839999999995, -2.498e-08
2988.986, -2.012e-08
2990.988, -2.412e-08
2992.99, -2.795e-08
2994.9919999999997, -2.268e-08
2996.9939999999997, -2.693e-08
2998.9959999999996, -2.612e-08
3000.9979999999996, -2.793e-08
3002.9999999999995, -2.801e-08
3005.0019999999995, -2.896e-08
3007.0039999999995, -2.909e-08
3009.006, -2.917e-08
3011.008, -2.721e-08
3013.0099999999998, -2.732e-08
3015.0119999999997, -2.869e-08
3017.0139999999997, -2.901e-08
3019.0159999999996, -2.669e-08
3021.0179999999996, -2.684e-08
3023.0199999999995, -2.29e-08
3025.0219999999995, -2.495e-08
3027.024, -2.586e-08
3029.026, -2.324e-08
3031.028, -2.379e-08
3033.0299999999997, -2.321e-08
3035.0319999999997, -2.502e-08
3037.0339999999997, -2.421e-08
3039.0359999999996, -2.376e-08
3041.0379999999996, -2.383e-08
3043.0399999999995, -2.271e-08
3045.0419999999995, -2.318e-08
3047.044, -2.65e-08
3049.046, -2.24e-08
3051.048, -2.178e-08
3053.0499999999997, -2.201e-08
3055.0519999999997, -2.602e-08
3057.0539999999996, -2.663e-08
3059.0559999999996, -2.573e-08
3061.0579999999995, -2.273e-08
3063.0599999999995, -1.974e-08
3065.0619999999994, -2.073e-08
3067.064, -2.036e-08
3069.066, -2.345e-08
3071.0679999999998, -2.492e-08
3073.0699999999997, -2.588e-08
3075.0719999999997, -2.457e-08
3077.0739999999996, -2.43e-08
3079.0759999999996, 2.2428e-07
3081.0779999999995, 4.2907e-07
3083.0799999999995, 3.8528e-07
3085.082, 4.3335e-07
3087.084, 4.0917e-07
3089.086, 4.0892e-07
3091.0879999999997, 4.0984e-07
3093.0899999999997, 3.9141e-07
3095.0919999999996, 4.1443e-07
3097.0939999999996, 4.1339e-07
3099.0959999999995, 3.6637e-07
3101.0979999999995, 4.4232e-07
3103.0999999999995, 4.2456e-07
3105.102, 3.7438e-07
3107.104, 4.0779e-07
3109.1059999999998, 3.8165e-07
3111.1079999999997, 4.0932e-07
3113.1099999999997, 4.2195e-07
3115.1119999999996, 4.1557e-07
3117.1139999999996, 3.9651e-07
3119.1159999999995, 4.2563e-07
3121.1179999999995, 4.2878e-07
3123.1199999999994, 4.0909e-07
3125.122, 4.1852e-07
3127.124, 3.9974e-07
3129.1259999999997, 4.1619e-07
3131.1279999999997, 3.9208e-07
3133.1299999999997, 4.2628e-07
3135.1319999999996, 3.9435e-07
3137.1339999999996, 4.1593e-07
3139.1359999999995, 4.1529e-07
3141.1379999999995, 4.0872e-07
3143.14, 3.9084e-07
3145.142, 4.7095e-07
3147.144, 4.2162e-07
3149.1459999999997, 4.3957e-07
3151.1479999999997, 3.9907e-07
3153.1499999999996, 4.0889e-07
3155.1519999999996, 4.1847e-07
3157.1539999999995, 3.7477e-07
3159.1559999999995, 4.5506e-07
3161.1579999999994, 3.7897e-07
3163.16, 4.2567e-07
3165.162, 4.5438e-07
3167.1639999999998, 4.2655e-07
3169.1659999999997, 4.133e-07
3171.1679999999997, 3.9975e-07
3173.1699999999996, 4.2109e-07
3175.1719999999996, 3.6211e-07
3177.1739999999995, 3.909e-07
3179.1759999999995, 4.2538e-07
3181.1779999999994, 4.3848e-07
3183.18, 4.4963e-07
3185.182, 3.9367e-07
3187.1839999999997, 4.609e-07
3189.1859999999997, 4.2551e-07
3191.1879999999996, 4.6016e-07
3193.1899999999996, 4.606e-07
3195.1919999999996, 4.1802e-07
3197.1939999999995, 4.4859e-07
3199.1959999999995, 4.4462e-07
3201.198, 4.4785e-07
3203.2, 4.4604e-07
3205.2019999999998, 4.2929e-07
3207.2039999999997, 4.3296e-07
3209.2059999999997, 4.4662e-07
3211.2079999999996, 4.4049e-07
3213.2099999999996, 4.5547e-07
3215.2119999999995, 4.3523e-07
3217.2139999999995, 4.3539e-07
3219.2159999999994, 4.3641e-07
3221.218, 4.2852e-07
3223.22, 4.1533e-07
3225.2219999999998, 4.4215e-07
3227.2239999999997, 4.7286e-07
3229.2259999999997, 4.2894e-07
3231.2279999999996, 4.8208e-07
3233.2299999999996, 4.0745e-07
3235.2319999999995, 4.2015e-07
3237.2339999999995, 4.2805e-07
3239.2359999999994, 4.6194e-07
3241.238, 4.028e-07
3243.24, 4.5383e-07
3245.2419999999997, 4.3169e-07
3247.2439999999997, 4.2986e-07
3249.2459999999996, 4.2948e-07
3251.2479999999996, 4.0531e-07
3253.2499999999995, 4.2244e-07
3255.2519999999995, 4.6769e-07
3257.2539999999995, 4.7156e-07
3259.256, 4.2926e-07
3261.258, 4.7348e-07
3263.2599999999998, 4.1985e-07
3265.2619999999997, 4.3201e-07
3267.2639999999997, 4.4919e-07
3269.2659999999996, 4.1171e-07
3271.2679999999996, 4.2787e-07
3273.2699999999995, 4.4084e-07
3275.2719999999995, 4.0419e-07
3277.2739999999994, 4.2848e-07
3279.276, 4.251e-07
3281.278, 4.4913e-07
3283.2799999999997, 4.2685e-07
3285.2819999999997, 4.4472e-07
3287.2839999999997, 4.6616e-07
3289.2859999999996, 4.3501e-07
3291.2879999999996, 4.0387e-07
3293.2899999999995, 4.4861e-07
3295.2919999999995, 4.8819e-07
3297.2939999999994, 4.0845e-07
3299.296, 4.5178e-07
3301.298, 4.5257e-07
3303.2999999999997, 4.6437e-07
3305.3019999999997, 4.4547e-07
3307.3039999999996, 4.2649e-07
3309.3059999999996, 4.4221e-07
3311.3079999999995, 4.381e-07
3313.3099999999995, 4.6191e-07
3315.3119999999994, 5.0385e-07
3317.314, 4.7752e-07
3319.316, 4.1272e-07
3321.3179999999998, 4.0891e-07
3323.3199999999997, 4.296e-07
3325.3219999999997, 4.8406e-07
3327.3239999999996, 4.5338e-07
3329.3259999999996, 4.3295e-07
3331.3279999999995, 4.8515e-07
3333.3299999999995, 4.4173e-07
3335.3319999999994, 4.8658e-07
3337.334, 4.5098e-07
3339.336, 4.6161e-07
3341.3379999999997, 4.5335e-07
3343.3399999999997, 4.2851e-07
3345.3419999999996, 4.1916e-07
3347.3439999999996, 4.4729e-07
3349.3459999999995, 4.2717e-07
3351.3479999999995, 4.5887e-07
3353.3499999999995, 4.3054e-07
3355.3519999999994, 4.6349e-07
3357.354, 4.0738e-07
3359.3559999999998, 4.5426e-07
3361.3579999999997, 4.6762e-07
3363.3599999999997, 4.3534e-07
3365.3619999999996, 4.8895e-07
3367.3639999999996, 4.2282e-07
3369.3659999999995, 4.346e-07
3371.3679999999995, 4.2158e-07
3373.3699999999994, 4.1127e-07
3375.372, 4.5154e-07
3377.374, 4.5333e-07
3379.3759999999997, 4.5017e-07
3381.3779999999997, 4.1005e-07
3383.3799999999997, 4.4929e-07
3385.3819999999996, 4.4783e-07
3387.3839999999996, 5.1756e-07
3389.3859999999995, 4.5533e-07
3391.3879999999995, 4.5145e-07
3393.3899999999994, 4.3295e-07
3395.392, 4.5931e-07
3397.394, 4.3302e-07
3399.3959999999997, 4.4096e-07
3401.3979999999997, 4.4664e-07
3403.3999999999996, 4.7226e-07
3405.4019999999996, 4.0838e-07
3407.4039999999995, 4.6948e-07
3409.4059999999995, 4.8772e-07
3411.4079999999994, 4.5028e-07
3413.4099999999994, 4.2431e-07
3415.412, 4.6555e-07
3417.4139999999998, 4.375e-07
3419.4159999999997, 4.4768e-07
3421.4179999999997, 5.3712e-07
3423.4199999999996, 4.2952e-07
3425.4219999999996, 4.4144e-07
3427.4239999999995, 4.7799e-07
3429.4259999999995, 4.6914e-07
3431.4279999999994, 4.5006e-07
3433.43, 4.354e-07
3435.432, 4.2504e-07
3437.4339999999997, 4.1191e-07
3439.4359999999997, 4.4878e-07
3441.4379999999996, 4.382e-07
3443.4399999999996, 4.3211e-07
3445.4419999999996, 4.5537e-07
3447.4439999999995, 4.7563e-07
3449.4459999999995, 4.6665e-07
3451.4479999999994, 4.9886e-07
3453.45, 4.4212e-07
3455.4519999999998, 4.7504e-07
3457.4539999999997, 4.2301e-07
3459.4559999999997, 4.3635e-07
3461.4579999999996, 4.3864e-07
3463.4599999999996, 4.3478e-07
3465.4619999999995, 4.5692e-07
3467.4639999999995, 4.8041e-07
3469.4659999999994, 4.5065e-07
3471.4679999999994, 4.6491e-07
3473.47, 4.1091e-07
3475.4719999999998, 4.4289e-07
3477.4739999999997, 4.6729e-07
3479.4759999999997, 4.4685e-07
3481.4779999999996, 4.425e-07
3483.4799999999996, 4.1981e-07
3485.4819999999995, 4.3396e-07
3487.4839999999995, 4.3733e-07
3489.4859999999994, 4.5389e-07
3491.488, 4.4528e-07
3493.49, 4.3442e-07
3495.4919999999997, 4.7076e-07
3497.4939999999997, 4.5398e-07
3499.4959999999996, 4.8336e-07
3501.4979999999996, 4.4751e-07
3503.4999999999995, 4.3558e-07
3505.5019999999995, 4.3641e-07
3507.5039999999995, 4.2685e-07
3509.5059999999994, 4.4599e-07
3511.508, 4.3421e-07
3513.5099999999998, 4.2637e-07
3515.5119999999997, 4.4376e-07
3517.5139999999997, 4.4639e-07
3519.5159999999996, 4.3263e-07
3521.5179999999996, 4.7943e-07
3523.5199999999995, 4.8344e-07
3525.5219999999995, 4.6731e-07
3527.5239999999994, 4.4581e-07
3529.5259999999994, 4.6159e-07
3531.528, 4.8248e-07
3533.5299999999997, 4.9829e-07
3535.5319999999997, 4.5469e-07
3537.5339999999997, 4.6199e-07
3539.5359999999996, 4.5779e-07
3541.5379999999996, 4.4094e-07
3543.5399999999995, 4.5802e-07
3545.5419999999995, 4.3695e-07
3547.5439999999994, 4.4244e-07
3549.546, 4.452e-07
3551.548, 4.4486e-07
3553.5499999999997, 4.1953e-07
3555.5519999999997, 4.1242e-07
3557.5539999999996, 4.6096e-07
3559.5559999999996, 4.4927e-07
3561.5579999999995, 4.6753e-07
3563.5599999999995, 4.4313e-07
3565.5619999999994, 4.408e-07
3567.5639999999994, 4.4938e-07
3569.566, 4.5198e-07
3571.5679999999998, 4.3082e-07
3573.5699999999997, 4.5538e-07
3575.5719999999997, 4.5126e-07
3577.5739999999996, 4.4892e-07
3579.5759999999996, 4.487e-07
3581.5779999999995, 4.7282e-07
3583.5799999999995, 4.7957e-07
3585.5819999999994, 4.9594e-07
3587.584, 4.3061e-07
3589.586, 4.5263e-07
3591.5879999999997, 4.3856e-07
3593.5899999999997, 4.5325e-07
3595.5919999999996, 4.848e-07
3597.5939999999996, 4.1103e-07
3599.5959999999995, 4.5158e-07
3601.5979999999995, 4.8103e-07
3603.5999999999995, 4.8314e-07
3605.6019999999994, 4.2776e-07
3607.604, 4.135e-07
3609.6059999999998, 5.0713e-07
3611.6079999999997, 4.6386e-07
3613.6099999999997, 4.6731e-07
3615.6119999999996, 4.4445e-07
3617.6139999999996, 4.1375e-07
3619.6159999999995, 4.2931e-07
3621.6179999999995, 4.2969e-07
3623.6199999999994, 4.5629e-07
3625.6219999999994, 4.4367e-07
3627.624, 4.8938e-07
3629.6259999999997, 4.1563e-07
3631.6279999999997, 4.4085e-07
3633.6299999999997, 4.7814e-07
3635.6319999999996, 4.8545e-07
3637.6339999999996, 4.6605e-07
3639.6359999999995, 4.4064e-07
3641.6379999999995, 4.6169e-07
3643.6399999999994, 4.7028e-07
3645.642, 4.2569e-07
3647.644, 4.3513e-07
3649.6459999999997, 4.5824e-07
3651.6479999999997, 4.4386e-07
3653.6499999999996, 4.785e-07
3655.6519999999996, 4.2781e-07
3657.6539999999995, 4.4263e-07
3659.6559999999995, 4.4901e-07
3661.6579999999994, 4.3743e-07
3663.6599999999994, 4.2895e-07
3665.662, 4.791e-07
3667.6639999999998, 4.2839e-07
3669.6659999999997, 4.3635e-07
3671.6679999999997, 4.4499e-07
3673.6699999999996, 4.6482e-07
3675.6719999999996, 4.5509e-07
3677.6739999999995, 4.5815e-07
3679.6759999999995, 4.7887e-07
3681.6779999999994, 4.354e-07
3683.6799999999994, 4.6714e-07
3685.682, 4.2788e-07
3687.6839999999997, 4.6306e-07
3689.6859999999997, 4.6451e-07
3691.6879999999996, 4.7229e-07
3693.6899999999996, 4.0171e-07
3695.6919999999996, 4.5645e-07
3697.6939999999995, 4.362e-07
3699.6959999999995, 4.5908e-07
3701.6979999999994, 4.8911e-07
3703.7, 4.382e-07
3705.7019999999998, 4.0961e-07
3707.7039999999997, 4.7974e-07
3709.7059999999997, 4.4212e-07
3711.7079999999996, 4.659e-07
3713.7099999999996, 4.7946e-07
3715.7119999999995, 4.8243e-07
3717.7139999999995, 4.8248e-07
3719.7159999999994, 4.7608e-07
3721.7179999999994, 4.7377e-07
3723.72, 5.1455e-07
3725.7219999999998, 4.9218e-07
3727.7239999999997, 4.4128e-07
3729.7259999999997, 4.642e-07
3731.7279999999996, 4.9435e-07
3733.7299999999996, 4.9781e-07
3735.7319999999995, 4.7559e-07
3737.7339999999995, 4.6316e-07
3739.7359999999994, 4.7744e-07
3741.7379999999994, 4.3032e-07
3743.74, 4.5936e-07
3745.7419999999997, 4.2569e-07
3747.7439999999997, 4.456e-07
3749.7459999999996, 4.6621e-07
3751.7479999999996, 4.4087e-07
3753.7499999999995, 4.502e-07
3755.7519999999995, 4.5553e-07
3757.7539999999995, 4.9144e-07
3759.7559999999994, 4.4967e-07
3761.758, 5.0352e-07
3763.7599999999998, 4.9209e-07
3765.7619999999997, 4.7418e-07
3767.7639999999997, 4.8899e-07
3769.7659999999996, 4.6513e-07
3771.7679999999996, 4.4432e-07
3773.7699999999995, 4.6799e-07
3775.7719999999995, 4.4521e-07
3777.7739999999994, 4.7984e-07
3779.7759999999994, 4.3749e-07
3781.778, 4.2243e-07
3783.7799999999997, 4.4818e-07
3785.7819999999997, 4.6325e-07
3787.7839999999997, 4.7029e-07
3789.7859999999996, 4.8317e-07
3791.7879999999996, 4.6935e-07
3793.7899999999995, 4.4065e-07
3795.7919999999995, 4.5403e-07
3797.7939999999994, 4.7765e-07
3799.7959999999994, 4.3144e-07
3801.798, 4.0632e-07
3803.7999999999997, 4.2679e-07
3805.8019999999997, 4.7915e-07
3807.8039999999996, 4.9951e-07
3809.8059999999996, 4.4884e-07
3811.8079999999995, 4.7419e-07
3813.8099999999995, 4.8949e-07
3815.8119999999994, 4.6765e-07
3817.8139999999994, 4.2827e-07
3819.816, 4.3508e-07
3821.8179999999998, 4.3719e-07
3823.8199999999997, 4.9083e-07
3825.8219999999997, 4.6852e-07
3827.8239999999996, 4.6205e-07
3829.8259999999996, 4.5838e-07
3831.8279999999995, 4.4001e-07
3833.8299999999995, 4.5294e-07
3835.8319999999994, 4.2753e-07
3837.8339999999994, 4.1506e-07
3839.836, 4.7674e-07
3841.8379999999997, 4.2662e-07
3843.8399999999997, 4.3797e-07
3845.8419999999996, 4.51e-07
3847.8439999999996, 4.3766e-07
3849.8459999999995, 4.5994e-07
3851.8479999999995, 5.0141e-07
3853.8499999999995, 4.9176e-07
3855.8519999999994, 4.3755e-07
3857.8539999999994, 4.5288e-07
3859.8559999999998, 4.2058e-07
3861.8579999999997, 4.9403e-07
3863.8599999999997, 4.614e-07
3865.8619999999996, 5.0784e-07
3867.8639999999996, 4.7594e-07
3869.8659999999995, 4.1502e-07
3871.8679999999995, 4.5899e-07
3873.8699999999994, 4.306e-07
3875.8719999999994, 4.5211e-07
3877.874, 4.6417e-07
3879.8759999999997, 4.1702e-07
3881.8779999999997, 4.5124e-07
3883.8799999999997, 4.6924e-07
3885.8819999999996, 4.6636e-07
3887.8839999999996, 4.4363e-07
3889.8859999999995, 5.1296e-07
3891.8879999999995, 4.3205e-07
3893.8899999999994, 4.8666e-07
3895.8919999999994, 4.7589e-07
3897.894, 4.8745e-07
3899.8959999999997, 4.7144e-07
3901.8979999999997, 4.7945e-07
3903.8999999999996, 5.0981e-07
3905.9019999999996, 4.2486e-07
3907.9039999999995, 4.4739e-07
3909.9059999999995, 4.3428e-07
3911.9079999999994, 4.8614e-07
3913.9099999999994, 4.2275e-07
3915.9119999999994, 5.188e-07
3917.9139999999998, 4.7556e-07
3919.9159999999997, 4.7872e-07
3921.9179999999997, 4.7727e-07
3923.9199999999996, 4.4574e-07
3925.9219999999996, 4.4616e-07
3927.9239999999995, 4.8325e-07
3929.9259999999995, 4.6026e-07
3931.9279999999994, 4.6127e-07
3933.9299999999994, 4.3671e-07
3935.932, 4.6082e-07
3937.9339999999997, 4.4478e-07
3939.9359999999997, 4.6841e-07
3941.9379999999996, 4.2613e-07
3943.9399999999996, 4.7382e-07
3945.9419999999996, 4.5698e-07
3947.9439999999995, 4.5471e-07
3949.9459999999995, 4.4093e-07
3951.9479999999994, 5.0229e-07
3953.9499999999994, 4.373e-07
3955.9519999999998, 4.4709e-07
3957.9539999999997, 4.3525e-07
3959.9559999999997, 4.7542e-07
3961.9579999999996, 4.3334e-07
3963.9599999999996, 4.6972e-07
3965.9619999999995, 4.3855e-07
3967.9639999999995, 4.6744e-07
3969.9659999999994, 4.5683e-07
3971.9679999999994, 4.8516e-07
3973.9699999999993, 4.2269e-07
3975.9719999999998, 4.6111e-07
3977.9739999999997, 4.5372e-07
3979.9759999999997, 4.7748e-07
3981.9779999999996, 4.1942e-07
3983.9799999999996, 5.0088e-07
3985.9819999999995, 4.7569e-07
3987.9839999999995, 4.7408e-07
3989.9859999999994, 4.5712e-07
3991.9879999999994, 4.6982e-07
3993.99, 4.701e-07
3995.9919999999997, 4.6841e-07
3997.9939999999997, 4.5173e-07
3999.9959999999996, 4.3692e-07
4001.9979999999996, 4.8552e-07
4003.9999999999995, 4.424e-07
4006.0019999999995, 4.3485e-07
4008.0039999999995, 4.3098e-07
4010.0059999999994, 4.746e-07
4012.0079999999994, 4.5233e-07
4014.0099999999998, 4.5689e-07
4016.0119999999997, 4.2163e-07
4018.0139999999997, 4.247e-07
4020.0159999999996, 4.5285e-07
4022.0179999999996, 4.66e-07
4024.0199999999995, 4.8868e-07
4026.0219999999995, 4.9145e-07
4028.0239999999994, 4.6955e-07
4030.0259999999994, 4.6624e-07
4032.0279999999993, 4.6925e-07
4034.0299999999997, 4.5118e-07
4036.0319999999997, 4.5969e-07
4038.0339999999997, 4.4341e-07
4040.0359999999996, 4.854e-07
4042.0379999999996, 4.5809e-07
4044.0399999999995, 4.3347e-07
4046.0419999999995, 4.2085e-07
4048.0439999999994, 4.2829e-07
4050.0459999999994, 4.645e-07
4052.048, 4.7369e-07
4054.0499999999997, 4.6107e-07
4056.0519999999997, 4.4436e-07
4058.0539999999996, 4.4309e-07
4060.0559999999996, 4.484e-07
4062.0579999999995, 4.6663e-07
4064.0599999999995, 4.5749e-07
4066.0619999999994, 4.3735e-07
4068.0639999999994, 4.2732e-07
4070.0659999999993, 4.7999e-07
4072.0679999999998, 4.6782e-07
4074.0699999999997, 4.5758e-07
4076.0719999999997, 4.6412e-07
4078.0739999999996, 4.8418e-07
4080.0759999999996, 2.2621e-07
4082.0779999999995, -2.094e-08
4084.0799999999995, -2.067e-08
4086.0819999999994, -2.574e-08
4088.0839999999994, -2.545e-08
4090.0859999999993, -2.493e-08
4092.0879999999997, -1.925e-08
4094.0899999999997, -2.334e-08
4096.092, -2.708e-08
4098.093999999999, -2.64e-08
4100.096, -2.702e-08
4102.098, -2.246e-08
4104.099999999999, -2.157e-08
4106.102, -2.356e-08
4108.103999999999, -2.536e-08
4110.106, -2.618e-08
4112.107999999999, -2.347e-08
4114.11, -2.755e-08
4116.111999999999, -2.667e-08
4118.114, -2.718e-08
4120.116, -2.392e-08
4122.1179999999995, -2.616e-08
4124.12, -2.393e-08
4126.121999999999, -2.624e-08
4128.124, -2.675e-08
4130.125999999999, -2.566e-08
4132.128, -2.692e-08
4134.129999999999, -2.796e-08
4136.132, -2.669e-08
4138.133999999999, -2.718e-08
4140.1359999999995, -2.054e-08
4142.138, -2.453e-08
4144.139999999999, -2.205e-08
4146.142, -2.147e-08
4148.143999999999, -2.565e-08
4150.146, -2.031e-08
4152.147999999999, -2.084e-08
4154.15, -1.943e-08
4156.151999999999, -1.942e-08
4158.1539999999995, -1.882e-08
4160.156, -2.045e-08
4162.157999999999, -1.873e-08
4164.16, -2.104e-08
4166.161999999999, -2.234e-08
4168.164, -2.416e-08
4170.165999999999, -2.371e-08
4172.168, -2.181e-08
4174.169999999999, -2.62e-08
4176.172, -2.48e-08
4178.174, -2.261e-08
4180.1759999999995, -2.092e-08
4182.178, -2.478e-08
4184.179999999999, -2.404e-08
4186.182, -1.904e-08
4188.183999999999, -2.112e-08
4190.186, -2.044e-08
4192.187999999999, -2.265e-08
4194.19, -2.149e-08
4196.191999999999, -2.192e-08
4198.1939999999995, -2.199e-08
4200.196, -2.125e-08
4202.197999999999, -2.279e-08
4204.2, -2.276e-08
4206.201999999999, -2.243e-08
4208.204, -1.895e-08
4210.205999999999, -2.174e-08
4212.208, -2.008e-08
4214.209999999999, -1.926e-08
4216.2119999999995, -1.864e-08
4218.214, -1.648e-08
4220.215999999999, -2.403e-08
4222.218, -2.196e-08
4224.219999999999, -2.133e-08
4226.222, -1.961e-08
4228.223999999999, -1.984e-08
4230.226, -1.876e-08
4232.227999999999, -1.97e-08
4234.23, -2.011e-08
4236.232, -1.95e-08
4238.2339999999995, -2.039e-08
4240.236, -2.096e-08
4242.237999999999, -1.837e-08
4244.24, -2.139e-08
4246.241999999999, -1.695e-08
4248.244, -1.96e-08
4250.245999999999, -1.783e-08
4252.248, -2.032e-08
4254.249999999999, -1.932e-08
4256.2519999999995, -1.589e-08
4258.254, -1.667e-08
4260.255999999999, -2.079e-08
4262.258, -1.823e-08
4264.259999999999, -1.836e-08
4266.262, -1.967e-08
4268.263999999999, -1.956e-08
4270.266, -1.56e-08
4272.267999999999, -1.93e-08
4274.2699999999995, -1.809e-08
4276.272, -2.361e-08
4278.273999999999, -2.118e-08
4280.276, -2.008e-08
4282.277999999999, -2.177e-08
4284.28, -1.957e-08
4286.281999999999, -2.278e-08
4288.284, -2.244e-08
4290.285999999999, -2.126e-08
4292.288, -2.266e-08
4294.29, -2.132e-08
4296.2919999999995, -2.132e-08
4298.294, -2.059e-08
4300.295999999999, -2.233e-08
4302.298, -2.498e-08
4304.299999999999, -2.46e-08
4306.302, -2.698e-08
4308.303999999999, -2.353e-08
4310.306, -2.438e-08
4312.307999999999, -2.443e-08
4314.3099999999995, -2.407e-08
4316.312, -2.493e-08
4318.313999999999, -2.359e-08
4320.316, -1.996e-08
4322.317999999999, -2.324e-08
4324.32, -2.43e-08
4326.321999999999, -2.417e-08
4328.324, -2.043e-08
4330.325999999999, -1.993e-08
4332.3279999999995, -2.025e-08
4334.33, -2.07e-08
4336.331999999999, -2.189e-08
4338.334, -1.858e-08
4340.335999999999, -2.221e-08
4342.338, -2.211e-08
4344.339999999999, -2.092e-08
4346.342, -2.384e-08
4348.343999999999, -2.732e-08
4350.346, -2.318e-08
4352.348, -2.426e-08
4354.349999999999, -2.581e-08
4356.352, -2.128e-08
4358.353999999999, -2.311e-08
4360.356, -2.42e-08
4362.357999999999, -1.887e-08
4364.36, -1.752e-08
4366.361999999999, -2.37e-08
4368.364, -2.4e-08
4370.365999999999, -2.521e-08
4372.3679999999995, -2.384e-08
4374.37, -2.172e-08
4376.371999999999, -2.401e-08
4378.374, -2.027e-08
4380.375999999999, -2.49e-08
4382.378, -2.226e-08
4384.379999999999, -1.863e-08
4386.382, -2.178e-08
4388.383999999999, -2.292e-08
4390.3859999999995, -2.065e-08
4392.388, -2.08e-08
4394.389999999999, -2.302e-08
4396.392, -2.254e-08
4398.393999999999, -2.474e-08
4400.396, -2.135e-08
4402.397999999999, -2.296e-08
4404.4, -2.436e-08
4406.401999999999, -2.773e-08
4408.4039999999995, -2.276e-08
4410.406, -2.758e-08
4412.407999999999, -2.535e-08
4414.41, -2.377e-08
4416.411999999999, -2.403e-08
4418.414, -2.34e-08
4420.415999999999, -2.105e-08
4422.418, -2.25e-08
4424.419999999999, -2.409e-08
4426.422, -2.293e-08
4428.423999999999, -2.095e-08
4430.4259999999995, -2.077e-08
4432.428, -1.987e-08
4434.429999999999, -1.863e-08
4436.432, -2.234e-08
4438.433999999999, -2.424e-08
4440.436, -2.278e-08
4442.437999999999, -1.985e-08
4444.44, -2.365e-08
4446.441999999999, -2.534e-08
4448.4439999999995, -2.649e-08
4450.446, -2.392e-08
4452.447999999999, -2.404e-08
4454.45, -2.263e-08
4456.451999999999, -2.149e-08
4458.454, -2.167e-08
4460.455999999999, -2.234e-08
4462.458, -2.126e-08
4464.459999999999, -2.195e-08
4466.4619999999995, -2.832e-08
4468.464, -2.591e-08
4470.465999999999, -2.458e-08
4472.468, -2.543e-08
4474.469999999999, -2.264e-08
4476.472, -2.451e-08
4478.473999999999, -2.741e-08
4480.476, -2.863e-08
4482.477999999999, -2.619e-08
4484.48, -2.554e-08
4486.481999999999, -2.554e-08
4488.4839999999995, -2.32e-08
4490.486, -2.643e-08
4492.487999999999, -2.656e-08
4494.49, -2.594e-08
4496.491999999999, -2.464e-08
4498.494, -2.746e-08
4500.495999999999, -2.704e-08
4502.498, -2.361e-08
4504.499999999999, -2.289e-08
4506.5019999999995, -2.416e-08
4508.504, -2.441e-08
4510.505999999999, -2.454e-08
4512.508, -2.045e-08
4514.509999999999, -2.439e-08
4516.512, -2.317e-08
4518.513999999999, -2.154e-08
4520.516, -2.515e-08
4522.517999999999, -1.971e-08
4524.5199999999995, -2.067e-08
4526.522, -2.544e-08
4528.523999999999, -2.084e-08
4530.526, -2.097e-08
4532.527999999999, -1.999e-08
4534.53, -2.358e-08
4536.531999999999, -2.136e-08
4538.534, -1.97e-08
4540.535999999999, -2.086e-08
4542.538, -2.057e-08
4544.539999999999, -1.873e-08
4546.5419999999995, -1.984e-08
4548.544, -2.243e-08
4550.545999999999, -2.102e-08
4552.548, -2.057e-08
4554.549999999999, -2.304e-08
4556.552, -2.115e-08
4558.553999999999, -2.292e-08
4560.556, -2.11e-08
4562.557999999999, -1.824e-08
4564.5599999999995, -1.91e-08
4566.562, -1.914e-08
4568.563999999999, -1.829e-08
4570.566, -1.959e-08
4572.567999999999, -2.026e-08
4574.57, -2.287e-08
4576.571999999999, -2.244e-08
4578.574, -2.041e-08
4580.575999999999, -2.02e-08
4582.5779999999995, -1.91e-08
4584.58, -2.198e-08
4586.581999999999, -2.241e-08
4588.584, -1.951e-08
4590.585999999999, -2.048e-08
4592.588, -1.776e-08
4594.589999999999, -1.765e-08
4596.592, -1.864e-08
4598.593999999999, -2.249e-08
4600.596, -1.867e-08
4602.597999999999, -2.209e-08
4604.599999999999, -2.203e-08
4606.602, -2.156e-08
4608.603999999999, -2.335e-08
4610.606, -1.988e-08
4612.607999999999, -2.3e-08
4614.61, -2.043e-08
4616.611999999999, -1.92e-08
4618.614, -2.026e-08
4620.615999999999, -1.846e-08
4622.6179999999995, -1.819e-08
4624.62, -2.4e-08
4626.621999999999, -2.516e-08
4628.624, -2.327e-08
4630.625999999999, -2.25e-08
4632.628, -2.124e-08
4634.629999999999, -2.157e-08
4636.632, -2.233e-08
4638.633999999999, -1.804e-08
4640.6359999999995, -1.861e-08
4642.638, -2.133e-08
4644.639999999999, -2.083e-08
4646.642, -1.975e-08
4648.643999999999, -2.134e-08
4650.646, -2.1e-08
4652.647999999999, -2.07e-08
4654.65, -2.107e-08
4656.651999999999, -2.4e-08
4658.6539999999995, -2.396e-08
4660.655999999999, -2.152e-08
4662.657999999999, -2.045e-08
4664.66, -2.045e-08
4666.661999999999, -1.929e-08
4668.664, -2.197e-08
4670.665999999999, -2.198e-08
4672.668, -2.063e-08
4674.669999999999, -2.082e-08
4676.672, -1.807e-08
4678.673999999999, -2.217e-08
4680.6759999999995, -2.294e-08
4682.678, -2.279e-08
4684.679999999999, -1.746e-08
4686.682, -2.068e-08
4688.683999999999, -2.229e-08
4690.686, -2.362e-08
4692.687999999999, -2.354e-08
4694.69, -2.271e-08
4696.691999999999, -2.272e-08
4698.6939999999995, -2.28e-08
4700.696, -2.096e-08
4702.697999999999, -2.019e-08
4704.7, -2.096e-08
4706.701999999999, -2.021e-08
4708.704, -2.082e-08
4710.705999999999, -2.481e-08
4712.708, -2.273e-08
4714.709999999999, -2.195e-08
4716.7119999999995, -2.449e-08
4718.713999999999, -2.629e-08
4720.715999999999, -2.588e-08
4722.718, -2.54e-08
4724.719999999999, -2.302e-08
4726.722, -2.364e-08
4728.723999999999, -2.774e-08
4730.726, -2.422e-08
4732.727999999999, -2.297e-08
4734.73, -2.162e-08
4736.731999999999, -2.731e-08
4738.7339999999995, -2.791e-08
4740.736, -2.425e-08
4742.737999999999, -2.412e-08
4744.74, -2.714e-08
4746.741999999999, -2.762e-08
4748.744, -2.079e-08
4750.745999999999, -2.418e-08
4752.748, -2.312e-08
4754.749999999999, -2.121e-08
4756.7519999999995, -2.52e-08
4758.754, -2.047e-08
4760.755999999999, -2.173e-08
4762.758, -1.901e-08
4764.759999999999, -2.244e-08
4766.762, -2.035e-08
4768.763999999999, -1.977e-08
4770.766, -1.749e-08
4772.767999999999, -1.837e-08
4774.7699999999995, -2.095e-08
4776.771999999999, -1.772e-08
4778.773999999999, -2.245e-08
4780.776, -2.23e-08
4782.777999999999, -1.747e-08
4784.78, -2e-08
4786.781999999999, -2.257e-08
4788.784, -2.04e-08
4790.785999999999, -2.18e-08
4792.788, -2.35e-08
4794.789999999999, -2.346e-08
4796.7919999999995, -2.425e-08
4798.794, -2.622e-08
4800.795999999999, -2.487e-08
4802.798, -2.776e-08
4804.799999999999, -2.057e-08
4806.802, -2.467e-08
4808.803999999999, -2.525e-08
4810.806, -2.251e-08
4812.807999999999, -2.488e-08
4814.8099999999995, -2.712e-08
4816.812, -2.437e-08
4818.813999999999, -2.765e-08
4820.816, -2.791e-08
4822.817999999999, -2.752e-08
4824.82, -2.758e-08
4826.821999999999, -2.454e-08
4828.824, -2.467e-08
4830.825999999999, -2.871e-08
4832.8279999999995, -2.531e-08
4834.829999999999, -2.574e-08
4836.831999999999, -2.764e-08
4838.834, -2.63e-08
4840.835999999999, -2.509e-08
4842.838, -2.398e-08
4844.839999999999, -2.549e-08
4846.842, -2.387e-08
4848.843999999999, -2.818e-08
4850.846, -2.481e-08
4852.847999999999, -2.69e-08
4854.849999999999, -2.464e-08
4856.852, -2.679e-08
4858.853999999999, -2.987e-08
4860.856, -2.863e-08
4862.857999999999, -2.348e-08
4864.86, -2.716e-08
4866.861999999999, -2.584e-08
4868.864, -2.837e-08
4870.865999999999, -2.702e-08
4872.8679999999995, -2.805e-08
4874.87, -2.536e-08
4876.871999999999, -2.179e-08
4878.874, -2.518e-08
4880.875999999999, -2.637e-08
4882.878, -2.553e-08
4884.879999999999, -2.168e-08
4886.882, -2.042e-08
4888.883999999999, -2.643e-08
4890.8859999999995, -2.372e-08
4892.887999999999, -2.189e-08
4894.889999999999, -2.539e-08
4896.892, -2.255e-08
4898.893999999999, -2.382e-08
4900.896, -2.383e-08
4902.897999999999, -2.001e-08
4904.9, -1.908e-08
4906.901999999999, -2.412e-08
4908.9039999999995, -2.156e-08
4910.905999999999, -2.318e-08
4912.907999999999, -2.363e-08
4914.91, -2.161e-08
4916.911999999999, -2.331e-08
4918.914, -1.901e-08
4920.915999999999, -2.66e-08
4922.918, -2.538e-08
4924.919999999999, -2.399e-08
4926.922, -2.05e-08
4928.923999999999, -2.532e-08
4930.9259999999995, -2.148e-08
4932.928, -2.021e-08
4934.929999999999, -2.331e-08
4936.932, -2.494e-08
4938.933999999999, -2.082e-08
4940.936, -2.186e-08
4942.937999999999, -2.187e-08
4944.94, -2.142e-08
4946.941999999999, -2.606e-08
4948.9439999999995, -1.839e-08
4950.945999999999, -2.11e-08
4952.947999999999, -2.469e-08
4954.95, -2.42e-08
4956.951999999999, -2.148e-08
4958.954, -2.528e-08
4960.955999999999, -2.53e-08
4962.958, -2.35e-08
4964.959999999999, -2.2e-08
4966.9619999999995, -2.205e-08
4968.963999999999, -2.545e-08
4970.965999999999, -2.276e-08
4972.968, -2.366e-08
4974.969999999999, -2.482e-08
4976.972, -2.21e-08
4978.973999999999, -2.551e-08
4980.976, -2.22e-08
4982.977999999999, -2.535e-08
4984.98, -2.4e-08
4986.981999999999, -2.509e-08
4988.9839999999995, -2.652e-08
4990.986, -2.717e-08
4992.987999999999, -2.553e-08
4994.99, -2.198e-08
4996.991999999999, -2.076e-08
4998.994, -2.324e-08
5000.995999999999, -2.589e-08
5002.998, -2.338e-08
5004.999999999999, -2.191e-08
5007.0019999999995, -2.09e-08
5009.003999999999, -2.437e-08
5011.005999999999, -2.447e-08
5013.008, -2.774e-08
5015.009999999999, -2.464e-08
5017.012, -2.451e-08
5019.013999999999, -2.486e-08
5021.016, -2.305e-08
5023.017999999999, -1.845e-08
5025.0199999999995, -2.464e-08
5027.021999999999, -2.302e-08
5029.023999999999, -2.364e-08
5031.026, -2.153e-08
5033.027999999999, -2.204e-08
5035.03, -2.277e-08
5037.031999999999, -2.426e-08
5039.034, -2.315e-08
5041.035999999999, -2.178e-08
5043.038, -2.235e-08
5045.039999999999, -2.183e-08
5047.0419999999995, -2.766e-08
5049.044, -2.585e-08
5051.045999999999, -2.665e-08
5053.048, -2.741e-08
5055.049999999999, -2.605e-08
5057.052, -2.652e-08
5059.053999999999, -2.88e-08
5061.056, -2.349e-08
5063.057999999999, -2.793e-08
5065.0599999999995, -2.524e-08
5067.061999999999, -2.707e-08
5069.063999999999, -2.868e-08
5071.066, -2.544e-08
5073.067999999999, -2.745e-08
5075.07, -2.968e-08
5077.071999999999, -2.937e-08
5079.074, -2.577e-08
5081.075999999999, -2.766e-08
5083.0779999999995, -2.558e-08
5085.079999999999, -2.7e-08
5087.081999999999, -2.509e-08
5089.084, -2.643e-08
5091.085999999999, -2.481e-08
5093.088, -2.103e-08
5095.089999999999, -2.904e-08
5097.092, -2.468e-08
5099.093999999999, -2.504e-08
5101.096, -2.665e-08
5103.097999999999, -2.029e-08
5105.099999999999, -2.275e-08
5107.102, -2.114e-08
5109.103999999999, -2.555e-08
5111.106, -2.528e-08
5113.107999999999, -2.55e-08
5115.11, -2.613e-08
5117.111999999999, -2.718e-08
5119.114, -2.634e-08
5121.115999999999, -2.624e-08
5123.1179999999995, 2.1404e-07
5125.119999999999, 4.1159e-07
5127.121999999999, 3.8426e-07
5129.124, 3.8891e-07
5131.125999999999, 4.3036e-07
5133.128, 4.1305e-07
5135.129999999999, 3.8166e-07
5137.132, 3.8203e-07
5139.133999999999, 3.736e-07
5141.1359999999995, 4.0288e-07
5143.137999999999, 4.0389e-07
5145.139999999999, 4.229e-07
5147.142, 4.2774e-07
5149.143999999999, 4.3259e-07
5151.146, 4.0799e-07
5153.147999999999, 4.0849e-07
5155.15, 4.2233e-07
5157.151999999999, 3.8775e-07
5159.1539999999995, 4.1296e-07
5161.155999999999, 4.0537e-07
5163.157999999999, 4.1507e-07
5165.16, 4.1821e-07
5167.161999999999, 4.0592e-07
5169.164, 3.7665e-07
5171.165999999999, 4.1784e-07
5173.168, 4.3267e-07
5175.169999999999, 4.2162e-07
5177.172, 4.2018e-07
5179.173999999999, 4.3447e-07
5181.1759999999995, 4.3886e-07
5183.178, 4.2611e-07
5185.179999999999, 4.4378e-07
5187.182, 4.0624e-07
5189.183999999999, 3.8712e-07
5191.186, 4.0613e-07
5193.187999999999, 4.1815e-07
5195.19, 4.0615e-07
5197.191999999999, 4.698e-07
5199.1939999999995, 3.9456e-07
5201.195999999999, 4.4735e-07
5203.197999999999, 4.2554e-07
5205.2, 4.813e-07
5207.201999999999, 4.1853e-07
5209.204, 4.2405e-07
5211.205999999999, 4.4987e-07
5213.208, 4.1787e-07
5215.209999999999, 4.1733e-07
5217.2119999999995, 4.2548e-07
5219.213999999999, 4.3072e-07
5221.215999999999, 4.4716e-07
5223.218, 4.6566e-07
5225.219999999999, 4.0028e-07
5227.222, 3.917e-07
5229.223999999999, 4.3807e-07
5231.226, 4.2592e-07
5233.227999999999, 4.588e-07
5235.23, 4.1048e-07
5237.231999999999, 4.1565e-07
5239.2339999999995, 3.9434e-07
5241.236, 4.3611e-07
5243.237999999999, 4.4329e-07
5245.24, 4.5919e-07
5247.241999999999, 4.0678e-07
5249.244, 4.2216e-07
5251.245999999999, 4.362e-07
5253.248, 4.2424e-07
5255.249999999999, 4.2241e-07
5257.2519999999995, 4.5453e-07
5259.253999999999, 4.351e-07
5261.255999999999, 4.2111e-07
5263.258, 4.3545e-07
5265.259999999999, 4.3253e-07
5267.262, 4.1761e-07
5269.263999999999, 4.0998e-07
5271.266, 4.0177e-07
5273.267999999999, 4.8664e-07
5275.2699999999995, 4.1818e-07
5277.271999999999, 4.228e-07
5279.273999999999, 4.5102e-07
5281.276, 3.9352e-07
5283.277999999999, 4.3808e-07
5285.28, 4.1877e-07
5287.281999999999, 4.1758e-07
5289.284, 4.4899e-07
5291.285999999999, 4.4341e-07
5293.288, 4.0626e-07
5295.289999999999, 4.543e-07
5297.2919999999995, 4.1403e-07
5299.294, 4.0591e-07
5301.295999999999, 4.7137e-07
5303.298, 4.2825e-07
5305.299999999999, 4.6558e-07
5307.302, 4.3496e-07
5309.303999999999, 4.2578e-07
5311.306, 4.3036e-07
5313.307999999999, 4.2411e-07
5315.3099999999995, 4.4081e-07
5317.311999999999, 4.4925e-07
5319.313999999999, 3.9528e-07
5321.316, 4.4745e-07
5323.317999999999, 4.0644e-07
5325.32, 4.6621e-07
5327.321999999999, 4.3274e-07
5329.324, 4.1659e-07
5331.325999999999, 4.698e-07
5333.3279999999995, 5.2091e-07
5335.329999999999, 4.2971e-07
5337.331999999999, 4.3406e-07
5339.334, 4.6743e-07
5341.335999999999, 4.5637e-07
5343.338, 4.1595e-07
5345.339999999999, 4.4078e-07
5347.342, 4.4611e-07
5349.343999999999, 4.2096e-07
5351.346, 4.4402e-07
5353.347999999999, 4.5223e-07
5355.349999999999, 4.6409e-07
5357.352, 4.389e-07
5359.353999999999, 4.4048e-07
5361.356, 4.569e-07
5363.357999999999, 4.3506e-07
5365.36, 4.4778e-07
5367.361999999999, 4.812e-07
5369.364, 4.1375e-07
5371.365999999999, 4.5315e-07
5373.3679999999995, 4.3248e-07
5375.369999999999, 4.3948e-07
5377.371999999999, 4.128e-07
5379.374, 4.5169e-07
5381.375999999999, 4.7997e-07
5383.378, 4.7191e-07
5385.379999999999, 4.2245e-07
5387.382, 4.8141e-07
5389.383999999999, 4.308e-07
5391.3859999999995, 4.6481e-07
5393.387999999999, 4.474e-07
5395.389999999999, 4.6547e-07
5397.392, 4.4836e-07
5399.393999999999, 4.0021e-07
5401.396, 4.3779e-07
5403.397999999999, 4.1923e-07
5405.4, 4.4467e-07
5407.401999999999, 4.226e-07
5409.4039999999995, 4.602e-07
5411.405999999999, 4.5791e-07
5413.407999999999, 4.3503e-07
5415.41, 4.3503e-07
5417.411999999999, 4.3891e-07
5419.414, 4.636e-07
5421.415999999999, 4.5852e-07
5423.418, 4.6504e-07
5425.419999999999, 4.6619e-07
5427.422, 4.562e-07
5429.423999999999, 4.4012e-07
5431.4259999999995, 4.7422e-07
5433.427999999999, 4.3346e-07
5435.429999999999, 4.6515e-07
5437.432, 4.3004e-07
5439.433999999999, 4.4276e-07
5441.436, 4.4154e-07
5443.437999999999, 4.2836e-07
5445.44, 4.3502e-07
5447.441999999999, 4.7126e-07
5449.4439999999995, 4.6082e-07
5451.445999999999, 4.6526e-07
5453.447999999999, 4.5732e-07
5455.45, 4.6974e-07
5457.451999999999, 4.3359e-07
5459.454, 4.8604e-07
5461.455999999999, 4.582e-07
5463.458, 4.99e-07
5465.459999999999, 4.8045e-07
5467.4619999999995, 4.3977e-07
5469.463999999999, 4.4551e-07
5471.465999999999, 4.5398e-07
5473.468, 4.4299e-07
5475.469999999999, 4.6022e-07
5477.472, 4.4744e-07
5479.473999999999, 3.9758e-07
5481.476, 4.3914e-07
5483.477999999999, 3.9859e-07
5485.48, 4.851e-07
5487.481999999999, 4.5713e-07
5489.4839999999995, 4.5272e-07
5491.485999999999, 4.6634e-07
5493.487999999999, 4.7888e-07
5495.49, 4.4833e-07
5497.491999999999, 4.285e-07
5499.494, 4.5147e-07
5501.495999999999, 4.1358e-07
5503.498, 4.2304e-07
5505.499999999999, 4.6363e-07
5507.5019999999995, 4.8445e-07
5509.503999999999, 4.7524e-07
5511.505999999999, 4.6841e-07
5513.508, 4.3644e-07
5515.509999999999, 4.6634e-07
5517.512, 4.9797e-07
5519.513999999999, 4.7125e-07
5521.516, 4.8107e-07
5523.517999999999, 4.9677e-07
5525.5199999999995, 4.47e-07
5527.521999999999, 4.1267e-07
5529.523999999999, 4.6781e-07
5531.526, 4.609e-07
5533.527999999999, 4.6796e-07
5535.53, 4.5568e-07
5537.531999999999, 4.6883e-07
5539.534, 4.6135e-07
5541.535999999999, 4.6563e-07
5543.538, 4.3973e-07
5545.539999999999, 5.0035e-07
5547.5419999999995, 4.4885e-07
5549.543999999999, 4.4283e-07
5551.545999999999, 4.7805e-07
5553.548, 4.6225e-07
5555.549999999999, 4.3608e-07
5557.552, 4.7319e-07
5559.553999999999, 4.3737e-07
5561.556, 4.3284e-07
5563.557999999999, 5.0113e-07
5565.5599999999995, 4.9022e-07
5567.561999999999, 4.9033e-07
5569.563999999999, 4.601e-07
5571.566, 4.7083e-07
5573.567999999999, 4.6452e-07
5575.57, 4.7202e-07
5577.571999999999, 4.7657e-07
5579.574, 4.1327e-07
5581.575999999999, 4.3068e-07
5583.5779999999995, 4.4551e-07
5585.579999999999, 4.5838e-07
5587.581999999999, 4.6426e-07
5589.584, 4.1018e-07
5591.585999999999, 4.9344e-07
5593.588, 4.7654e-07
5595.589999999999, 4.5102e-07
5597.592, 4.2666e-07
5599.593999999999, 4.4021e-07
5601.596, 4.6029e-07
5603.597999999999, 4.783e-07
5605.599999999999, 4.1874e-07
5607.601999999999, 4.4034e-07
5609.603999999999, 4.7464e-07
5611.606, 4.3544e-07
5613.607999999999, 4.7645e-07
5615.61, 4.876e-07
5617.611999999999, 4.2943e-07
5619.614, 4.7378e-07
5621.615999999999, 4.6088e-07
5623.6179999999995, 4.0418e-07
5625.619999999999, 4.6717e-07
5627.621999999999, 4.2995e-07
5629.624, 4.2029e-07
5631.625999999999, 4.7651e-07
5633.628, 4.8764e-07
5635.629999999999, 4.5715e-07
5637.632, 4.2184e-07
5639.633999999999, 4.1202e-07
5641.6359999999995, 4.4052e-07
5643.637999999999, 4.6065e-07
5645.639999999999, 4.4923e-07
5647.642, 4.5372e-07
5649.643999999999, 4.2006e-07
5651.646, 4.5738e-07
5653.647999999999, 4.1632e-07
5655.65, 4.4538e-07
5657.651999999999, 5.0481e-07
5659.6539999999995, 4.7049e-07
5661.655999999999, 4.7548e-07
5663.657999999999, 4.5452e-07
5665.659999999999, 4.4596e-07
5667.661999999999, 4.6719e-07
5669.664, 4.2186e-07
5671.665999999999, 4.0278e-07
5673.668, 4.789e-07
5675.669999999999, 4.4104e-07
5677.672, 4.7663e-07
5679.673999999999, 4.4177e-07
5681.6759999999995, 4.5275e-07
5683.677999999999, 4.8871e-07
5685.679999999999, 4.4437e-07
5687.682, 4.2971e-07
5689.683999999999, 4.8082e-07
5691.686, 4.3457e-07
5693.687999999999, 4.1599e-07
5695.69, 4.8871e-07
5697.691999999999, 4.4592e-07
5699.6939999999995, 4.5366e-07
5701.695999999999, 4.8677e-07
5703.697999999999, 4.8225e-07
5705.7, 5.2649e-07
5707.701999999999, 4.7615e-07
5709.704, 4.6478e-07
5711.705999999999, 4.673e-07
5713.708, 4.3981e-07
5715.709999999999, 4.5572e-07
5717.7119999999995, 4.7781e-07
5719.713999999999, 4.7023e-07
5721.715999999999, 4.7282e-07
5723.717999999999, 4.7091e-07
5725.719999999999, 4.3534e-07
5727.722, 4.334e-07
5729.723999999999, 4.9348e-07
5731.726, 4.9131e-07
5733.727999999999, 4.0981e-07
5735.73, 4.4475e-07
5737.731999999999, 4.6848e-07
5739.7339999999995, 4.4911e-07
5741.735999999999, 4.5739e-07
5743.737999999999, 4.6235e-07
5745.74, 4.7138e-07
5747.741999999999, 4.9758e-07
5749.744, 4.7959e-07
5751.745999999999, 4.4556e-07
5753.748, 4.9778e-07
5755.749999999999, 4.6118e-07
5757.7519999999995, 4.6545e-07
5759.753999999999, 5.2423e-07
5761.755999999999, 4.2462e-07
5763.758, 4.1955e-07
5765.759999999999, 4.3131e-07
5767.762, 4.6319e-07
5769.763999999999, 4.6097e-07
5771.766, 4.3737e-07
5773.767999999999, 4.6293e-07
5775.7699999999995, 4.6913e-07
5777.771999999999, 5.0189e-07
5779.773999999999, 5.1987e-07
5781.775999999999, 4.6617e-07
5783.777999999999, 4.7452e-07
5785.78, 4.5908e-07
5787.781999999999, 4.4955e-07
5789.784, 4.7599e-07
5791.785999999999, 4.6681e-07
5793.788, 4.5401e-07
5795.789999999999, 4.5671e-07
5797.7919999999995, 4.4804e-07
5799.793999999999, 4.5824e-07
5801.795999999999, 4.5909e-07
5803.798, 4.4201e-07
5805.799999999999, 4.9728e-07
5807.802, 4.8814e-07
5809.803999999999, 4.3623e-07
5811.806, 4.238e-07
5813.807999999999, 4.4713e-07
5815.8099999999995, 4.9342e-07
5817.811999999999, 4.3828e-07
5819.813999999999, 4.3569e-07
5821.816, 4.3133e-07
5823.817999999999, 4.3939e-07
5825.82, 4.9197e-07
5827.821999999999, 4.5617e-07
5829.824, 4.7598e-07
5831.825999999999, 4.7073e-07
5833.8279999999995, 4.6719e-07
5835.829999999999, 4.3911e-07
5837.831999999999, 4.7128e-07
5839.833999999999, 5.1395e-07
5841.835999999999, 4.3996e-07
5843.838, 4.4284e-07
5845.839999999999, 5.3067e-07
5847.842, 4.314e-07
5849.843999999999, 4.537e-07
5851.846, 4.6375e-07
5853.847999999999, 4.5456e-07
5855.849999999999, 4.6306e-07
5857.851999999999, 4.5322e-07
5859.853999999999, 4.4629e-07
5861.856, 4.7406e-07
5863.857999999999, 4.638e-07
5865.86, 4.4056e-07
5867.861999999999, 4.7412e-07
5869.864, 4.3137e-07
5871.865999999999, 4.2167e-07
5873.8679999999995, 4.7682e-07
5875.869999999999, 4.3144e-07
5877.871999999999, 4.3741e-07
5879.874, 4.6297e-07
5881.875999999999, 4.4887e-07
5883.878, 5.0418e-07
5885.879999999999, 4.4884e-07
5887.882, 4.9198e-07
5889.883999999999, 4.7766e-07
5891.8859999999995, 4.4852e-07
5893.887999999999, 4.4969e-07
5895.889999999999, 4.5336e-07
5897.891999999999, 4.8825e-07
5899.893999999999, 4.5023e-07
5901.896, 4.6588e-07
5903.897999999999, 4.5673e-07
5905.9, 4.4299e-07
5907.901999999999, 4.6038e-07
5909.9039999999995, 4.3658e-07
5911.905999999999, 4.5659e-07
5913.907999999999, 4.7595e-07
5915.909999999999, 4.9033e-07
5917.911999999999, 4.5985e-07
5919.914, 4.8013e-07
5921.915999999999, 4.5533e-07
5923.918, 4.8508e-07
5925.919999999999, 4.3266e-07
5927.922, 4.3284e-07
5929.923999999999, 4.7918e-07
5931.9259999999995, 4.5989e-07
5933.927999999999, 4.396e-07
5935.929999999999, 4.5571e-07
5937.932, 4.4288e-07
5939.933999999999, 4.8321e-07
5941.936, 4.5412e-07
5943.937999999999, 4.6418e-07
5945.94, 4.4679e-07
5947.941999999999, 5.0243e-07
5949.9439999999995, 4.3066e-07
5951.945999999999, 4.3427e-07
5953.947999999999, 4.8676e-07
5955.949999999999, 4.8673e-07
5957.951999999999, 4.8206e-07
5959.954, 4.4849e-07
5961.955999999999, 4.5435e-07
5963.958, 4.8043e-07
5965.959999999999, 4.5246e-07
5967.9619999999995, 4.6935e-07
5969.963999999999, 4.5678e-07
5971.965999999999, 4.9213e-07
5973.967999999999, 4.8105e-07
5975.969999999999, 4.9474e-07
5977.972, 4.7479e-07
5979.973999999999, 4.6914e-07
5981.976, 4.3821e-07
5983.977999999999, 4.4267e-07
5985.98, 4.5704e-07
5987.981999999999, 4.7319e-07
5989.9839999999995, 4.6448e-07
5991.985999999999, 4.5717e-07
5993.987999999999, 4.6605e-07
5995.99, 4.6965e-07
5997.991999999999, 4.7417e-07
5999.994, 4.7695e-07
6001.995999999999, 4.1234e-07
6003.998, 4.7976e-07
6005.999999999999, 4.5882e-07
6008.0019999999995, 4.4942e-07
6010.003999999999, 4.2375e-07
6012.005999999999, 4.8081e-07
6014.007999999999, 4.6279e-07
6016.009999999999, 4.6321e-07
6018.012, 4.7404e-07
6020.013999999999, 4.4647e-07
6022.016, 5.151e-07
6024.017999999999, 4.5662e-07
6026.0199999999995, 5.0684e-07
6028.021999999999, 4.2531e-07
6030.023999999999, 4.8808e-07
6032.025999999999, 4.934e-07
6034.027999999999, 4.5221e-07
6036.03, 4.5834e-07
6038.031999999999, 4.8052e-07
6040.034, 5.0554e-07
6042.035999999999, 4.503e-07
6044.038, 4.7215e-07
6046.039999999999, 4.6678e-07
6048.0419999999995, 4.5261e-07
6050.043999999999, 4.737e-07
6052.045999999999, 4.5233e-07
6054.048, 4.6561e-07
6056.049999999999, 4.0041e-07
6058.052, 4.7023e-07
6060.053999999999, 4.5287e-07
6062.056, 4.6145e-07
6064.057999999999, 4.4002e-07
6066.0599999999995, 5.0065e-07
6068.061999999999, 4.2335e-07
6070.063999999999, 4.697e-07
6072.065999999999, 4.4349e-07
6074.067999999999, 4.5901e-07
6076.07, 5.0335e-07
6078.071999999999, 4.4193e-07
6080.074, 4.4708e-07
6082.075999999999, 4.6771e-07
6084.0779999999995, 4.1585e-07
6086.079999999999, 4.4548e-07
6088.081999999999, 4.7368e-07
6090.083999999999, 4.3029e-07
6092.085999999999, 4.8954e-07
6094.088, 4.7059e-07
6096.089999999999, 4.3301e-07
6098.092, 4.4127e-07
6100.093999999999, 4.6247e-07
6102.096, 4.6378e-07
6104.097999999999, 4.5299e-07
6106.099999999999, 4.5389e-07
6108.101999999999, 4.6279e-07
6110.103999999999, 4.1756e-07
6112.106, 4.5745e-07
6114.107999999999, 4.5875e-07
6116.11, 4.4989e-07
6118.111999999999, 4.6709e-07
6120.114, 4.3419e-07
6122.115999999999, 4.11e-07
6124.1179999999995, 2.1271e-07
6126.119999999999, -2.269e-08
6128.121999999999, -2.619e-08
6130.123999999999, -2.132e-08
6132.125999999999, -2.114e-08
6134.128, -2.392e-08
6136.129999999999, -2.306e-08
6138.132, -2.243e-08
6140.133999999999, -2.251e-08
6142.1359999999995, -2.138e-08
6144.137999999999, -1.943e-08
6146.139999999999, -2.228e-08
6148.141999999999, -2.246e-08
6150.143999999999, -1.827e-08
6152.146, -2.201e-08
6154.147999999999, -2.09e-08
6156.15, -2.058e-08
6158.151999999999, -2.024e-08
6160.1539999999995, -1.886e-08
6162.155999999999, -1.667e-08
6164.157999999999, -1.777e-08
6166.159999999999, -2.095e-08
6168.161999999999, -2.141e-08
6170.164, -2.074e-08
6172.165999999999, -1.936e-08
6174.168, -2.229e-08
6176.169999999999, -2.098e-08
6178.172, -2.364e-08
6180.173999999999, -2.735e-08
6182.1759999999995, -2.739e-08
6184.177999999999, -2.413e-08
6186.179999999999, -2.468e-08
6188.181999999999, -2.624e-08
6190.183999999999, -2.397e-08
6192.186, -2.35e-08
6194.187999999999, -2.454e-08
6196.19, -2.158e-08
6198.191999999999, -2.311e-08
6200.1939999999995, -2.443e-08
6202.195999999999, -2.146e-08
6204.197999999999, -2.384e-08
6206.199999999999, -2.266e-08
6208.201999999999, -2.592e-08
6210.204, -2.361e-08
6212.205999999999, -2.247e-08
6214.208, -2.434e-08
6216.209999999999, -2.353e-08
6218.2119999999995, -2.604e-08
6220.213999999999, -2.538e-08
6222.215999999999, -2.549e-08
6224.217999999999, -2.284e-08
6226.219999999999, -2.382e-08
6228.222, -2.324e-08
6230.223999999999, -1.991e-08
6232.226, -2.127e-08
6234.227999999999, -2.35e-08
6236.23, -2.374e-08
6238.231999999999, -2.663e-08
6240.2339999999995, -2.393e-08
6242.235999999999, -2.261e-08
6244.237999999999, -2.256e-08
6246.239999999999, -2.082e-08
6248.241999999999, -2.203e-08
6250.244, -2.346e-08
6252.245999999999, -2.8e-08
6254.248, -2.061e-08
6256.249999999999, -2.27e-08
6258.2519999999995, -2.221e-08
6260.253999999999, -2.544e-08
6262.255999999999, -2.556e-08
6264.257999999999, -2.25e-08
6266.259999999999, -1.971e-08
6268.262, -2.909e-08
6270.263999999999, -2.276e-08
6272.266, -2.084e-08
6274.267999999999, -2.029e-08
6276.2699999999995, -2.278e-08
6278.271999999999, -2.251e-08
6280.273999999999, -2.072e-08
6282.275999999999, -2.323e-08
6284.277999999999, -2.276e-08
6286.28, -2.09e-08
6288.281999999999, -2.437e-08
6290.284, -2.048e-08
6292.285999999999, -2.513e-08
6294.288, -2.605e-08
6296.289999999999, -2.52e-08
6298.2919999999995, -2.44e-08
6300.293999999999, -2.421e-08
6302.295999999999, -2.614e-08
6304.297999999999, -2.658e-08
6306.299999999999, -2.419e-08
6308.302, -2.238e-08
6310.303999999999, -2.265e-08
6312.306, -2.189e-08
6314.307999999999, -2.075e-08
6316.3099999999995, -2.413e-08
6318.311999999999, -2.507e-08
6320.313999999999, -2.851e-08
6322.315999999999, -2.83e-08
6324.317999999999, -2.534e-08
6326.32, -2.363e-08
6328.321999999999, -2.716e-08
6330.324, -2.159e-08
6332.325999999999, -2.529e-08
6334.3279999999995, -2.517e-08
6336.329999999999, -2.494e-08
6338.331999999999, -2.481e-08
6340.333999999999, -2.599e-08
6342.335999999999, -2.318e-08
6344.338, -2.593e-08
6346.339999999999, -2.53e-08
6348.342, -2.367e-08
6350.343999999999, -2.488e-08
6352.346, -2.541e-08
6354.347999999999, -2.784e-08
6356.349999999999, -2.589e-08
6358.351999999999, -2.64e-08
6360.353999999999, -2.742e-08
6362.355999999999, -2.245e-08
6364.357999999999, -2.268e-08
6366.36, -2.162e-08
6368.361999999999, -2.052e-08
6370.364, -2.015e-08
6372.365999999999, -1.853e-08
6374.3679999999995, -1.999e-08
6376.369999999999, -1.979e-08
6378.371999999999, -2.096e-08
6380.373999999999, -2.124e-08
6382.375999999999, -2.185e-08
6384.378, -2.193e-08
6386.379999999999, -2.291e-08
6388.382, -2.151e-08
6390.383999999999, -2.43e-08
6392.3859999999995, -1.963e-08
6394.387999999999, -1.682e-08
6396.389999999999, -2.304e-08
6398.391999999999, -2.044e-08
6400.393999999999, -2.441e-08
6402.396, -2.394e-08
6404.397999999999, -2.283e-08
6406.4, -2.432e-08
6408.401999999999, -2.637e-08
6410.4039999999995, -2.777e-08
6412.405999999999, -2.62e-08
6414.407999999999, -2.586e-08
6416.409999999999, -2.644e-08
6418.411999999999, -2.749e-08
6420.413999999999, -2.63e-08
6422.415999999999, -2.79e-08
6424.418, -2.377e-08
6426.419999999999, -2.697e-08
6428.422, -2.019e-08
6430.423999999999, -2.396e-08
6432.4259999999995, -2.101e-08
6434.427999999999, -2.423e-08
6436.429999999999, -2.778e-08
6438.431999999999, -2.619e-08
6440.433999999999, -2.718e-08
6442.436, -2.621e-08
6444.437999999999, -2.623e-08
6446.44, -2.544e-08
6448.441999999999, -2.283e-08
6450.4439999999995, -2.511e-08
6452.445999999999, -2.157e-08
6454.447999999999, -2.269e-08
6456.449999999999, -2.64e-08
6458.451999999999, -2.326e-08
6460.454, -2.23e-08
6462.455999999999, -2.523e-08
6464.458, -2.487e-08
6466.459999999999, -2.69e-08
6468.4619999999995, -2.851e-08
6470.463999999999, -2.33e-08
6472.465999999999, -2.581e-08
6474.467999999999, -2.861e-08
6476.469999999999, -2.575e-08
6478.471999999999, -2.535e-08
6480.473999999999, -2.662e-08
6482.476, -2.326e-08
6484.477999999999, -2.612e-08
6486.48, -2.18e-08
6488.481999999999, -2.399e-08
6490.4839999999995, -2.598e-08
6492.485999999999, -2.482e-08
6494.487999999999, -2.29e-08
6496.489999999999, -2.36e-08
6498.491999999999, -2.442e-08
6500.494, -2.333e-08
6502.495999999999, -2.534e-08
6504.498, -2.597e-08
6506.499999999999, -2.274e-08
6508.5019999999995, -2.227e-08
6510.503999999999, -2.305e-08
6512.505999999999, -2.349e-08
6514.507999999999, -2.571e-08
6516.509999999999, -2.913e-08
6518.512, -2.478e-08
6520.513999999999, -2.565e-08
6522.516, -2.736e-08
6524.517999999999, -2.654e-08
6526.5199999999995, -2.666e-08
6528.521999999999, -2.229e-08
6530.523999999999, -2.685e-08
6532.525999999999, -2.374e-08
6534.527999999999, -2.834e-08
6536.529999999999, -2.664e-08
6538.531999999999, -2.809e-08
6540.534, -2.783e-08
6542.535999999999, -3.01e-08
6544.538, -2.926e-08
6546.539999999999, -3.229e-08
6548.5419999999995, -2.64e-08
6550.543999999999, -2.65e-08
6552.545999999999, -2.771e-08
6554.547999999999, -2.268e-08
6556.549999999999, -2.066e-08
6558.552, -2.294e-08
6560.553999999999, -2.174e-08
6562.556, -2e-08
6564.557999999999, -1.953e-08
6566.5599999999995, -1.933e-08
6568.561999999999, -2.144e-08
6570.563999999999, -2.682e-08
6572.565999999999, -2.247e-08
6574.567999999999, -2.034e-08
6576.57, -2.286e-08
6578.571999999999, -2.067e-08
6580.574, -2.174e-08
6582.575999999999, -1.916e-08
6584.5779999999995, -1.994e-08
6586.579999999999, -2.18e-08
6588.581999999999, -2.438e-08
6590.583999999999, -2.195e-08
6592.585999999999, -2.491e-08
6594.587999999999, -2.234e-08
6596.589999999999, -2.387e-08
6598.592, -2.282e-08
6600.593999999999, -2.543e-08
6602.596, -2.301e-08
6604.597999999999, -2.151e-08
6606.599999999999, -2.207e-08
6608.601999999999, -2.335e-08
6610.603999999999, -2.181e-08
6612.605999999999, -2.197e-08
6614.607999999999, -2.124e-08
6616.61, -2.473e-08
6618.611999999999, -1.905e-08
6620.614, -2.027e-08
6622.615999999999, -2.346e-08
6624.6179999999995, -2.369e-08
6626.619999999999, -2.361e-08
6628.621999999999, -2.77e-08
6630.623999999999, -2.219e-08
6632.625999999999, -2.028e-08
6634.628, -2.203e-08
6636.629999999999, -2.04e-08
6638.632, -2.262e-08
6640.633999999999, -2.038e-08
6642.6359999999995, -2.12e-08
6644.637999999999, -2.094e-08
6646.639999999999, -2.117e-08
6648.641999999999, -2.395e-08
6650.643999999999, -2.008e-08
6652.645999999999, -2.167e-08
6654.647999999999, -2.389e-08
6656.65, -1.936e-08
6658.651999999999, -2.329e-08
6660.6539999999995, -2.383e-08
6662.655999999999, -2.184e-08
6664.657999999999, -2.398e-08
6666.659999999999, -2.368e-08
6668.661999999999, -2.037e-08
6670.663999999999, -2.36e-08
6672.665999999999, -2.16e-08
6674.668, -2.146e-08
6676.669999999999, -2.351e-08
6678.672, -2.704e-08
6680.673999999999, -2.63e-08
6682.6759999999995, -2.513e-08
6684.677999999999, -2.454e-08
6686.679999999999, -2.367e-08
6688.681999999999, -2.598e-08
6690.683999999999, -2.527e-08
6692.686, -2.503e-08
6694.687999999999, -2.561e-08
6696.69, -2.527e-08
6698.691999999999, -2.375e-08
6700.6939999999995, -2.713e-08
6702.695999999999, -2.806e-08
6704.697999999999, -2.555e-08
6706.699999999999, -2.281e-08
6708.701999999999, -3.035e-08
6710.703999999999, -3.002e-08
6712.705999999999, -3.019e-08
6714.708, -2.969e-08
6716.709999999999, -2.69e-08
6718.7119999999995, -2.782e-08
6720.713999999999, -2.241e-08
6722.715999999999, -2.516e-08
6724.717999999999, -2.774e-08
6726.719999999999, -2.511e-08
6728.721999999999, -2.87e-08
6730.723999999999, -2.433e-08
6732.726, -2.8e-08
6734.727999999999, -2.409e-08
6736.73, -2.511e-08
6738.731999999999, -2.378e-08
6740.7339999999995, -3.018e-08
6742.735999999999, -2.763e-08
6744.737999999999, -2.475e-08
6746.739999999999, -2.371e-08
6748.741999999999, -2.665e-08
6750.744, -2.659e-08
6752.745999999999, -2.652e-08
6754.748, -2.766e-08
6756.749999999999, -2.928e-08
6758.7519999999995, -2.608e-08
6760.753999999999, -2.45e-08
6762.755999999999, -2.257e-08
6764.757999999999, -2.526e-08
6766.759999999999, -2.031e-08
6768.761999999999, -2.735e-08
6770.763999999999, -2.617e-08
6772.766, -2.613e-08
6774.767999999999, -2.585e-08
6776.7699999999995, -2.376e-08
6778.771999999999, -2.807e-08
6780.773999999999, -2.411e-08
6782.775999999999, -2.761e-08
6784.777999999999, -2.697e-08
6786.779999999999, -2.922e-08
6788.781999999999, -2.527e-08
6790.784, -2.976e-08
6792.785999999999, -2.792e-08
6794.788, -2.599e-08
6796.789999999999, -2.345e-08
6798.7919999999995, -2.364e-08
6800.793999999999, -2.424e-08
6802.795999999999, -2.491e-08
6804.797999999999, -2.496e-08
6806.799999999999, -2.733e-08
6808.802, -2.617e-08
6810.803999999999, -2.595e-08
6812.806, -2.813e-08
6814.807999999999, -2.367e-08
6816.8099999999995, -2.868e-08
6818.811999999999, -2.674e-08
6820.813999999999, -2.889e-08
6822.815999999999, -2.509e-08
6824.817999999999, -2.822e-08
6826.819999999999, -3.082e-08
6828.821999999999, -3.004e-08
6830.824, -2.749e-08
6832.825999999999, -2.807e-08
6834.8279999999995, -2.955e-08
6836.829999999999, -2.972e-08
6838.831999999999, -2.831e-08
6840.833999999999, -2.772e-08
6842.835999999999, -3.119e-08
6844.837999999999, -2.835e-08
6846.839999999999, -2.973e-08
6848.842, -2.708e-08
6850.843999999999, -2.481e-08
6852.846, -2.749e-08
6854.847999999999, -2.57e-08
6856.849999999999, -2.877e-08
6858.851999999999, -2.752e-08
6860.853999999999, -2.688e-08
6862.855999999999, -2.531e-08
6864.857999999999, -2.539e-08
6866.86, -2.628e-08
6868.861999999999, -2.78e-08
6870.864, -2.853e-08
6872.865999999999, -2.902e-08
6874.8679999999995, -2.715e-08
6876.869999999999, -2.539e-08
6878.871999999999, -2.732e-08
6880.873999999999, -2.623e-08
6882.875999999999, -2.511e-08
6884.877999999999, -2.533e-08
6886.879999999999, -2.368e-08
6888.882, -2.247e-08
6890.883999999999, -2.368e-08
6892.8859999999995, -2.44e-08
6894.887999999999, -2.421e-08
6896.889999999999, -1.992e-08
6898.891999999999, -2.311e-08
6900.893999999999, -2.367e-08
6902.895999999999, -2.625e-08
6904.897999999999, -2.369e-08
6906.9, -2.345e-08
6908.901999999999, -2.111e-08
6910.9039999999995, -2.036e-08
6912.905999999999, -2.346e-08
6914.907999999999, -2.445e-08
6916.909999999999, -2.116e-08
6918.911999999999, -2.271e-08
6920.913999999999, -2.268e-08
6922.915999999999, -2.474e-08
6924.918, -2.265e-08
6926.919999999999, -2.032e-08
6928.922, -2.08e-08
6930.923999999999, -2.211e-08
6932.9259999999995, -2.085e-08
6934.927999999999, -2.205e-08
6936.929999999999, -2.277e-08
6938.931999999999, -1.969e-08
6940.933999999999, -2.279e-08
6942.935999999999, -2.641e-08
6944.937999999999, -1.947e-08
6946.94, -2.28e-08
6948.941999999999, -2.681e-08
6950.9439999999995, -2.763e-08
6952.945999999999, -2.24e-08
6954.947999999999, -2.128e-08
6956.949999999999, -2.35e-08
6958.951999999999, -2.119e-08
6960.953999999999, -2.313e-08
6962.955999999999, -2.442e-08
6964.958, -2.207e-08
6966.959999999999, -2.25e-08
6968.9619999999995, -2.3e-08
6970.963999999999, -2.322e-08
6972.965999999999, -2.264e-08
6974.967999999999, -2.366e-08
6976.969999999999, -2.46e-08
6978.971999999999, -2.434e-08
6980.973999999999, -2.418e-08
6982.976, -2.672e-08
6984.977999999999, -2.829e-08
6986.98, -2.539e-08
6988.981999999999, -2.701e-08
6990.9839999999995, -2.295e-08
6992.985999999999, -2.263e-08
6994.987999999999, -2.449e-08
6996.989999999999, -2.54e-08
6998.991999999999, -2.391e-08
7000.993999999999, -2.28e-08
7002.995999999999, -2.373e-08
7004.998, -2.363e-08
7006.999999999999, -2.762e-08
7009.0019999999995, -2.745e-08
7011.003999999999, -2.257e-08
7013.005999999999, -2.728e-08
7015.007999999999, -2.562e-08
7017.009999999999, -2.564e-08
7019.011999999999, -2.677e-08
7021.013999999999, -2.599e-08
7023.016, -2.6e-08
7025.017999999999, -2.324e-08
7027.0199999999995, -2.101e-08
7029.021999999999, -2.433e-08
7031.023999999999, -2.247e-08
7033.025999999999, -2.697e-08
7035.027999999999, -2.305e-08
7037.029999999999, -2.527e-08
7039.031999999999, -2.515e-08
7041.034, -2.466e-08
7043.035999999999, -2.571e-08
7045.038, -2.981e-08
7047.039999999999, -2.611e-08
7049.0419999999995, -2.21e-08
7051.043999999999, -2.676e-08
7053.045999999999, -2.872e-08
7055.047999999999, -2.855e-08
7057.049999999999, -2.638e-08
7059.051999999999, -2.783e-08
7061.053999999999, -2.62e-08
7063.056, -2.795e-08
7065.057999999999, -2.388e-08
7067.0599999999995, -2.544e-08
7069.061999999999, -2.295e-08
7071.063999999999, -2.713e-08
7073.065999999999, -2.309e-08
7075.067999999999, -2.666e-08
7077.069999999999, -2.529e-08
7079.071999999999, -2.477e-08
7081.074, -2.641e-08
7083.075999999999, -2.774e-08
7085.0779999999995, -2.656e-08
7087.079999999999, -2.779e-08
7089.081999999999, -2.686e-08
7091.083999999999, -2.282e-08
7093.085999999999, -2.713e-08
7095.087999999999, -2.964e-08
7097.089999999999, -2.79e-08
7099.092, -2.796e-08
7101.093999999999, -2.886e-08
7103.096, -2.321e-08
7105.097999999999, -2.637e-08
7107.099999999999, -2.288e-08
7109.101999999999, -2.128e-08
7111.103999999999, -2.461e-08
7113.105999999999, -2.439e-08
7115.107999999999, -2.267e-08
7117.109999999999, -2.612e-08
7119.111999999999, -2.89e-08
7121.114, -2.767e-08
7123.115999999999, -2.793e-08
7125.1179999999995, -2.528e-08
7127.119999999999, -2.35e-08
7129.121999999999, -2.717e-08
7131.123999999999, -2.542e-08
7133.125999999999, -2.438e-08
7135.127999999999, -2.236e-08
7137.129999999999, -2.37e-08
7139.132, -2.621e-08
7141.133999999999, -2.714e-08
7143.1359999999995, -2.705e-08
7145.137999999999, -2.604e-08
7147.139999999999, -2.847e-08
7149.141999999999, -2.776e-08
7151.143999999999, -2.816e-08
7153.145999999999, -2.709e-08
7155.147999999999, -2.449e-08
7157.15, -2.893e-08
7159.151999999999, -3.036e-08
7161.1539999999995, -2.694e-08
7163.155999999999, -2.587e-08
7165.157999999999, -2.569e-08
7167.159999999999, -2.584e-08
7169.161999999999, -2.687e-08
7171.163999999999, -2.852e-08
7173.165999999999, -2.849e-08
7175.168, -3.137e-08
7177.169999999999, -3.074e-08
7179.172, -3.032e-08
7181.173999999999, -3.032e-08
7183.1759999999995, -2.642e-08
7185.177999999999, -2.961e-08
7187.179999999999, -2.774e-08
7189.181999999999, -3.135e-08
7191.183999999999, -2.611e-08
7193.185999999999, -2.613e-08
7195.187999999999, -2.363e-08
7197.19, -2.404e-08
7199.191999999999, -2.903e-08
7201.1939999999995, -2.808e-08
7203.195999999999, -2.807e-08
7205.197999999999, -2.592e-08
7207.199999999999, 1.6879e-07
7209.201999999999, 4.0561e-07
7211.203999999999, 4.1673e-07
7213.205999999999, 3.9664e-07
7215.208, 3.7593e-07
7217.209999999999, 4.2537e-07
7219.2119999999995, 3.7664e-07
7221.213999999999, 4.4085e-07
7223.215999999999, 4.269e-07
7225.217999999999, 4.2056e-07
7227.219999999999, 4.0748e-07
7229.221999999999, 3.7949e-07
7231.223999999999, 4.224e-07
7233.226, 3.8863e-07
7235.227999999999, 3.8973e-07
7237.23, 4.2265e-07
7239.231999999999, 3.9811e-07
7241.2339999999995, 4.2822e-07
7243.235999999999, 3.9169e-07
7245.237999999999, 4.1992e-07
7247.239999999999, 3.7652e-07
7249.241999999999, 3.9847e-07
7251.243999999999, 4.1116e-07
7253.245999999999, 3.2981e-07
7255.248, 4.1033e-07
7257.249999999999, 4.529e-07
7259.2519999999995, 4.1149e-07
7261.253999999999, 4.0521e-07
7263.255999999999, 4.4963e-07
7265.257999999999, 4.4154e-07
7267.259999999999, 3.8258e-07
7269.261999999999, 4.2567e-07
7271.263999999999, 3.9021e-07
7273.266, 4.6743e-07
7275.267999999999, 4.3196e-07
7277.2699999999995, 4.1555e-07
7279.271999999999, 4.2809e-07
7281.273999999999, 4.433e-07
7283.275999999999, 3.6493e-07
7285.277999999999, 4.0024e-07
7287.279999999999, 4.4484e-07
7289.281999999999, 4.0469e-07
7291.284, 4.286e-07
7293.285999999999, 4.2428e-07
7295.288, 4.0538e-07
7297.289999999999, 4.1679e-07
7299.2919999999995, 3.8638e-07
7301.293999999999, 4.0179e-07
7303.295999999999, 3.9345e-07
7305.297999999999, 4.0494e-07
7307.299999999999, 3.8283e-07
7309.301999999999, 4.0587e-07
7311.303999999999, 4.4e-07
7313.306, 4.0988e-07
7315.307999999999, 4.4034e-07
7317.3099999999995, 4.1449e-07
7319.311999999999, 4.1633e-07
7321.313999999999, 4.4406e-07
7323.315999999999, 3.999e-07
7325.317999999999, 4.6009e-07
7327.319999999999, 3.9711e-07
7329.321999999999, 4.0271e-07
7331.324, 4.3751e-07
7333.325999999999, 4.1257e-07
7335.3279999999995, 4.0578e-07
7337.329999999999, 4.2968e-07
7339.331999999999, 4.1667e-07
7341.333999999999, 4.0779e-07
7343.335999999999, 4.0418e-07
7345.337999999999, 4.0262e-07
7347.339999999999, 4.5189e-07
7349.342, 4.2865e-07
7351.343999999999, 4.4809e-07
7353.346, 4.0189e-07
7355.347999999999, 4.2757e-07
7357.349999999999, 4.4378e-07
7359.351999999999, 4.2303e-07
7361.353999999999, 3.9548e-07
7363.355999999999, 4.1032e-07
7365.357999999999, 4.3556e-07
7367.359999999999, 4.4827e-07
7369.361999999999, 3.8834e-07
7371.364, 4.9263e-07
7373.365999999999, 4.1625e-07
7375.3679999999995, 4.902e-07
7377.369999999999, 4.2598e-07
7379.371999999999, 4.1368e-07
7381.373999999999, 4.2451e-07
7383.375999999999, 4.6612e-07
7385.377999999999, 4.5439e-07
7387.379999999999, 4.1025e-07
7389.382, 3.9779e-07
7391.383999999999, 4.2935e-07
7393.3859999999995, 4.3351e-07
7395.387999999999, 4.5434e-07
7397.389999999999, 4.1548e-07
7399.391999999999, 4.4163e-07
7401.393999999999, 4.3844e-07
7403.395999999999, 4.0685e-07
7405.397999999999, 4.5861e-07
7407.4, 4.6313e-07
7409.401999999999, 4.098e-07
7411.4039999999995, 4.5248e-07
7413.405999999999, 4.3524e-07
7415.407999999999, 4.1145e-07
7417.409999999999, 4.2158e-07
7419.411999999999, 4.3674e-07
7421.413999999999, 4.5193e-07
7423.415999999999, 4.4159e-07
7425.417999999999, 4.5993e-07
7427.419999999999, 4.8108e-07
7429.422, 4.2146e-07
7431.423999999999, 4.216e-07
7433.4259999999995, 4.1524e-07
7435.427999999999, 4.916e-07
7437.429999999999, 4.3193e-07
7439.431999999999, 4.4214e-07
7441.433999999999, 4.2691e-07
7443.435999999999, 4.5964e-07
7445.437999999999, 4.271e-07
7447.44, 4.6739e-07
7449.441999999999, 4.2084e-07
7451.4439999999995, 4.4152e-07
7453.445999999999, 4.5754e-07
7455.447999999999, 4.3376e-07
7457.449999999999, 4.3947e-07
7459.451999999999, 4.5676e-07
7461.453999999999, 4.7925e-07
7463.455999999999, 4.3727e-07
7465.458, 4.7957e-07
7467.459999999999, 4.585e-07
7469.4619999999995, 4.3059e-07
7471.463999999999, 4.0852e-07
7473.465999999999, 4.6815e-07
7475.467999999999, 4.077e-07
7477.469999999999, 4.5181e-07
7479.471999999999, 5.1354e-07
7481.473999999999, 4.593e-07
7483.475999999999, 4.5004e-07
7485.477999999999, 4.4935e-07
7487.48, 4.1315e-07
7489.481999999999, 4.4591e-07
7491.4839999999995, 4.3202e-07
7493.485999999999, 4.1562e-07
7495.487999999999, 4.3611e-07
7497.489999999999, 4.1619e-07
7499.491999999999, 4.6826e-07
7501.493999999999, 4.4748e-07
7503.495999999999, 4.7064e-07
7505.498, 4.4851e-07
7507.499999999999, 4.4828e-07
7509.5019999999995, 4.65e-07
7511.503999999999, 4.2474e-07
7513.505999999999, 4.3242e-07
7515.507999999999, 4.5053e-07
7517.509999999999, 4.0913e-07
7519.511999999999, 4.1664e-07
7521.513999999999, 4.5117e-07
7523.516, 4.5171e-07
7525.517999999999, 4.2385e-07
7527.5199999999995, 4.4682e-07
7529.521999999999, 4.2646e-07
7531.523999999999, 4.5423e-07
7533.525999999999, 4.7937e-07
7535.527999999999, 4.673e-07
7537.529999999999, 4.1582e-07
7539.531999999999, 4.6742e-07
7541.533999999999, 4.5576e-07
7543.535999999999, 4.6257e-07
7545.538, 4.4662e-07
7547.539999999999, 4.3172e-07
7549.5419999999995, 4.6834e-07
7551.543999999999, 4.3058e-07
7553.545999999999, 4.2618e-07
7555.547999999999, 4.2492e-07
7557.549999999999, 4.5797e-07
7559.551999999999, 4.2832e-07
7561.553999999999, 4.6324e-07
7563.556, 4.3502e-07
7565.557999999999, 4.5265e-07
7567.5599999999995, 3.8478e-07
7569.561999999999, 4.4143e-07
7571.563999999999, 4.5166e-07
7573.565999999999, 3.9989e-07
7575.567999999999, 4.2693e-07
7577.569999999999, 4.5561e-07
7579.571999999999, 4.759e-07
7581.574, 4.4317e-07
7583.575999999999, 4.6106e-07
7585.5779999999995, 4.8551e-07
7587.579999999999, 5.3415e-07
7589.581999999999, 4.1427e-07
7591.583999999999, 4.3469e-07
7593.585999999999, 4.4485e-07
7595.587999999999, 3.9437e-07
7597.589999999999, 4.5806e-07
7599.591999999999, 4.5866e-07
7601.593999999999, 4.7346e-07
7603.596, 4.7832e-07
7605.597999999999, 4.74e-07
7607.599999999999, 4.1685e-07
7609.601999999999, 4.6236e-07
7611.603999999999, 4.0866e-07
7613.605999999999, 4.6961e-07
7615.607999999999, 4.6782e-07
7617.609999999999, 4.6773e-07
7619.611999999999, 4.6309e-07
7621.614, 4.1657e-07
7623.615999999999, 4.4078e-07
7625.6179999999995, 4.5744e-07
7627.619999999999, 4.5569e-07
7629.621999999999, 4.2621e-07
7631.623999999999, 3.8019e-07
7633.625999999999, 4.4515e-07
7635.627999999999, 4.5039e-07
7637.629999999999, 4.5225e-07
7639.632, 4.6301e-07
7641.633999999999, 4.5066e-07
7643.6359999999995, 4.204e-07
7645.637999999999, 4.5569e-07
7647.639999999999, 4.3427e-07
7649.641999999999, 4.3306e-07
7651.643999999999, 4.4178e-07
7653.645999999999, 4.6282e-07
7655.647999999999, 4.714e-07
7657.649999999999, 4.7877e-07
7659.651999999999, 3.8021e-07
7661.6539999999995, 4.2798e-07
7663.655999999999, 4.8811e-07
7665.657999999999, 4.5496e-07
7667.659999999999, 4.5173e-07
7669.661999999999, 4.6198e-07
7671.663999999999, 4.9151e-07
7673.665999999999, 4.9368e-07
7675.667999999999, 4.423e-07
7677.669999999999, 4.4881e-07
7679.672, 4.5325e-07
7681.673999999999, 4.6327e-07
7683.6759999999995, 4.8155e-07
7685.677999999999, 4.2519e-07
7687.679999999999, 4.3199e-07
7689.681999999999, 4.4417e-07
7691.683999999999, 4.1479e-07
7693.685999999999, 4.4128e-07
7695.687999999999, 4.6023e-07
7697.69, 4.507e-07
7699.691999999999, 4.4097e-07
7701.6939999999995, 4.468e-07
7703.695999999999, 4.8711e-07
7705.697999999999, 4.2619e-07
7707.699999999999, 4.5288e-07
7709.701999999999, 4.6142e-07
7711.703999999999, 4.42e-07
7713.705999999999, 4.3535e-07
7715.707999999999, 4.4109e-07
7717.709999999999, 4.4806e-07
7719.7119999999995, 4.7203e-07
7721.713999999999, 4.2288e-07
7723.715999999999, 4.1305e-07
7725.717999999999, 4.3746e-07
7727.719999999999, 5.0416e-07
7729.721999999999, 4.546e-07
7731.723999999999, 4.4604e-07
7733.725999999999, 4.4132e-07
7735.727999999999, 4.0287e-07
7737.73, 4.5301e-07
7739.731999999999, 4.9743e-07
7741.7339999999995, 4.5033e-07
7743.735999999999, 4.5037e-07
7745.737999999999, 4.3497e-07
7747.739999999999, 4.9701e-07
7749.741999999999, 4.6503e-07
7751.743999999999, 4.6613e-07
7753.745999999999, 4.5105e-07
7755.748, 4.5518e-07
7757.749999999999, 4.9148e-07
7759.7519999999995, 4.6118e-07
7761.753999999999, 4.5935e-07
7763.755999999999, 4.1535e-07
7765.757999999999, 4.5416e-07
7767.759999999999, 5.0165e-07
7769.761999999999, 4.1764e-07
7771.763999999999, 4.505e-07
7773.765999999999, 4.6804e-07
7775.767999999999, 4.4881e-07
7777.7699999999995, 4.1102e-07
7779.771999999999, 4.8536e-07
7781.773999999999, 4.5544e-07
7783.775999999999, 4.3721e-07
7785.777999999999, 4.2987e-07
7787.779999999999, 4.5225e-07
7789.781999999999, 4.8499e-07
7791.783999999999, 4.3812e-07
7793.785999999999, 4.4137e-07
7795.788, 4.6083e-07
7797.789999999999, 4.5483e-07
7799.7919999999995, 4.5764e-07
7801.793999999999, 3.9252e-07
7803.795999999999, 4.4957e-07
7805.797999999999, 4.4893e-07
7807.799999999999, 4.3205e-07
7809.801999999999, 4.2251e-07
7811.803999999999, 4.4961e-07
7813.806, 4.6578e-07
7815.807999999999, 4.4922e-07
7817.8099999999995, 4.8106e-07
7819.811999999999, 4.3523e-07
7821.813999999999, 3.9185e-07
7823.815999999999, 4.1117e-07
7825.817999999999, 4.6871e-07
7827.819999999999, 4.6857e-07
7829.821999999999, 4.516e-07
7831.823999999999, 3.9036e-07
7833.825999999999, 4.4442e-07
7835.8279999999995, 3.8263e-07
7837.829999999999, 4.1113e-07
7839.831999999999, 4.3404e-07
7841.833999999999, 4.4973e-07
7843.835999999999, 4.523e-07
7845.837999999999, 4.2645e-07
7847.839999999999, 4.3398e-07
7849.841999999999, 4.6897e-07
7851.843999999999, 4.4475e-07
7853.846, 4.2557e-07
7855.847999999999, 3.9953e-07
7857.849999999999, 4.7686e-07
7859.851999999999, 4.2687e-07
7861.853999999999, 4.7036e-07
7863.855999999999, 4.5996e-07
7865.857999999999, 4.6741e-07
7867.859999999999, 4.7448e-07
7869.861999999999, 4.422e-07
7871.864, 4.1719e-07
7873.865999999999, 4.3334e-07
7875.8679999999995, 4.5506e-07
7877.869999999999, 4.4057e-07
7879.871999999999, 4.2714e-07
7881.873999999999, 4.2169e-07
7883.875999999999, 4.9922e-07
7885.877999999999, 4.2741e-07
7887.879999999999, 4.5126e-07
7889.881999999999, 4.2317e-07
7891.883999999999, 4.8124e-07
7893.8859999999995, 4.6666e-07
7895.887999999999, 4.589e-07
7897.889999999999, 4.5861e-07
7899.891999999999, 4.6461e-07
7901.893999999999, 4.5907e-07
7903.895999999999, 4.7258e-07
7905.897999999999, 4.4572e-07
7907.899999999999, 4.8942e-07
7909.901999999999, 4.8054e-07
7911.9039999999995, 4.6805e-07
7913.905999999999, 4.5632e-07
7915.907999999999, 4.2792e-07
7917.909999999999, 4.3967e-07
7919.911999999999, 4.1648e-07
7921.913999999999, 4.2683e-07
7923.915999999999, 4.7826e-07
7925.917999999999, 4.3991e-07
7927.919999999999, 4.9546e-07
7929.922, 4.3362e-07
7931.923999999999, 4.8519e-07
7933.9259999999995, 4.7191e-07
7935.927999999999, 4.2171e-07
7937.929999999999, 4.648e-07
7939.931999999999, 5.1181e-07
7941.933999999999, 4.4418e-07
7943.935999999999, 4.3271e-07
7945.937999999999, 4.4583e-07
7947.939999999999, 4.7678e-07
7949.941999999999, 4.4062e-07
7951.9439999999995, 4.4609e-07
7953.945999999999, 4.286e-07
7955.947999999999, 4.6963e-07
7957.949999999999, 4.5301e-07
7959.951999999999, 4.6521e-07
7961.953999999999, 4.601e-07
7963.955999999999, 4.5917e-07
7965.957999999999, 4.5572e-07
7967.959999999999, 4.2923e-07
7969.9619999999995, 4.6633e-07
7971.963999999999, 4.1588e-07
7973.965999999999, 4.408e-07
7975.967999999999, 4.2837e-07
7977.969999999999, 4.521e-07
7979.971999999999, 4.5732e-07
7981.973999999999, 4.52e-07
7983.975999999999, 4.5838e-07
7985.977999999999, 4.4409e-07
7987.98, 4.855e-07
7989.981999999999, 4.6359e-07
7991.9839999999995, 4.3113e-07
7993.985999999999, 4.2483e-07
7995.987999999999, 5.2128e-07
7997.989999999999, 4.4275e-07
7999.991999999999, 4.3025e-07
8001.993999999999, 4.5591e-07
8003.995999999999, 4.3488e-07
8005.997999999999, 4.9083e-07
8007.999999999999, 4.6803e-07
8010.0019999999995, 4.3942e-07
8012.003999999999, 4.1195e-07
8014.005999999999, 4.7595e-07
8016.007999999999, 4.5391e-07
8018.009999999999, 4.3763e-07
8020.011999999999, 4.759e-07
8022.013999999999, 4.0475e-07
8024.015999999999, 4.6654e-07
8026.017999999999, 4.6407e-07
8028.0199999999995, 4.1551e-07
8030.021999999999, 4.6287e-07
8032.023999999999, 4.3291e-07
8034.025999999999, 4.6042e-07
8036.027999999999, 4.678e-07
8038.029999999999, 4.6434e-07
8040.031999999999, 4.3908e-07
8042.033999999999, 4.6599e-07
8044.035999999999, 4.1803e-07
8046.038, 4.285e-07
8048.039999999999, 4.6689e-07
8050.0419999999995, 4.5433e-07
8052.043999999999, 4.7207e-07
8054.045999999999, 4.3363e-07
8056.047999999999, 4.8209e-07
8058.049999999999, 4.4261e-07
8060.051999999999, 4.3385e-07
8062.053999999999, 4.6921e-07
8064.055999999999, 4.981e-07
8066.057999999999, 4.5416e-07
8068.0599999999995, 4.4561e-07
8070.061999999999, 4.4205e-07
8072.063999999999, 4.5152e-07
8074.065999999999, 4.6899e-07
8076.067999999999, 4.7002e-07
8078.069999999999, 4.2808e-07
8080.071999999999, 4.4263e-07
8082.073999999999, 4.6711e-07
8084.075999999999, 4.6e-07
8086.0779999999995, 4.6246e-07
8088.079999999999, 4.5456e-07
8090.081999999999, 4.147e-07
8092.083999999999, 4.7874e-07
8094.085999999999, 4.4335e-07
8096.087999999999, 4.5102e-07
8098.089999999999, 4.3844e-07
8100.091999999999, 3.9975e-07
8102.093999999999, 4.3236e-07
8104.096, 4.454e-07
8106.097999999999, 4.6316e-07
8108.099999999999, 4.2147e-07
8110.101999999999, 4.1945e-07
8112.103999999999, 4.47e-07
8114.105999999999, 4.5484e-07
8116.107999999999, 4.8451e-07
8118.109999999999, 4.3756e-07
8120.111999999999, 4.5191e-07
8122.113999999999, 4.3153e-07
8124.115999999999, 4.7846e-07
8126.1179999999995, 4.6398e-07
8128.119999999999, 4.1778e-07
8130.121999999999, 4.6764e-07
8132.123999999999, 4.6701e-07
8134.125999999999, 4.4354e-07
8136.127999999999, 4.5709e-07
8138.129999999999, 4.3658e-07
8140.131999999999, 4.204e-07
8142.133999999999, 4.1034e-07
8144.1359999999995, 4.8044e-07
8146.137999999999, 4.5356e-07
8148.139999999999, 4.6865e-07
8150.141999999999, 4.3589e-07
8152.143999999999, 4.3731e-07
8154.145999999999, 4.5648e-07
8156.147999999999, 4.8936e-07
8158.149999999999, 4.5125e-07
8160.151999999999, 4.2575e-07
8162.1539999999995, 4.4396e-07
8164.155999999999, 4.1531e-07
8166.157999999999, 4.4902e-07
8168.159999999999, 4.9202e-07
8170.161999999999, 4.4834e-07
8172.163999999999, 4.4807e-07
8174.165999999999, 4.3253e-07
8176.167999999999, 4.4579e-07
8178.169999999999, 4.4211e-07
8180.171999999999, 4.8054e-07
8182.173999999999, 4.2515e-07
8184.1759999999995, 4.7514e-07
8186.177999999999, 4.2479e-07
8188.179999999999, 4.4247e-07
8190.181999999999, 4.5311e-07
8192.184, 4.808e-07
8194.186, 4.3345e-07
8196.187999999998, 4.2583e-07
8198.189999999999, 4.7612e-07
8200.192, 5.0089e-07
8202.194, 4.3731e-07
8204.196, 4.229e-07
8206.197999999999, 4.7642e-07
8208.199999999999, 1.8685e-07
8210.202, -2.408e-08
8212.204, -2.18e-08
8214.205999999998, -1.827e-08
8216.207999999999, -1.88e-08
8218.21, -2.552e-08
8220.212, -2.047e-08
8222.214, -2.135e-08
8224.215999999999, -2.167e-08
8226.217999999999, -2.144e-08
8228.22, -2.316e-08
8230.222, -2.463e-08
8232.223999999998, -2.378e-08
8234.225999999999, -2.527e-08
8236.228, -2.435e-08
8238.23, -2.499e-08
8240.232, -2.647e-08
8242.233999999999, -2.615e-08
8244.235999999999, -2.149e-08
8246.238, -2.134e-08
8248.24, -2.754e-08
8250.241999999998, -2.257e-08
8252.243999999999, -2.555e-08
8254.246, -2.402e-08
8256.248, -2.916e-08
8258.25, -2.53e-08
8260.251999999999, -2.327e-08
8262.253999999999, -2.424e-08
8264.256, -2.287e-08
8266.258, -2.303e-08
8268.259999999998, -2.31e-08
8270.261999999999, -2.823e-08
8272.264, -2.303e-08
8274.266, -2.261e-08
8276.267999999998, -2.147e-08
8278.269999999999, -2.679e-08
8280.271999999999, -2.179e-08
8282.274, -2.331e-08
8284.276, -2.085e-08
8286.277999999998, -2.292e-08
8288.279999999999, -2.466e-08
8290.282, -2.51e-08
8292.284, -2.463e-08
8294.285999999998, -2.646e-08
8296.287999999999, -2.254e-08
8298.289999999999, -2.369e-08
8300.292, -2.21e-08
8302.294, -2.537e-08
8304.295999999998, -2.122e-08
8306.297999999999, -2.216e-08
8308.3, -2.255e-08
8310.302, -2.372e-08
8312.303999999998, -2.549e-08
8314.305999999999, -2.666e-08
8316.307999999999, -2.213e-08
8318.31, -2.459e-08
8320.312, -2.556e-08
8322.313999999998, -2.395e-08
8324.315999999999, -2.831e-08
8326.318, -2.412e-08
8328.32, -2.603e-08
8330.321999999998, -2.616e-08
8332.323999999999, -2.554e-08
8334.326, -2.328e-08
8336.328, -2.3e-08
8338.33, -2.782e-08
8340.331999999999, -2.464e-08
8342.333999999999, -2.475e-08
8344.336, -2.42e-08
8346.338, -2.247e-08
8348.339999999998, -2.183e-08
8350.341999999999, -2.303e-08
8352.344, -2.074e-08
8354.346, -2.159e-08
8356.348, -2.254e-08
8358.349999999999, -2.378e-08
8360.351999999999, -2.461e-08
8362.354, -2.779e-08
8364.356, -2.455e-08
8366.357999999998, -2.501e-08
8368.359999999999, -2.682e-08
8370.362, -2.414e-08
8372.364, -2.404e-08
8374.366, -2.558e-08
8376.367999999999, -2.14e-08
8378.369999999999, -2.504e-08
8380.372, -2.411e-08
8382.374, -2.64e-08
8384.375999999998, -2.617e-08
8386.377999999999, -2.848e-08
8388.38, -2.53e-08
8390.382, -2.57e-08
8392.383999999998, -2.494e-08
8394.385999999999, -2.484e-08
8396.387999999999, -2.787e-08
8398.39, -2.681e-08
8400.392, -2.654e-08
8402.393999999998, -2.581e-08
8404.395999999999, -2.21e-08
8406.398, -2.616e-08
8408.4, -2.734e-08
8410.401999999998, -2.721e-08
8412.403999999999, -2.541e-08
8414.405999999999, -2.885e-08
8416.408, -2.511e-08
8418.41, -2.593e-08
8420.411999999998, -2.899e-08
8422.413999999999, -2.649e-08
8424.416, -2.445e-08
8426.418, -2.688e-08
8428.419999999998, -2.618e-08
8430.421999999999, -2.663e-08
8432.423999999999, -2.337e-08
8434.426, -2.613e-08
8436.428, -2.258e-08
8438.429999999998, -2.294e-08
8440.431999999999, -2.513e-08
8442.434, -1.982e-08
8444.436, -2.172e-08
8446.437999999998, -2.212e-08
8448.439999999999, -2.235e-08
8450.442, -2.648e-08
8452.444, -2.575e-08
8454.446, -2.394e-08
8456.447999999999, -2.656e-08
8458.449999999999, -2.703e-08
8460.452, -2.694e-08
8462.454, -3.099e-08
8464.455999999998, -3.041e-08
8466.457999999999, -2.48e-08
8468.46, -2.872e-08
8470.462, -2.77e-08
8472.464, -2.924e-08
8474.465999999999, -2.438e-08
8476.467999999999, -2.605e-08
8478.47, -2.691e-08
8480.472, -3.077e-08
8482.473999999998, -2.942e-08
8484.475999999999, -3.071e-08
8486.478, -2.836e-08
8488.48, -2.533e-08
8490.482, -2.737e-08
8492.483999999999, -3.021e-08
8494.485999999999, -2.661e-08
8496.488, -2.481e-08
8498.49, -2.816e-08
8500.491999999998, -2.567e-08
8502.493999999999, -2.582e-08
8504.496, -2.951e-08
8506.498, -2.871e-08
8508.499999999998, -2.882e-08
8510.501999999999, -2.86e-08
8512.503999999999, -3.066e-08
8514.506, -2.527e-08
8516.508, -2.835e-08
8518.509999999998, -2.647e-08
8520.511999999999, -3.034e-08
8522.514, -2.37e-08
8524.516, -2.784e-08
8526.517999999998, -2.216e-08
8528.519999999999, -2.532e-08
8530.521999999999, -2.573e-08
8532.524, -2.615e-08
8534.526, -2.236e-08
8536.527999999998, -2.624e-08
8538.529999999999, -2.597e-08
8540.532, -2.511e-08
8542.534, -2.603e-08
8544.535999999998, -2.365e-08
8546.537999999999, -2.715e-08
8548.539999999999, -2.578e-08
8550.542, -2.573e-08
8552.544, -2.617e-08
8554.545999999998, -2.749e-08
8556.547999999999, -2.483e-08
8558.55, -2.261e-08
8560.552, -2.564e-08
8562.553999999998, -2.659e-08
8564.555999999999, -2.486e-08
8566.557999999999, -2.549e-08
8568.56, -2.733e-08
8570.562, -2.637e-08
8572.563999999998, -2.545e-08
8574.565999999999, -2.506e-08
8576.568, -2.249e-08
8578.57, -2.225e-08
8580.571999999998, -2.319e-08
8582.573999999999, -2.089e-08
8584.576, -1.762e-08
8586.578, -2.031e-08
8588.58, -1.93e-08
8590.581999999999, -2.383e-08
8592.583999999999, -2.124e-08
8594.586, -2.036e-08
8596.588, -2.075e-08
8598.589999999998, -2.012e-08
8600.591999999999, -2.146e-08
8602.594, -2.038e-08
8604.596, -1.838e-08
8606.598, -1.694e-08
8608.599999999999, -2.107e-08
8610.601999999999, -2.154e-08
8612.604, -2.31e-08
8614.606, -1.835e-08
8616.607999999998, -2.348e-08
8618.609999999999, -1.795e-08
8620.612, -1.863e-08
8622.614, -1.769e-08
8624.615999999998, -1.881e-08
8626.617999999999, -1.962e-08
8628.619999999999, -2.175e-08
8630.622, -2.076e-08
8632.624, -2.25e-08
8634.625999999998, -1.836e-08
8636.627999999999, -1.844e-08
8638.63, -1.6e-08
8640.632, -1.903e-08
8642.633999999998, -2.165e-08
8644.635999999999, -1.885e-08
8646.637999999999, -2.237e-08
8648.64, -2.147e-08
8650.642, -2.203e-08
8652.643999999998, -1.929e-08
8654.645999999999, -2.096e-08
8656.648, -1.918e-08
8658.65, -2.187e-08
8660.651999999998, -1.944e-08
8662.653999999999, -2.324e-08
8664.655999999999, -2.248e-08
8666.658, -2.142e-08
8668.66, -2.093e-08
8670.661999999998, -2.011e-08
8672.663999999999, -2.072e-08
8674.666, -2.523e-08
8676.668, -2.552e-08
8678.669999999998, -2.709e-08
8680.671999999999, -2.53e-08
8682.673999999999, -2.561e-08
8684.676, -2.432e-08
8686.678, -2.111e-08
8688.679999999998, -2.552e-08
8690.681999999999, -2.456e-08
8692.684, -2.564e-08
8694.686, -2.81e-08
8696.687999999998, -2.568e-08
8698.689999999999, -2.523e-08
8700.692, -2.339e-08
8702.694, -2.337e-08
8704.696, -1.947e-08
8706.697999999999, -2.137e-08
8708.699999999999, -2.538e-08
8710.702, -2.425e-08
8712.704, -2.282e-08
8714.705999999998, -2.141e-08
8716.707999999999, -2.346e-08
8718.71, -2.146e-08
8720.712, -2.438e-08
8722.714, -2.417e-08
8724.715999999999, -2.488e-08
8726.717999999999, -2.667e-08
8728.72, -2.272e-08
8730.722, -2.463e-08
8732.723999999998, -1.861e-08
8734.725999999999, -2.495e-08
8736.728, -2.094e-08
8738.73, -2.145e-08
8740.731999999998, -2.003e-08
8742.733999999999, -2.479e-08
8744.735999999999, -2.253e-08
8746.738, -2.242e-08
8748.74, -2.56e-08
8750.741999999998, -2.605e-08
8752.743999999999, -2.49e-08
8754.746, -2.281e-08
8756.748, -2.059e-08
8758.749999999998, -1.857e-08
8760.751999999999, -1.819e-08
8762.753999999999, -1.799e-08
8764.756, -2.033e-08
8766.758, -2.289e-08
8768.759999999998, -2.245e-08
8770.761999999999, -2.206e-08
8772.764, -2.012e-08
8774.766, -2.208e-08
8776.767999999998, -2.297e-08
8778.769999999999, -2.127e-08
8780.771999999999, -2.21e-08
8782.774, -2.323e-08
8784.776, -2.48e-08
8786.777999999998, -2.288e-08
8788.779999999999, -1.888e-08
8790.782, -2.259e-08
8792.784, -2.078e-08
8794.785999999998, -2.008e-08
8796.787999999999, -1.889e-08
8798.789999999999, -1.91e-08
8800.792, -1.545e-08
8802.794, -2.334e-08
8804.795999999998, -2.278e-08
8806.797999999999, -1.868e-08
8808.8, -2.258e-08
8810.802, -2.1e-08
8812.803999999998, -2.358e-08
8814.805999999999, -1.896e-08
8816.807999999999, -2.156e-08
8818.81, -1.846e-08
8820.812, -2.299e-08
8822.813999999998, -2.261e-08
8824.815999999999, -2.463e-08
8826.818, -2.317e-08
8828.82, -2.428e-08
8830.821999999998, -2.455e-08
8832.823999999999, -2.5e-08
8834.826, -2.505e-08
8836.828, -2.414e-08
8838.83, -2.523e-08
8840.831999999999, -2.824e-08
8842.833999999999, -2.789e-08
8844.836, -2.814e-08
8846.838, -2.503e-08
8848.839999999998, -2.174e-08
8850.841999999999, -2.331e-08
8852.844, -1.831e-08
8854.846, -2.223e-08
8856.847999999998, -2.24e-08
8858.849999999999, -2.044e-08
8860.851999999999, -2.254e-08
8862.854, -2.395e-08
8864.856, -2.64e-08
8866.857999999998, -2.488e-08
8868.859999999999, -2.119e-08
8870.862, -2.622e-08
8872.864, -2.481e-08
8874.865999999998, -2.379e-08
8876.867999999999, -2.347e-08
8878.869999999999, -2.092e-08
8880.872, -2.264e-08
8882.874, -2.14e-08
8884.875999999998, -1.885e-08
8886.877999999999, -1.794e-08
8888.88, -1.646e-08
8890.882, -1.738e-08
8892.883999999998, -1.81e-08
8894.885999999999, -1.838e-08
8896.887999999999, -1.741e-08
8898.89, -1.972e-08
8900.892, -1.837e-08
8902.893999999998, -1.765e-08
8904.895999999999, -2.083e-08
8906.898, -2.361e-08
8908.9, -2.432e-08
8910.901999999998, -2.096e-08
8912.903999999999, -2.164e-08
8914.905999999999, -1.79e-08
8916.908, -1.901e-08
8918.91, -1.974e-08
8920.911999999998, -2.121e-08
8922.913999999999, -1.793e-08
8924.916, -1.913e-08
8926.918, -1.668e-08
8928.919999999998, -1.938e-08
8930.921999999999, -1.997e-08
8932.923999999999, -1.763e-08
8934.926, -1.965e-08
8936.928, -1.822e-08
8938.929999999998, -1.96e-08
8940.931999999999, -1.749e-08
8942.934, -1.826e-08
8944.936, -1.391e-08
8946.937999999998, -1.752e-08
8948.939999999999, -1.618e-08
8950.942, -1.6e-08
8952.944, -1.648e-08
8954.946, -1.594e-08
8956.947999999999, -1.6e-08
8958.949999999999, -1.714e-08
8960.952, -1.893e-08
8962.954, -1.211e-08
8964.955999999998, -1.36e-08
8966.957999999999, -1.002e-08
8968.96, -1.479e-08
8970.962, -1.408e-08
8972.963999999998, -1.558e-08
8974.965999999999, -1.68e-08
8976.967999999999, -1.833e-08
8978.97, -1.914e-08
8980.972, -1.289e-08
8982.973999999998, -1.816e-08
8984.975999999999, -1.978e-08
8986.978, -2.044e-08
8988.98, -1.841e-08
8990.981999999998, -1.869e-08
8992.983999999999, -1.952e-08
8994.985999999999, -1.875e-08
8996.988, -2.302e-08
8998.99, -1.724e-08
9000.991999999998, -2.055e-08
9002.993999999999, -2.241e-08
9004.996, -2.172e-08
9006.998, -2.391e-08
9008.999999999998, -2.108e-08
9011.001999999999, -2.089e-08
9013.003999999999, -1.998e-08
9015.006, -2.209e-08
9017.008, -1.739e-08
9019.009999999998, -1.511e-08
9021.011999999999, -1.757e-08
9023.014, -1.621e-08
9025.016, -1.968e-08
9027.017999999998, -1.817e-08
9029.019999999999, -1.549e-08
9031.021999999999, -1.979e-08
9033.024, -1.815e-08
9035.026, -1.743e-08
9037.027999999998, -1.66e-08
9039.029999999999, -1.998e-08
9041.032, -1.934e-08
9043.034, -1.832e-08
9045.035999999998, -2.194e-08
9047.037999999999, -1.747e-08
9049.039999999999, -2.112e-08
9051.042, -1.847e-08
9053.044, -1.623e-08
9055.045999999998, -1.587e-08
9057.047999999999, -1.941e-08
9059.05, -2.165e-08
9061.052, -2.271e-08
9063.053999999998, -1.947e-08
9065.055999999999, -2.189e-08
9067.057999999999, -1.491e-08
9069.06, -1.782e-08
9071.062, -1.645e-08
9073.063999999998, -2.171e-08
9075.065999999999, -1.776e-08
9077.068, -1.701e-08
9079.07, -1.691e-08
9081.071999999998, -1.952e-08
9083.073999999999, -1.732e-08
9085.076, -2.151e-08
9087.078, -2.172e-08
9089.079999999998, -1.734e-08
9091.081999999999, -1.996e-08
9093.083999999999, -2.254e-08
9095.086, -2.075e-08
9097.088, -1.976e-08
9099.089999999998, -2.253e-08
9101.091999999999, -2.481e-08
9103.094, -2.118e-08
9105.096, -2.453e-08
9107.097999999998, -2.275e-08
9109.099999999999, -2.554e-08
9111.101999999999, -2.086e-08
9113.104, -1.721e-08
9115.106, -1.855e-08
9117.107999999998, -2.252e-08
9119.109999999999, -2.149e-08
9121.112, -2.488e-08
9123.114, -2.237e-08
9125.115999999998, -2.229e-08
9127.117999999999, -2.049e-08
9129.119999999999, -2.175e-08
9131.122, -2.354e-08
9133.124, -2.272e-08
9135.125999999998, -2.333e-08
9137.127999999999, -2.197e-08
9139.13, -2.699e-08
9141.132, -2.844e-08
9143.133999999998, -2.609e-08
9145.135999999999, -3.02e-08
9147.137999999999, -2.264e-08
9149.14, -2.623e-08
9151.142, -2.436e-08
9153.143999999998, -2.682e-08
9155.145999999999, -2.399e-08
9157.148, -2.562e-08
9159.15, -1.978e-08
9161.151999999998, -2.547e-08
9163.153999999999, -1.846e-08
9165.155999999999, -2.479e-08
9167.158, -2.465e-08
9169.16, -2.115e-08
9171.161999999998, -2.591e-08
9173.163999999999, -2.117e-08
9175.166, -2.537e-08
9177.168, -2.456e-08
9179.169999999998, -2.452e-08
9181.171999999999, -2.139e-08
9183.173999999999, -2.412e-08
9185.176, -2.331e-08
9187.178, -2.479e-08
9189.179999999998, -2.223e-08
9191.181999999999, -2.414e-08
9193.184, -2.55e-08
9195.186, -1.931e-08
9197.187999999998, -2.263e-08
9199.189999999999, -2.217e-08
9201.192, -2.303e-08
9203.194, -2.411e-08
9205.195999999998, -2.116e-08
9207.197999999999, -2.42e-08
9209.199999999999, -2.131e-08
9211.202, -2.347e-08
9213.204, -2.165e-08
9215.205999999998, -1.953e-08
9217.207999999999, -2.089e-08
9219.21, -2.308e-08
9221.212, -2.336e-08
9223.213999999998, -1.855e-08
9225.215999999999, -2.085e-08
9227.217999999999, -1.908e-08
9229.22, -2.393e-08
9231.222, -2.203e-08
9233.223999999998, -2.361e-08
9235.225999999999, -2.029e-08
9237.228, -1.95e-08
9239.23, -2.16e-08
9241.231999999998, -2.166e-08
9243.233999999999, -2.339e-08
9245.235999999999, -2.597e-08
9247.238, -2.298e-08
9249.24, -2.389e-08
9251.241999999998, -2.069e-08
9253.243999999999, -2.218e-08
9255.246, -2.347e-08
9257.248, -2.188e-08
9259.249999999998, -1.93e-08
9261.251999999999, -2.267e-08
9263.253999999999, -2.227e-08
9265.256, -2.238e-08
9267.258, -2.013e-08
9269.259999999998, -2.039e-08
9271.261999999999, -2.571e-08
9273.264, -2.343e-08
9275.266, -2.706e-08
9277.267999999998, -2.834e-08
9279.269999999999, -3.015e-08
9281.271999999999, -2.994e-08
9283.274, -2.642e-08
9285.276, -2.448e-08
9287.277999999998, -2.484e-08
9289.279999999999, -2.619e-08
9291.282, -2.265e-08
9293.284, -2.713e-08
9295.285999999998, -2.474e-08
9297.287999999999, -2.095e-08
9299.289999999999, -2.087e-08
9301.292, -2.021e-08
9303.294, -2.278e-08
9305.295999999998, -2.718e-08
9307.297999999999, -2.32e-08
9309.3, -2.435e-08
9311.302, -2.23e-08
9313.303999999998, -2.126e-08
9315.305999999999, -2.24e-08
9317.307999999999, -1.95e-08
9319.31, -1.84e-08
9321.311999999998, -1.839e-08
9323.313999999998, -1.845e-08
9325.315999999999, -1.933e-08
9327.318, -2.534e-08
9329.32, -2.408e-08
9331.321999999998, -2.285e-08
9333.323999999999, -2.335e-08
9335.326, -2.267e-08
9337.328, -2.233e-08
9339.329999999998, -2.053e-08
9341.331999999999, -2.36e-08
9343.333999999999, -2.49e-08
9345.336, -2.19e-08
9347.338, -2.337e-08
9349.339999999998, -2.481e-08
9351.341999999999, -2.558e-08
9353.344, -2.072e-08
9355.346, -2.167e-08
9357.347999999998, -2.46e-08
9359.349999999999, -2.123e-08
9361.351999999999, -2.405e-08
9363.354, -2.579e-08
9365.356, -2.401e-08
9367.357999999998, -2.042e-08
9369.359999999999, -1.924e-08
9371.362, -1.833e-08
9373.364, -2.015e-08
9375.365999999998, -1.907e-08
9377.367999999999, -1.734e-08
9379.369999999999, -2.068e-08
9381.372, -1.56e-08
9383.374, -2.129e-08
9385.375999999998, -1.743e-08
9387.377999999999, -1.856e-08
9389.38, -2.164e-08
9391.382, -2.141e-08
9393.383999999998, -1.791e-08
9395.385999999999, -2.428e-08
9397.387999999999, -2.294e-08
9399.39, -2.12e-08
9401.392, -2.318e-08
9403.393999999998, -2.261e-08
9405.395999999999, -1.823e-08
9407.398, -1.486e-08
9409.4, -1.531e-08
9411.401999999998, -1.882e-08
9413.403999999999, -2.035e-08
9415.405999999999, -2.004e-08
9417.408, -1.843e-08
9419.41, -2.179e-08
9421.411999999998, -2.191e-08
9423.413999999999, -1.809e-08
9425.416, -2.209e-08
9427.418, -2.257e-08
9429.419999999998, -2.06e-08
9431.421999999999, -2.464e-08
9433.423999999999, -2.299e-08
9435.426, -2.472e-08
9437.427999999998, -2.271e-08
9439.429999999998, -2.566e-08
9441.431999999999, -2.435e-08
9443.434, -2.37e-08
9445.436, -2.233e-08
9447.437999999998, -2.53e-08
9449.439999999999, -2.266e-08
9451.442, -1.927e-08
9453.444, -2.115e-08
9455.445999999998, -2.404e-08
9457.447999999999, -2.032e-08
9459.449999999999, -2.024e-08
9461.452, -1.726e-08
9463.454, -1.757e-08
9465.455999999998, -1.985e-08
9467.457999999999, -1.6e-08
9469.46, -1.975e-08
9471.462, -1.696e-08
9473.463999999998, -2.002e-08
9475.465999999999, -1.754e-08
9477.467999999999, -2.071e-08
9479.47, -2.018e-08
9481.472, -2.332e-08
9483.473999999998, -2.105e-08
9485.475999999999, -2.023e-08
9487.478, -2.176e-08
9489.48, -1.885e-08
9491.481999999998, -2.148e-08
9493.483999999999, -2.16e-08
9495.485999999999, -2.193e-08
9497.488, -1.859e-08
9499.49, -1.902e-08
9501.491999999998, -1.674e-08
9503.493999999999, -1.919e-08
9505.496, -1.688e-08
9507.498, -1.459e-08
9509.499999999998, -1.656e-08
9511.501999999999, -1.672e-08
9513.503999999999, -2.03e-08
9515.506, -1.841e-08
9517.508, -2.147e-08
9519.509999999998, -1.745e-08
9521.511999999999, -1.735e-08
9523.514, -1.87e-08
9525.516, -2.169e-08
9527.517999999998, -2.019e-08
9529.519999999999, -1.669e-08
9531.521999999999, -1.879e-08
9533.524, -1.865e-08
9535.526, -1.787e-08
9537.527999999998, -1.987e-08
9539.529999999999, -1.632e-08
9541.532, -1.747e-08
9543.534, -2.417e-08
9545.535999999998, -2.094e-08
9547.537999999999, -1.962e-08
9549.539999999999, -2.311e-08
9551.542, -2.118e-08
9553.543999999998, -1.755e-08
9555.545999999998, -1.764e-08
9557.547999999999, -1.916e-08
9559.55, -1.965e-08
9561.552, -1.626e-08
9563.553999999998, -1.668e-08
9565.555999999999, -1.537e-08
9567.557999999999, -1.626e-08
9569.56, -1.716e-08
9571.561999999998, -1.83e-08
9573.563999999998, -1.358e-08
9575.565999999999, -1.553e-08
9577.568, -1.373e-08
9579.57, -1.333e-08
9581.571999999998, -2.174e-08
9583.573999999999, -1.798e-08
9585.576, -1.236e-08
9587.578, -1.47e-08
9589.579999999998, -1.505e-08
9591.581999999999, -2.077e-08
9593.583999999999, -1.799e-08
9595.586, -1.908e-08
9597.588, -1.805e-08
9599.589999999998, -1.801e-08
9601.591999999999, -1.52e-08
9603.594, -1.519e-08
9605.596, -1.462e-08
9607.597999999998, -1.427e-08
9609.599999999999, -1.604e-08
9611.601999999999, -1.298e-08
9613.604, -1.976e-08
9615.606, -1.859e-08
9617.607999999998, -1.724e-08
9619.609999999999, -1.812e-08
9621.612, -1.901e-08
9623.614, -2.113e-08
9625.615999999998, -1.51e-08
9627.617999999999, -1.468e-08
9629.619999999999, -2.06e-08
9631.622, -2.022e-08
9633.624, -1.846e-08
9635.625999999998, -2.085e-08
9637.627999999999, -1.869e-08
9639.63, -1.845e-08
9641.632, -1.684e-08
9643.633999999998, -2.193e-08
9645.635999999999, -1.714e-08
9647.637999999999, -1.836e-08
9649.64, -2.169e-08
9651.642, -1.671e-08
9653.643999999998, -1.903e-08
9655.645999999999, -2.17e-08
9657.648, -2.398e-08
9659.65, -2.035e-08
9661.651999999998, -2.053e-08
9663.653999999999, -2.24e-08
9665.655999999999, -1.948e-08
9667.658, -2.121e-08
9669.659999999998, -1.732e-08
9671.661999999998, -2.001e-08
9673.663999999999, -2.306e-08
9675.666, -2.092e-08
9677.668, -1.936e-08
9679.669999999998, -2.103e-08
9681.671999999999, -2.099e-08
9683.673999999999, -1.936e-08
9685.676, -1.984e-08
9687.677999999998, -1.469e-08
9689.679999999998, -1.89e-08
9691.681999999999, -1.799e-08
9693.684, -1.899e-08
9695.686, -1.839e-08
9697.687999999998, -1.706e-08
9699.689999999999, -1.624e-08
9701.692, -1.952e-08
9703.694, -2.378e-08
9705.695999999998, -2.059e-08
9707.697999999999, -2.116e-08
9709.699999999999, -2.113e-08
9711.702, -2.043e-08
9713.704, -1.799e-08
9715.705999999998, -1.867e-08
9717.707999999999, -2.084e-08
9719.71, -1.789e-08
9721.712, -2.048e-08
9723.713999999998, -1.817e-08
9725.715999999999, -2.052e-08
9727.717999999999, -1.85e-08
9729.72, -1.842e-08
9731.722, -2.198e-08
9733.723999999998, -1.763e-08
9735.725999999999, -1.581e-08
9737.728, -1.714e-08
9739.73, -1.435e-08
9741.731999999998, -1.911e-08
9743.733999999999, -1.845e-08
9745.735999999999, -2.008e-08
9747.738, -1.854e-08
9749.74, -1.745e-08
9751.741999999998, -1.643e-08
9753.743999999999, -1.579e-08
9755.746, -1.789e-08
9757.748, -1.624e-08
9759.749999999998, -1.626e-08
9761.751999999999, -1.843e-08
9763.753999999999, -2.038e-08
9765.756, -1.827e-08
9767.758, -1.912e-08
9769.759999999998, -1.939e-08
9771.761999999999, -1.853e-08
9773.764, -2.06e-08
9775.766, -1.986e-08
9777.767999999998, -1.828e-08
9779.769999999999, -1.97e-08
9781.771999999999, -1.566e-08
9783.774, -1.897e-08
9785.775999999998, -1.491e-08
9787.777999999998, -2.154e-08
9789.779999999999, -1.854e-08
9791.782, -1.918e-08
9793.784, -1.652e-08
9795.785999999998, -1.671e-08
9797.787999999999, -1.593e-08
9799.789999999999, -2.208e-08
9801.792, -2.078e-08
9803.793999999998, -2.154e-08
9805.795999999998, -2.261e-08
9807.797999999999, -2.029e-08
9809.8, -2.121e-08
9811.802, -2.224e-08
9813.803999999998, -2.125e-08
9815.805999999999, -2.423e-08
9817.807999999999, -2.038e-08
9819.81, -2.233e-08
9821.811999999998, -2.367e-08
9823.813999999998, -2.775e-08
9825.815999999999, -2.806e-08
9827.818, -2.269e-08
9829.82, -2.718e-08
9831.821999999998, -2.564e-08
9833.823999999999, -2.05e-08
9835.826, -2.411e-08
9837.828, -2.721e-08
9839.829999999998, -2.504e-08
9841.831999999999, -2.856e-08
9843.833999999999, -2.527e-08
9845.836, -2.122e-08
9847.838, -1.985e-08
9849.839999999998, -2.44e-08
9851.841999999999, -2.025e-08
9853.844, -2.445e-08
9855.846, -2.156e-08
9857.847999999998, -1.99e-08
9859.849999999999, -2.095e-08
9861.851999999999, -2.361e-08
9863.854, -2.337e-08
9865.856, -1.863e-08
9867.857999999998, -1.937e-08
9869.859999999999, -1.945e-08
9871.862, -2.546e-08
9873.864, -2.004e-08
9875.865999999998, -2.311e-08
9877.867999999999, -2.204e-08
9879.869999999999, -2.619e-08
9881.872, -2.464e-08
9883.874, -2.431e-08
9885.875999999998, -1.997e-08
9887.877999999999, -1.912e-08
9889.88, -2.242e-08
9891.882, -2.516e-08
9893.883999999998, -1.919e-08
9895.885999999999, -1.64e-08
9897.887999999999, -2.401e-08
9899.89, -1.959e-08
9901.891999999998, -2.552e-08
9903.893999999998, -2.355e-08
9905.895999999999, -2.354e-08
9907.898, -2.333e-08
9909.9, -2.53e-08
9911.901999999998, -2.632e-08
9913.903999999999, -2.423e-08
9915.905999999999, -2.587e-08
9917.908, -2.43e-08
9919.909999999998, -2.2e-08
9921.911999999998, -2.644e-08
9923.913999999999, -2.785e-08
9925.916, -2.884e-08
9927.918, -2.262e-08
9929.919999999998, -1.872e-08
9931.921999999999, -2.58e-08
9933.923999999999, -2.106e-08
9935.926, -2.434e-08
9937.927999999998, -2.406e-08
9939.929999999998, -2.275e-08
9941.931999999999, -2.304e-08
9943.934, -2.651e-08
9945.936, -2.389e-08
9947.937999999998, -2.524e-08
9949.939999999999, -2.636e-08
9951.942, -2.427e-08
9953.944, -2.301e-08
9955.945999999998, -1.969e-08
9957.947999999999, -2.418e-08
9959.949999999999, -2.567e-08
9961.952, -2.447e-08
9963.954, -2.374e-08
9965.955999999998, -2.42e-08
9967.957999999999, -2.305e-08
9969.96, -2.234e-08
9971.962, -2.135e-08
9973.963999999998, -2.292e-08
9975.965999999999, -2.223e-08
9977.967999999999, -1.851e-08
9979.97, -2.062e-08
9981.972, -2.121e-08
9983.973999999998, -2.169e-08
9985.975999999999, -2.236e-08
9987.978, -1.924e-08
9989.98, -2.38e-08
9991.981999999998, -2.4e-08
9993.983999999999, -2.258e-08
9995.985999999999, -2.67e-08
9997.988, -1.774e-08
9999.99, -2.344e-08
10001.991999999998, -2.027e-08
10003.993999999999, -2.45e-08
10005.996, -2.171e-08
10007.998, -2.577e-08
