Time sep (ms?), Current (A)
0.0, -2.242e-08
2.002, -1.643e-08
4.004, -1.75e-08
6.006, -2.262e-08
8.008, -1.494e-08
10.01, -1.737e-08
12.012, -1.78e-08
14.014, -2.096e-08
16.016, -1.986e-08
18.018, -1.595e-08
20.02, -1.755e-08
22.022, -1.868e-08
24.024, -1.558e-08
26.026, -1.18e-08
28.028, -1.584e-08
30.03, -2.063e-08
32.032, -1.76e-08
34.034, -2.104e-08
36.036, -2.216e-08
38.038, -1.841e-08
40.04, -2.02e-08
42.042, -1.9e-08
44.044, -1.686e-08
46.046, -1.764e-08
48.048, -1.709e-08
50.05, -2.016e-08
52.052, -1.813e-08
54.054, -1.805e-08
56.056, -1.743e-08
58.058, -1.956e-08
60.06, -1.538e-08
62.062, -1.867e-08
64.064, -1.735e-08
66.066, -2.075e-08
68.068, -1.728e-08
70.07, -1.971e-08
72.072, -1.715e-08
74.074, -1.886e-08
76.076, -1.865e-08
78.078, -1.555e-08
80.08, -1.549e-08
82.082, -1.609e-08
84.084, -1.831e-08
86.086, -1.784e-08
88.088, -1.601e-08
90.09, -1.761e-08
92.092, -2.287e-08
94.094, -2.02e-08
96.096, -1.864e-08
98.098, -1.93e-08
100.1, -2.072e-08
102.1, -1.982e-08
104.1, -1.855e-08
106.11, -1.924e-08
108.11, -1.817e-08
110.11, -1.54e-08
112.11, -1.762e-08
114.11, -1.982e-08
116.12, -1.745e-08
118.12, -2.189e-08
120.12, -1.778e-08
122.12, -2.048e-08
124.12, -1.835e-08
126.13, -1.923e-08
128.13, -1.905e-08
130.13, -1.454e-08
132.13, -1.697e-08
134.13, -1.937e-08
136.14, -1.788e-08
138.14, -1.395e-08
140.14, -1.59e-08
142.14, -1.656e-08
144.14, -1.876e-08
146.15, -1.635e-08
148.15, -1.478e-08
150.15, -1.511e-08
152.15, -1.581e-08
154.15, -1.659e-08
156.16, -2.013e-08
158.16, -1.737e-08
160.16, -1.516e-08
162.16, -1.72e-08
164.16, -1.595e-08
166.17, -1.488e-08
168.17, -1.719e-08
170.17, -1.76e-08
172.17, -1.915e-08
174.17, -2e-08
176.18, -1.657e-08
178.18, -1.719e-08
180.18, -1.982e-08
182.18, -1.689e-08
184.18, -1.529e-08
186.19, -1.5e-08
188.19, -1.303e-08
190.19, -1.699e-08
192.19, -1.83e-08
194.19, -1.879e-08
196.2, -2.004e-08
198.2, -1.758e-08
200.2, -1.393e-08
202.2, -1.681e-08
204.2, -2.185e-08
206.21, -2.256e-08
208.21, -2.158e-08
210.21, -1.989e-08
212.21, -1.815e-08
214.21, -1.908e-08
216.22, -1.662e-08
218.22, -2.173e-08
220.22, -2.108e-08
222.22, -2.315e-08
224.22, -2.288e-08
226.23, -2.198e-08
228.23, -2.371e-08
230.23, -2.282e-08
232.23, -1.974e-08
234.23, -2.621e-08
236.24, -2.298e-08
238.24, -2.227e-08
240.24, -2.008e-08
242.24, -2.22e-08
244.24, -2.166e-08
246.25, -1.853e-08
248.25, -2.013e-08
250.25, -1.903e-08
252.25, -1.754e-08
254.25, -1.757e-08
256.26, -1.743e-08
258.26, -1.704e-08
260.26, -1.772e-08
262.26, -1.968e-08
264.26, -2.35e-08
266.27, -2.036e-08
268.27, -1.742e-08
270.27, -1.772e-08
272.27, -1.964e-08
274.27, -2.051e-08
276.28, -2.347e-08
278.28, -1.832e-08
280.28, -1.695e-08
282.28, -2.282e-08
284.28, -2.356e-08
286.29, -2.026e-08
288.29, -2.148e-08
290.29, -1.887e-08
292.29, -2.057e-08
294.29, -2.226e-08
296.3, -2.183e-08
298.3, -2.323e-08
300.3, -1.818e-08
302.3, -1.768e-08
304.3, -2.247e-08
306.31, -2.078e-08
308.31, -1.967e-08
310.31, -1.998e-08
312.31, -2.219e-08
314.31, -1.885e-08
316.32, -2.153e-08
318.32, -2.48e-08
320.32, -2.016e-08
322.32, -2.422e-08
324.32, -2.421e-08
326.33, -2.211e-08
328.33, -2.273e-08
330.33, -2.288e-08
332.33, -2.175e-08
334.33, -2.126e-08
336.34, -2.371e-08
338.34, -2.034e-08
340.34, -2.463e-08
342.34, -2.251e-08
344.34, -2.1e-08
346.35, -2.174e-08
348.35, -2.102e-08
350.35, -2.007e-08
352.35, -2.457e-08
354.35, -2.108e-08
356.36, -2.216e-08
358.36, -1.887e-08
360.36, -1.979e-08
362.36, -2.033e-08
364.36, -2.079e-08
366.37, -2.191e-08
368.37, -1.88e-08
370.37, -2.195e-08
372.37, -1.897e-08
374.37, -1.995e-08
376.38, -1.845e-08
378.38, -1.598e-08
380.38, -1.872e-08
382.38, -1.922e-08
384.38, -2.077e-08
386.39, -1.911e-08
388.39, -1.758e-08
390.39, -1.876e-08
392.39, -1.941e-08
394.39, -1.988e-08
396.4, -2.037e-08
398.4, -1.935e-08
400.4, -1.79e-08
402.4, -1.594e-08
404.4, -1.745e-08
406.41, -1.747e-08
408.41, -2.268e-08
410.41, -1.767e-08
412.41, -2.134e-08
414.41, -1.975e-08
416.42, -1.312e-08
418.42, -1.55e-08
420.42, -1.863e-08
422.42, -1.557e-08
424.42, -1.821e-08
426.43, -2.15e-08
428.43, -1.555e-08
430.43, -1.728e-08
432.43, -1.607e-08
434.43, -1.924e-08
436.44, -1.904e-08
438.44, -1.858e-08
440.44, -1.636e-08
442.44, -1.83e-08
444.44, -2.181e-08
446.45, -1.902e-08
448.45, -1.898e-08
450.45, -1.819e-08
452.45, -1.923e-08
454.45, -1.974e-08
456.46, -1.871e-08
458.46, -1.929e-08
460.46, -1.566e-08
462.46, -1.604e-08
464.46, -1.598e-08
466.47, -1.519e-08
468.47, -1.525e-08
470.47, -1.605e-08
472.47, -1.715e-08
474.47, -2.107e-08
476.48, -2.016e-08
478.48, -1.99e-08
480.48, -1.891e-08
482.48, -2.111e-08
484.48, -2.08e-08
486.49, -2.32e-08
488.49, -1.841e-08
490.49, -1.897e-08
492.49, -1.934e-08
494.49, -1.798e-08
496.5, -2.024e-08
498.5, -1.812e-08
500.5, -1.753e-08
502.5, -1.802e-08
504.5, -1.655e-08
506.51, -1.745e-08
508.51, -1.753e-08
510.51, -1.833e-08
512.51, -1.918e-08
514.51, -1.971e-08
516.52, -1.832e-08
518.52, -2.329e-08
520.52, -2.084e-08
522.52, -2.204e-08
524.52, -2.212e-08
526.53, -2.273e-08
528.53, -1.757e-08
530.53, -1.991e-08
532.53, -1.812e-08
534.53, -2.185e-08
536.54, -2.123e-08
538.54, -2.173e-08
540.54, -1.906e-08
542.54, -2.286e-08
544.54, -1.986e-08
546.55, -2.257e-08
548.55, -2.091e-08
550.55, -2.304e-08
552.55, -1.964e-08
554.55, -1.815e-08
556.56, -2.004e-08
558.56, -2.009e-08
560.56, -1.848e-08
562.56, -2.25e-08
564.56, -2.042e-08
566.57, -2.021e-08
568.57, -1.591e-08
570.57, -2.208e-08
572.57, -2.125e-08
574.57, -2.167e-08
576.58, -1.878e-08
578.58, -1.595e-08
580.58, -1.656e-08
582.58, -2.062e-08
584.58, -1.97e-08
586.59, -1.789e-08
588.59, -1.835e-08
590.59, -1.875e-08
592.59, -1.479e-08
594.59, -1.767e-08
596.6, -1.958e-08
598.6, -2.116e-08
600.6, -1.768e-08
602.6, -2.215e-08
604.6, -2.216e-08
606.61, -2.151e-08
608.61, -1.781e-08
610.61, -1.937e-08
612.61, -2.08e-08
614.61, -1.875e-08
616.62, -2.044e-08
618.62, -2.046e-08
620.62, -1.666e-08
622.62, -1.751e-08
624.62, -2.007e-08
626.63, -1.753e-08
628.63, -1.767e-08
630.63, -1.413e-08
632.63, -1.699e-08
634.63, -1.807e-08
636.64, -1.73e-08
638.64, -2.049e-08
640.64, -1.525e-08
642.64, -1.951e-08
644.64, -1.84e-08
646.65, -2.112e-08
648.65, -1.815e-08
650.65, -1.835e-08
652.65, -1.786e-08
654.65, -2.062e-08
656.66, -2.158e-08
658.66, -2.278e-08
660.66, -1.965e-08
662.66, -2.07e-08
664.66, -1.848e-08
666.67, -1.846e-08
668.67, -1.934e-08
670.67, -1.998e-08
672.67, -2.003e-08
674.67, -2.072e-08
676.68, -2.227e-08
678.68, -1.871e-08
680.68, -1.807e-08
682.68, -2.281e-08
684.68, -2.265e-08
686.69, -2.21e-08
688.69, -2.186e-08
690.69, -2.165e-08
692.69, -2.173e-08
694.69, -2.346e-08
696.7, -2.658e-08
698.7, -2.322e-08
700.7, -2.176e-08
702.7, -2.34e-08
704.7, -2.147e-08
706.71, -2.497e-08
708.71, -2.361e-08
710.71, -2.076e-08
712.71, -2.345e-08
714.71, -2.625e-08
716.72, -2.382e-08
718.72, -2.58e-08
720.72, -2.684e-08
722.72, -2.535e-08
724.72, -2.483e-08
726.73, -2.354e-08
728.73, -2.213e-08
730.73, -2.651e-08
732.73, -2.5e-08
734.73, -2.831e-08
736.74, -2.784e-08
738.74, -2.477e-08
740.74, -2.582e-08
742.74, -2.453e-08
744.74, -2.492e-08
746.75, -2.231e-08
748.75, -2.216e-08
750.75, -2.399e-08
752.75, -2.312e-08
754.75, -2.453e-08
756.76, -2.229e-08
758.76, -2.561e-08
760.76, -2.295e-08
762.76, -2.424e-08
764.76, -2.621e-08
766.77, -2.844e-08
768.77, -2.262e-08
770.77, -2.361e-08
772.77, -2.431e-08
774.77, -2.383e-08
776.78, -2.201e-08
778.78, -2.312e-08
780.78, -2.238e-08
782.78, -2.158e-08
784.78, -2.18e-08
786.79, -2.67e-08
788.79, -2.257e-08
790.79, -2.177e-08
792.79, -2.529e-08
794.79, -2.462e-08
796.8, -2.127e-08
798.8, -2.437e-08
800.8, -2.564e-08
802.8, -2.123e-08
804.8, -2.758e-08
806.81, -2.37e-08
808.81, -1.937e-08
810.81, -2.222e-08
812.81, -2.285e-08
814.81, -2.443e-08
816.82, -2.083e-08
818.82, -2.407e-08
820.82, -2.354e-08
822.82, -1.912e-08
824.82, -2.281e-08
826.83, -2.022e-08
828.83, -2.001e-08
830.83, -2.243e-08
832.83, -1.898e-08
834.83, -2.062e-08
836.84, -2.387e-08
838.84, -2.171e-08
840.84, -2.098e-08
842.84, -2.089e-08
844.84, -1.952e-08
846.85, -2.493e-08
848.85, -2.125e-08
850.85, -1.985e-08
852.85, -2.046e-08
854.85, -2.06e-08
856.86, -1.895e-08
858.86, -2.35e-08
860.86, -1.999e-08
862.86, -1.93e-08
864.86, -2.131e-08
866.87, -2.157e-08
868.87, -1.945e-08
870.87, -1.81e-08
872.87, -1.936e-08
874.87, -2.298e-08
876.88, -2.291e-08
878.88, -1.645e-08
880.88, -2.116e-08
882.88, -2.281e-08
884.88, -2.159e-08
886.89, -2.367e-08
888.89, -2.094e-08
890.89, -1.977e-08
892.89, -2.004e-08
894.89, -2.153e-08
896.9, -2.067e-08
898.9, -1.934e-08
900.9, -1.659e-08
902.9, -2.231e-08
904.9, -2.436e-08
906.91, -2.38e-08
908.91, -2.211e-08
910.91, -2.389e-08
912.91, -2.161e-08
914.91, -2.325e-08
916.92, -2.369e-08
918.92, -2.197e-08
920.92, -2.114e-08
922.92, -2.218e-08
924.92, -2.266e-08
926.93, -2.316e-08
928.93, -1.883e-08
930.93, -2.351e-08
932.93, -2.158e-08
934.93, -2.158e-08
936.94, -2.232e-08
938.94, -2.12e-08
940.94, -2.347e-08
942.94, -2.171e-08
944.94, -2.201e-08
946.95, -2.142e-08
948.95, -2.047e-08
950.95, -2.1e-08
952.95, -1.906e-08
954.95, -2.315e-08
956.96, -1.902e-08
958.96, -2.288e-08
960.96, -2.05e-08
962.96, -2.282e-08
964.96, -2.296e-08
966.97, -2.112e-08
968.97, -2.508e-08
970.97, -1.963e-08
972.97, -1.936e-08
974.97, -2.097e-08
976.98, -2.076e-08
978.98, -2.075e-08
980.98, -2.349e-08
982.98, -2.636e-08
984.98, -2.588e-08
986.99, -2.593e-08
988.99, -2.424e-08
990.99, -2.248e-08
992.99, -1.957e-08
994.99, -2.216e-08
997.0, -1.894e-08
999.0, -2.132e-08
1001.0, -2.007e-08
1003.0, -1.845e-08
1005.0, -2.43e-08
1007.0, -2.335e-08
1009.0, -2.056e-08
1011.0, -1.763e-08
1013.0, -1.946e-08
1015.0, -2.118e-08
1017.0, -2.237e-08
1019.0, -1.901e-08
1021.0, -2.103e-08
1023.0, -2.155e-08
1025.0, -2.331e-08
1027.0, -2.127e-08
1029.0, -2.099e-08
1031.0, -2.124e-08
1033.0, -2.141e-08
1035.0, -2.193e-08
1037.0, -2.081e-08
1039.0, -1.942e-08
1041.0, -2.199e-08
1043.0, -1.964e-08
1045.0, -2.181e-08
1047.0, -1.799e-08
1049.0, -2.027e-08
1051.0, -1.938e-08
1053.1, -2.174e-08
1055.1, -2.268e-08
1057.1, -2.381e-08
1059.1, -2.338e-08
1061.1, -2.586e-08
1063.1, -2.357e-08
1065.1, 2.5134e-06
1067.1, 5.0183e-06
1069.1, 4.9069e-06
1071.1, 5.0762e-06
1073.1, 5.0779e-06
1075.1, 5.1455e-06
1077.1, 4.9835e-06
1079.1, 5.1056e-06
1081.1, 5.0155e-06
1083.1, 5.0006e-06
1085.1, 5.0371e-06
1087.1, 5.1113e-06
1089.1, 5.0373e-06
1091.1, 5.0882e-06
1093.1, 5.0193e-06
1095.1, 5.0634e-06
1097.1, 5.1108e-06
1099.1, 5.0221e-06
1101.1, 5.0073e-06
1103.1, 5.1054e-06
1105.1, 4.9386e-06
1107.1, 5.0455e-06
1109.1, 5.0721e-06
1111.1, 4.8886e-06
1113.1, 5.031e-06
1115.1, 5.0794e-06
1117.1, 4.9432e-06
1119.1, 5.1382e-06
1121.1, 5.1109e-06
1123.1, 5.0166e-06
1125.1, 5.0398e-06
1127.1, 5.1152e-06
1129.1, 5.0458e-06
1131.1, 5.2095e-06
1133.1, 5.0473e-06
1135.1, 4.9716e-06
1137.1, 5.1382e-06
1139.1, 5.1449e-06
1141.1, 5.0668e-06
1143.1, 5.2003e-06
1145.1, 5.045e-06
1147.1, 5.1893e-06
1149.1, 5.0495e-06
1151.1, 5.1352e-06
1153.2, 5.0159e-06
1155.2, 5.0984e-06
1157.2, 5.21e-06
1159.2, 5.0328e-06
1161.2, 5.1297e-06
1163.2, 5.1073e-06
1165.2, 5.0659e-06
1167.2, 5.0323e-06
1169.2, 5.0864e-06
1171.2, 5.1213e-06
1173.2, 5.0386e-06
1175.2, 5.1471e-06
1177.2, 5.0456e-06
1179.2, 5.1004e-06
1181.2, 5.0027e-06
1183.2, 4.9846e-06
1185.2, 5.1282e-06
1187.2, 5.1132e-06
1189.2, 5.0935e-06
1191.2, 5.085e-06
1193.2, 5.1751e-06
1195.2, 5.2277e-06
1197.2, 5.1497e-06
1199.2, 5.1715e-06
1201.2, 5.1612e-06
1203.2, 5.0992e-06
1205.2, 5.076e-06
1207.2, 5.0989e-06
1209.2, 5.0947e-06
1211.2, 5.1037e-06
1213.2, 5.2199e-06
1215.2, 5.1693e-06
1217.2, 5.1387e-06
1219.2, 4.989e-06
1221.2, 5.122e-06
1223.2, 5.1085e-06
1225.2, 5.0764e-06
1227.2, 5.2287e-06
1229.2, 5.0854e-06
1231.2, 5.1537e-06
1233.2, 4.9352e-06
1235.2, 5.1044e-06
1237.2, 5.0422e-06
1239.2, 5.166e-06
1241.2, 5.1719e-06
1243.2, 5.0831e-06
1245.2, 5.0805e-06
1247.2, 5.1871e-06
1249.2, 5.1425e-06
1251.2, 5.0675e-06
1253.3, 5.0608e-06
1255.3, 5.1785e-06
1257.3, 5.1872e-06
1259.3, 5.1288e-06
1261.3, 5.1141e-06
1263.3, 5.1451e-06
1265.3, 5.0556e-06
1267.3, 5.2289e-06
1269.3, 5.2107e-06
1271.3, 5.0921e-06
1273.3, 5.1915e-06
1275.3, 5.1165e-06
1277.3, 5.1279e-06
1279.3, 5.1201e-06
1281.3, 5.1604e-06
1283.3, 5.0435e-06
1285.3, 5.1322e-06
1287.3, 5.1919e-06
1289.3, 5.1861e-06
1291.3, 5.0869e-06
1293.3, 5.2262e-06
1295.3, 5.0706e-06
1297.3, 5.0358e-06
1299.3, 5.1221e-06
1301.3, 5.0938e-06
1303.3, 5.089e-06
1305.3, 5.227e-06
1307.3, 5.1246e-06
1309.3, 5.1236e-06
1311.3, 5.0706e-06
1313.3, 5.1858e-06
1315.3, 5.2138e-06
1317.3, 5.1759e-06
1319.3, 5.1649e-06
1321.3, 5.1514e-06
1323.3, 5.1504e-06
1325.3, 5.1136e-06
1327.3, 5.1196e-06
1329.3, 5.0712e-06
1331.3, 5.2492e-06
1333.3, 5.1496e-06
1335.3, 5.1121e-06
1337.3, 5.1196e-06
1339.3, 5.1789e-06
1341.3, 5.1201e-06
1343.3, 5.1498e-06
1345.3, 5.1367e-06
1347.3, 5.0976e-06
1349.3, 5.1538e-06
1351.3, 5.1566e-06
1353.4, 5.0909e-06
1355.4, 5.1724e-06
1357.4, 5.2643e-06
1359.4, 5.1715e-06
1361.4, 5.0968e-06
1363.4, 5.1758e-06
1365.4, 5.1877e-06
1367.4, 5.2248e-06
1369.4, 5.1413e-06
1371.4, 5.1738e-06
1373.4, 5.1516e-06
1375.4, 5.1487e-06
1377.4, 5.1411e-06
1379.4, 5.2348e-06
1381.4, 5.144e-06
1383.4, 5.2513e-06
1385.4, 5.1454e-06
1387.4, 5.1849e-06
1389.4, 5.1419e-06
1391.4, 5.0958e-06
1393.4, 5.157e-06
1395.4, 5.1811e-06
1397.4, 5.2716e-06
1399.4, 5.1473e-06
1401.4, 5.1644e-06
1403.4, 5.1009e-06
1405.4, 5.1298e-06
1407.4, 5.1788e-06
1409.4, 5.1787e-06
1411.4, 5.1321e-06
1413.4, 5.1666e-06
1415.4, 5.1256e-06
1417.4, 5.2884e-06
1419.4, 5.2022e-06
1421.4, 5.1703e-06
1423.4, 5.1877e-06
1425.4, 5.2211e-06
1427.4, 5.184e-06
1429.4, 5.1495e-06
1431.4, 5.1688e-06
1433.4, 5.1759e-06
1435.4, 5.2324e-06
1437.4, 5.2585e-06
1439.4, 5.258e-06
1441.4, 5.1343e-06
1443.4, 5.0686e-06
1445.4, 5.2059e-06
1447.4, 5.1771e-06
1449.4, 5.1865e-06
1451.4, 5.129e-06
1453.5, 5.1425e-06
1455.5, 5.1797e-06
1457.5, 5.1809e-06
1459.5, 5.0301e-06
1461.5, 5.1902e-06
1463.5, 5.2498e-06
1465.5, 5.084e-06
1467.5, 5.2008e-06
1469.5, 5.1943e-06
1471.5, 5.2608e-06
1473.5, 5.0929e-06
1475.5, 5.1738e-06
1477.5, 5.0785e-06
1479.5, 5.2329e-06
1481.5, 5.1229e-06
1483.5, 5.3334e-06
1485.5, 5.2113e-06
1487.5, 5.3072e-06
1489.5, 5.1004e-06
1491.5, 5.2059e-06
1493.5, 5.097e-06
1495.5, 5.2612e-06
1497.5, 5.2173e-06
1499.5, 5.2635e-06
1501.5, 5.189e-06
1503.5, 5.1877e-06
1505.5, 5.0932e-06
1507.5, 5.2461e-06
1509.5, 5.2105e-06
1511.5, 5.2229e-06
1513.5, 5.234e-06
1515.5, 5.2379e-06
1517.5, 5.1922e-06
1519.5, 5.1646e-06
1521.5, 5.2192e-06
1523.5, 5.121e-06
1525.5, 5.2148e-06
1527.5, 5.1594e-06
1529.5, 5.1589e-06
1531.5, 5.1411e-06
1533.5, 5.218e-06
1535.5, 5.2802e-06
1537.5, 5.2004e-06
1539.5, 5.2214e-06
1541.5, 5.2267e-06
1543.5, 5.1808e-06
1545.5, 5.1303e-06
1547.5, 5.2007e-06
1549.5, 5.1664e-06
1551.5, 5.2022e-06
1553.6, 5.2346e-06
1555.6, 5.1709e-06
1557.6, 5.2106e-06
1559.6, 5.2401e-06
1561.6, 5.1825e-06
1563.6, 5.2087e-06
1565.6, 5.1873e-06
1567.6, 5.1518e-06
1569.6, 5.1551e-06
1571.6, 5.0631e-06
1573.6, 5.1566e-06
1575.6, 5.2122e-06
1577.6, 5.2309e-06
1579.6, 5.0829e-06
1581.6, 5.1808e-06
1583.6, 5.2918e-06
1585.6, 5.3633e-06
1587.6, 5.2514e-06
1589.6, 5.1234e-06
1591.6, 5.1786e-06
1593.6, 5.1726e-06
1595.6, 5.0962e-06
1597.6, 5.294e-06
1599.6, 5.1713e-06
1601.6, 5.1705e-06
1603.6, 5.1795e-06
1605.6, 5.1787e-06
1607.6, 5.1005e-06
1609.6, 5.1101e-06
1611.6, 5.1376e-06
1613.6, 5.1817e-06
1615.6, 5.1745e-06
1617.6, 5.2892e-06
1619.6, 5.1869e-06
1621.6, 5.1279e-06
1623.6, 5.2564e-06
1625.6, 5.3022e-06
1627.6, 5.3271e-06
1629.6, 5.2191e-06
1631.6, 5.0863e-06
1633.6, 5.2723e-06
1635.6, 5.1499e-06
1637.6, 5.2737e-06
1639.6, 5.1747e-06
1641.6, 5.1619e-06
1643.6, 5.1239e-06
1645.6, 5.1038e-06
1647.6, 5.1305e-06
1649.6, 5.1978e-06
1651.6, 5.2498e-06
1653.7, 5.2139e-06
1655.7, 5.1536e-06
1657.7, 5.3487e-06
1659.7, 5.2752e-06
1661.7, 5.1741e-06
1663.7, 5.0865e-06
1665.7, 5.2546e-06
1667.7, 5.1683e-06
1669.7, 5.2064e-06
1671.7, 5.168e-06
1673.7, 5.1515e-06
1675.7, 5.1928e-06
1677.7, 5.1986e-06
1679.7, 5.1594e-06
1681.7, 5.2455e-06
1683.7, 5.2307e-06
1685.7, 5.1528e-06
1687.7, 5.1751e-06
1689.7, 5.1477e-06
1691.7, 5.1034e-06
1693.7, 5.1884e-06
1695.7, 5.2649e-06
1697.7, 5.2307e-06
1699.7, 5.2134e-06
1701.7, 5.1805e-06
1703.7, 5.2462e-06
1705.7, 5.2556e-06
1707.7, 5.1093e-06
1709.7, 5.161e-06
1711.7, 5.2603e-06
1713.7, 5.108e-06
1715.7, 5.144e-06
1717.7, 5.1678e-06
1719.7, 5.1108e-06
1721.7, 5.1287e-06
1723.7, 5.2356e-06
1725.7, 5.1465e-06
1727.7, 5.1097e-06
1729.7, 5.0635e-06
1731.7, 5.1571e-06
1733.7, 5.1453e-06
1735.7, 5.2605e-06
1737.7, 5.2158e-06
1739.7, 5.1826e-06
1741.7, 5.2382e-06
1743.7, 5.1894e-06
1745.7, 5.1765e-06
1747.7, 5.1284e-06
1749.7, 5.1747e-06
1751.7, 5.072e-06
1753.8, 5.1372e-06
1755.8, 5.2526e-06
1757.8, 5.2329e-06
1759.8, 5.2388e-06
1761.8, 5.1539e-06
1763.8, 5.2421e-06
1765.8, 5.2927e-06
1767.8, 5.1528e-06
1769.8, 5.2196e-06
1771.8, 5.2239e-06
1773.8, 5.3501e-06
1775.8, 5.2704e-06
1777.8, 5.3347e-06
1779.8, 5.121e-06
1781.8, 5.2609e-06
1783.8, 5.1782e-06
1785.8, 5.2599e-06
1787.8, 5.1661e-06
1789.8, 5.1809e-06
1791.8, 5.2336e-06
1793.8, 5.2248e-06
1795.8, 5.1912e-06
1797.8, 5.2366e-06
1799.8, 5.1623e-06
1801.8, 5.1883e-06
1803.8, 5.1924e-06
1805.8, 5.2532e-06
1807.8, 5.1686e-06
1809.8, 5.2779e-06
1811.8, 5.194e-06
1813.8, 5.2817e-06
1815.8, 5.2258e-06
1817.8, 5.1815e-06
1819.8, 5.1436e-06
1821.8, 5.1776e-06
1823.8, 5.1e-06
1825.8, 5.2272e-06
1827.8, 5.2296e-06
1829.8, 5.2338e-06
1831.8, 5.2e-06
1833.8, 5.2667e-06
1835.8, 5.211e-06
1837.8, 5.182e-06
1839.8, 5.2143e-06
1841.8, 5.2001e-06
1843.8, 5.2557e-06
1845.8, 5.2807e-06
1847.8, 5.2146e-06
1849.8, 5.2051e-06
1851.8, 5.1716e-06
1853.9, 5.245e-06
1855.9, 5.219e-06
1857.9, 5.1681e-06
1859.9, 5.1036e-06
1861.9, 5.1873e-06
1863.9, 5.2351e-06
1865.9, 5.3114e-06
1867.9, 5.2775e-06
1869.9, 5.2804e-06
1871.9, 5.282e-06
1873.9, 5.2174e-06
1875.9, 5.2435e-06
1877.9, 5.2032e-06
1879.9, 5.2249e-06
1881.9, 5.102e-06
1883.9, 5.2295e-06
1885.9, 5.1329e-06
1887.9, 5.171e-06
1889.9, 5.1724e-06
1891.9, 5.1723e-06
1893.9, 5.3192e-06
1895.9, 5.2108e-06
1897.9, 5.1301e-06
1899.9, 5.1834e-06
1901.9, 5.2405e-06
1903.9, 5.1571e-06
1905.9, 5.2281e-06
1907.9, 5.2319e-06
1909.9, 5.1805e-06
1911.9, 5.2831e-06
1913.9, 5.2491e-06
1915.9, 5.2518e-06
1917.9, 5.0994e-06
1919.9, 5.2465e-06
1921.9, 5.2009e-06
1923.9, 5.1827e-06
1925.9, 5.2734e-06
1927.9, 5.2241e-06
1929.9, 5.2071e-06
1931.9, 5.2058e-06
1933.9, 5.1161e-06
1935.9, 5.1861e-06
1937.9, 5.1663e-06
1939.9, 5.1901e-06
1941.9, 5.2627e-06
1943.9, 5.1754e-06
1945.9, 5.1594e-06
1947.9, 5.1506e-06
1949.9, 5.2179e-06
1951.9, 5.1752e-06
1954.0, 5.1555e-06
1956.0, 5.1211e-06
1958.0, 5.1652e-06
1960.0, 5.1771e-06
1962.0, 5.2745e-06
1964.0, 5.1166e-06
1966.0, 5.2484e-06
1968.0, 5.2779e-06
1970.0, 5.124e-06
1972.0, 5.2102e-06
1974.0, 5.19e-06
1976.0, 5.2462e-06
1978.0, 5.1959e-06
1980.0, 5.225e-06
1982.0, 5.1665e-06
1984.0, 5.1521e-06
1986.0, 5.244e-06
1988.0, 5.2036e-06
1990.0, 5.2604e-06
1992.0, 5.2587e-06
1994.0, 5.1377e-06
1996.0, 5.085e-06
1998.0, 5.1625e-06
2000.0, 5.1308e-06
2002.0, 5.2111e-06
2004.0, 5.1886e-06
2006.0, 5.15e-06
2008.0, 5.2882e-06
2010.0, 5.2305e-06
2012.0, 5.1279e-06
2014.0, 5.211e-06
2016.0, 5.1815e-06
2018.0, 5.1426e-06
2020.0, 5.1981e-06
2022.0, 5.2143e-06
2024.0, 5.1026e-06
2026.0, 5.1197e-06
2028.0, 5.2227e-06
2030.0, 5.1502e-06
2032.0, 5.0681e-06
2034.0, 5.2607e-06
2036.0, 5.238e-06
2038.0, 5.2404e-06
2040.0, 5.1565e-06
2042.0, 5.1431e-06
2044.0, 5.1764e-06
2046.0, 5.1272e-06
2048.0, 5.1741e-06
2050.0, 5.1688e-06
2052.0, 5.2413e-06
2054.1, 5.1608e-06
2056.1, 5.2545e-06
2058.1, 5.2024e-06
2060.1, 5.2812e-06
2062.1, 5.219e-06
2064.1, 5.1945e-06
2066.1, 2.6479e-06
2068.1, -1.368e-08
2070.1, -9.14e-09
2072.1, -1.281e-08
2074.1, -1.24e-08
2076.1, -1.356e-08
2078.1, -1.145e-08
2080.1, -1.374e-08
2082.1, -8.18e-09
2084.1, -1.173e-08
2086.1, -1.304e-08
2088.1, -1.09e-08
2090.1, -1.169e-08
2092.1, -8.87e-09
2094.1, -1.307e-08
2096.1, -1.431e-08
2098.1, -1.368e-08
2100.1, -1.693e-08
2102.1, -1.648e-08
2104.1, -1.566e-08
2106.1, -1.72e-08
2108.1, -1.37e-08
2110.1, -1.399e-08
2112.1, -1.934e-08
2114.1, -1.437e-08
2116.1, -1.277e-08
2118.1, -1.7e-08
2120.1, -1.485e-08
2122.1, -1.706e-08
2124.1, -1.594e-08
2126.1, -1.69e-08
2128.1, -1.604e-08
2130.1, -1.294e-08
2132.1, -1.448e-08
2134.1, -1.363e-08
2136.1, -1.601e-08
2138.1, -1.549e-08
2140.1, -1.504e-08
2142.1, -1.687e-08
2144.1, -1.601e-08
2146.1, -1.489e-08
2148.1, -1.378e-08
2150.1, -1.644e-08
2152.1, -1.843e-08
2154.2, -1.641e-08
2156.2, -1.65e-08
2158.2, -1.66e-08
2160.2, -1.875e-08
2162.2, -1.61e-08
2164.2, -1.685e-08
2166.2, -1.766e-08
2168.2, -1.657e-08
2170.2, -1.769e-08
2172.2, -1.973e-08
2174.2, -2.005e-08
2176.2, -1.7e-08
2178.2, -1.732e-08
2180.2, -1.767e-08
2182.2, -2.016e-08
2184.2, -1.627e-08
2186.2, -1.636e-08
2188.2, -1.533e-08
2190.2, -1.648e-08
2192.2, -1.786e-08
2194.2, -1.77e-08
2196.2, -1.724e-08
2198.2, -1.804e-08
2200.2, -1.485e-08
2202.2, -1.741e-08
2204.2, -2.035e-08
2206.2, -1.574e-08
2208.2, -1.389e-08
2210.2, -1.649e-08
2212.2, -1.803e-08
2214.2, -1.655e-08
2216.2, -1.762e-08
2218.2, -1.724e-08
2220.2, -1.686e-08
2222.2, -1.536e-08
2224.2, -1.679e-08
2226.2, -1.386e-08
2228.2, -1.811e-08
2230.2, -2.255e-08
2232.2, -1.537e-08
2234.2, -1.726e-08
2236.2, -1.624e-08
2238.2, -1.637e-08
2240.2, -1.374e-08
2242.2, -1.756e-08
2244.2, -1.645e-08
2246.2, -1.86e-08
2248.2, -1.811e-08
2250.2, -1.829e-08
2252.2, -1.935e-08
2254.3, -1.935e-08
2256.3, -1.893e-08
2258.3, -1.826e-08
2260.3, -1.877e-08
2262.3, -1.85e-08
2264.3, -1.967e-08
2266.3, -1.778e-08
2268.3, -2.106e-08
2270.3, -1.711e-08
2272.3, -1.7e-08
2274.3, -1.634e-08
2276.3, -1.628e-08
2278.3, -1.461e-08
2280.3, -1.854e-08
2282.3, -1.743e-08
2284.3, -1.42e-08
2286.3, -1.571e-08
2288.3, -1.935e-08
2290.3, -1.788e-08
2292.3, -1.304e-08
2294.3, -1.776e-08
2296.3, -1.894e-08
2298.3, -1.806e-08
2300.3, -1.862e-08
2302.3, -1.982e-08
2304.3, -1.932e-08
2306.3, -1.826e-08
2308.3, -1.637e-08
2310.3, -1.396e-08
2312.3, -1.546e-08
2314.3, -1.542e-08
2316.3, -1.861e-08
2318.3, -1.875e-08
2320.3, -2.108e-08
2322.3, -1.878e-08
2324.3, -1.812e-08
2326.3, -1.9e-08
2328.3, -2.031e-08
2330.3, -1.835e-08
2332.3, -1.722e-08
2334.3, -1.859e-08
2336.3, -1.719e-08
2338.3, -1.525e-08
2340.3, -1.492e-08
2342.3, -1.763e-08
2344.3, -1.646e-08
2346.3, -1.745e-08
2348.3, -1.977e-08
2350.3, -1.721e-08
2352.3, -1.627e-08
2354.4, -2.11e-08
2356.4, -1.881e-08
2358.4, -1.791e-08
2360.4, -1.95e-08
2362.4, -1.965e-08
2364.4, -1.795e-08
2366.4, -1.682e-08
2368.4, -1.29e-08
2370.4, -1.549e-08
2372.4, -1.331e-08
2374.4, -1.38e-08
2376.4, -1.747e-08
2378.4, -1.61e-08
2380.4, -1.77e-08
2382.4, -1.54e-08
2384.4, -1.976e-08
2386.4, -1.756e-08
2388.4, -1.429e-08
2390.4, -1.54e-08
2392.4, -1.411e-08
2394.4, -1.355e-08
2396.4, -1.497e-08
2398.4, -1.346e-08
2400.4, -1.19e-08
2402.4, -1.076e-08
2404.4, -1.549e-08
2406.4, -1.16e-08
2408.4, -1.349e-08
2410.4, -9.83e-09
2412.4, -1.056e-08
2414.4, -1.444e-08
2416.4, -1.05e-08
2418.4, -1.428e-08
2420.4, -1.614e-08
2422.4, -1.281e-08
2424.4, -1.567e-08
2426.4, -1.337e-08
2428.4, -1.58e-08
2430.4, -1.409e-08
2432.4, -1.154e-08
2434.4, -1.317e-08
2436.4, -1.192e-08
2438.4, -1.741e-08
2440.4, -1.674e-08
2442.4, -1.603e-08
2444.4, -1.611e-08
2446.4, -1.523e-08
2448.4, -1.53e-08
2450.4, -1.788e-08
2452.4, -1.509e-08
2454.5, -1.596e-08
2456.5, -1.483e-08
2458.5, -1.394e-08
2460.5, -1.448e-08
2462.5, -1.633e-08
2464.5, -1.309e-08
2466.5, -1.297e-08
2468.5, -1.319e-08
2470.5, -1.464e-08
2472.5, -1.587e-08
2474.5, -1.825e-08
2476.5, -1.259e-08
2478.5, -1.448e-08
2480.5, -1.493e-08
2482.5, -1.569e-08
2484.5, -1.582e-08
2486.5, -1.906e-08
2488.5, -1.671e-08
2490.5, -1.491e-08
2492.5, -1.467e-08
2494.5, -1.468e-08
2496.5, -1.56e-08
2498.5, -2.032e-08
2500.5, -1.747e-08
2502.5, -1.446e-08
2504.5, -1.421e-08
2506.5, -1.608e-08
2508.5, -1.648e-08
2510.5, -1.423e-08
2512.5, -1.631e-08
2514.5, -1.713e-08
2516.5, -1.544e-08
2518.5, -1.519e-08
2520.5, -1.708e-08
2522.5, -1.519e-08
2524.5, -1.687e-08
2526.5, -1.85e-08
2528.5, -1.415e-08
2530.5, -1.889e-08
2532.5, -1.855e-08
2534.5, -1.737e-08
2536.5, -1.722e-08
2538.5, -1.728e-08
2540.5, -1.663e-08
2542.5, -1.876e-08
2544.5, -1.651e-08
2546.5, -1.693e-08
2548.5, -1.427e-08
2550.5, -1.76e-08
2552.5, -1.779e-08
2554.6, -1.551e-08
2556.6, -1.84e-08
2558.6, -1.654e-08
2560.6, -1.446e-08
2562.6, -1.523e-08
2564.6, -1.559e-08
2566.6, -1.806e-08
2568.6, -1.752e-08
2570.6, -1.672e-08
2572.6, -1.925e-08
2574.6, -1.54e-08
2576.6, -2.092e-08
2578.6, -2.12e-08
2580.6, -1.823e-08
2582.6, -2.042e-08
2584.6, -1.917e-08
2586.6, -1.967e-08
2588.6, -1.789e-08
2590.6, -1.538e-08
2592.6, -1.809e-08
2594.6, -1.982e-08
2596.6, -1.925e-08
2598.6, -1.983e-08
2600.6, -1.609e-08
2602.6, -1.775e-08
2604.6, -1.544e-08
2606.6, -1.365e-08
2608.6, -1.46e-08
2610.6, -2.102e-08
2612.6, -2.262e-08
2614.6, -2.336e-08
2616.6, -1.916e-08
2618.6, -1.839e-08
2620.6, -2.015e-08
2622.6, -2.149e-08
2624.6, -2.044e-08
2626.6, -1.966e-08
2628.6, -1.815e-08
2630.6, -2.065e-08
2632.6, -1.614e-08
2634.6, -1.823e-08
2636.6, -1.795e-08
2638.6, -1.923e-08
2640.6, -2.051e-08
2642.6, -2.256e-08
2644.6, -2.212e-08
2646.6, -1.998e-08
2648.6, -2.217e-08
2650.6, -1.853e-08
2652.6, -1.81e-08
2654.7, -1.91e-08
2656.7, -1.894e-08
2658.7, -1.996e-08
2660.7, -2.118e-08
2662.7, -1.73e-08
2664.7, -1.928e-08
2666.7, -1.876e-08
2668.7, -1.749e-08
2670.7, -2.125e-08
2672.7, -1.705e-08
2674.7, -1.945e-08
2676.7, -1.878e-08
2678.7, -2.166e-08
2680.7, -2.155e-08
2682.7, -1.869e-08
2684.7, -1.788e-08
2686.7, -2.268e-08
2688.7, -1.921e-08
2690.7, -2.079e-08
2692.7, -2.406e-08
2694.7, -2.111e-08
2696.7, -1.604e-08
2698.7, -1.92e-08
2700.7, -1.989e-08
2702.7, -1.939e-08
2704.7, -1.924e-08
2706.7, -2.105e-08
2708.7, -2.112e-08
2710.7, -2.066e-08
2712.7, -1.643e-08
2714.7, -1.606e-08
2716.7, -1.361e-08
2718.7, -1.74e-08
2720.7, -1.796e-08
2722.7, -1.614e-08
2724.7, -1.591e-08
2726.7, -1.928e-08
2728.7, -1.745e-08
2730.7, -1.9e-08
2732.7, -1.847e-08
2734.7, -1.829e-08
2736.7, -2.01e-08
2738.7, -2.377e-08
2740.7, -2.446e-08
2742.7, -2.012e-08
2744.7, -2.062e-08
2746.7, -2.291e-08
2748.7, -2.471e-08
2750.7, -2.009e-08
2752.7, -2.071e-08
2754.8, -2.227e-08
2756.8, -2.179e-08
2758.8, -2.039e-08
2760.8, -2.144e-08
2762.8, -2.067e-08
2764.8, -1.824e-08
2766.8, -1.995e-08
2768.8, -2.088e-08
2770.8, -1.819e-08
2772.8, -1.834e-08
2774.8, -1.98e-08
2776.8, -2.125e-08
2778.8, -1.989e-08
2780.8, -2.148e-08
2782.8, -1.762e-08
2784.8, -1.602e-08
2786.8, -2.035e-08
2788.8, -2.174e-08
2790.8, -2.376e-08
2792.8, -1.701e-08
2794.8, -1.82e-08
2796.8, -1.779e-08
2798.8, -2.162e-08
2800.8, -2.206e-08
2802.8, -2.29e-08
2804.8, -2.111e-08
2806.8, -2.044e-08
2808.8, -2.622e-08
2810.8, -2.106e-08
2812.8, -1.837e-08
2814.8, -2.087e-08
2816.8, -2.157e-08
2818.8, -2.144e-08
2820.8, -2.263e-08
2822.8, -2.079e-08
2824.8, -2.165e-08
2826.8, -2.168e-08
2828.8, -2.039e-08
2830.8, -2.322e-08
2832.8, -2.251e-08
2834.8, -2.351e-08
2836.8, -2.159e-08
2838.8, -2.295e-08
2840.8, -2.433e-08
2842.8, -1.984e-08
2844.8, -1.932e-08
2846.8, -2.412e-08
2848.8, -2.15e-08
2850.8, -2.165e-08
2852.8, -2.062e-08
2854.9, -2.296e-08
2856.9, -2.111e-08
2858.9, -2.249e-08
2860.9, -1.913e-08
2862.9, -2.582e-08
2864.9, -2.252e-08
2866.9, -2.407e-08
2868.9, -2.265e-08
2870.9, -2.308e-08
2872.9, -2.346e-08
2874.9, -2.175e-08
2876.9, -2.322e-08
2878.9, -2.399e-08
2880.9, -2.398e-08
2882.9, -2.463e-08
2884.9, -2.464e-08
2886.9, -2.193e-08
2888.9, -2.352e-08
2890.9, -2.455e-08
2892.9, -2.329e-08
2894.9, -2.149e-08
2896.9, -2.478e-08
2898.9, -2.387e-08
2900.9, -2.168e-08
2902.9, -2.17e-08
2904.9, -2.109e-08
2906.9, -2.336e-08
2908.9, -2.302e-08
2910.9, -2.334e-08
2912.9, -1.979e-08
2914.9, -2.122e-08
2916.9, -2.312e-08
2918.9, -2.11e-08
2920.9, -2.202e-08
2922.9, -2.05e-08
2924.9, -2.202e-08
2926.9, -2.184e-08
2928.9, -2.493e-08
2930.9, -2.164e-08
2932.9, -2.004e-08
2934.9, -1.989e-08
2936.9, -2.112e-08
2938.9, -1.913e-08
2940.9, -2.071e-08
2942.9, -1.962e-08
2944.9, -1.814e-08
2946.9, -2.152e-08
2948.9, -2.114e-08
2950.9, -2.291e-08
2952.9, -1.795e-08
2955.0, -1.815e-08
2957.0, -2.107e-08
2959.0, -2.256e-08
2961.0, -2.156e-08
2963.0, -2.06e-08
2965.0, -2.312e-08
2967.0, -2.204e-08
2969.0, -2.089e-08
2971.0, -1.981e-08
2973.0, -2.251e-08
2975.0, -2.128e-08
2977.0, -1.99e-08
2979.0, -1.938e-08
2981.0, -2.047e-08
2983.0, -1.883e-08
2985.0, -2.136e-08
2987.0, -2.219e-08
2989.0, -2.265e-08
2991.0, -2.347e-08
2993.0, -2.238e-08
2995.0, -2.253e-08
2997.0, -2.316e-08
2999.0, -2.324e-08
3001.0, -2.102e-08
3003.0, -2.166e-08
3005.0, -2.05e-08
3007.0, -2.192e-08
3009.0, -2.213e-08
3011.0, -2.199e-08
3013.0, -2.143e-08
3015.0, -1.665e-08
3017.0, -1.859e-08
3019.0, -2.107e-08
3021.0, -1.964e-08
3023.0, -2.057e-08
3025.0, -2.031e-08
3027.0, -2.197e-08
3029.0, -2.064e-08
3031.0, -1.99e-08
3033.0, -2.147e-08
3035.0, -1.871e-08
3037.0, -1.916e-08
3039.0, -1.791e-08
3041.0, -1.923e-08
3043.0, -2.036e-08
3045.0, -2.238e-08
3047.0, -2.204e-08
3049.0, -2.584e-08
3051.0, -2.242e-08
3053.0, -2.09e-08
3055.1, -1.936e-08
3057.1, -1.611e-08
3059.1, -2.131e-08
3061.1, -2.04e-08
3063.1, -1.957e-08
3065.1, -2.147e-08
3067.1, -2.129e-08
3069.1, -2.174e-08
3071.1, -2.268e-08
3073.1, -2.224e-08
3075.1, -2.089e-08
3077.1, -2.201e-08
3079.1, -2.462e-08
3081.1, -2.217e-08
3083.1, -2.201e-08
3085.1, -2.374e-08
3087.1, -2.331e-08
3089.1, -2.406e-08
3091.1, -2.19e-08
3093.1, -2.29e-08
3095.1, -2.201e-08
3097.1, -2.2e-08
3099.1, -2.211e-08
3101.1, -2.46e-08
3103.1, -2.275e-08
3105.1, -2.47e-08
3107.1, -2.182e-08
3109.1, -2.405e-08
3111.1, -2.442e-08
3113.1, -2.109e-08
3115.1, -2.274e-08
3117.1, -2.138e-08
3119.1, -2.104e-08
3121.1, -2.34e-08
3123.1, -2.057e-08
3125.1, -1.956e-08
3127.1, -2.168e-08
3129.1, -2.164e-08
3131.1, -2.157e-08
3133.1, -2.331e-08
3135.1, -2.691e-08
3137.1, -2.671e-08
3139.1, -2.791e-08
3141.1, -3.015e-08
3143.1, 5.1276e-06
3145.1, 4.9802e-06
3147.1, 4.9731e-06
3149.1, 5.1034e-06
3151.1, 5.0397e-06
3153.1, 4.9351e-06
3155.2, 4.9715e-06
3157.2, 5.0746e-06
3159.2, 5.0568e-06
3161.2, 5.0432e-06
3163.2, 4.9487e-06
3165.2, 4.9812e-06
3167.2, 5.0958e-06
3169.2, 5.0295e-06
3171.2, 5.1123e-06
3173.2, 4.9632e-06
3175.2, 5.0512e-06
3177.2, 5.0538e-06
3179.2, 4.9754e-06
3181.2, 4.9324e-06
3183.2, 5.1223e-06
3185.2, 4.9726e-06
3187.2, 5.0529e-06
3189.2, 5.0614e-06
3191.2, 4.9621e-06
3193.2, 5.1701e-06
3195.2, 5.201e-06
3197.2, 4.9016e-06
3199.2, 5.0546e-06
3201.2, 5.0274e-06
3203.2, 4.9579e-06
3205.2, 5.0546e-06
3207.2, 4.9953e-06
3209.2, 4.9842e-06
3211.2, 5.0056e-06
3213.2, 4.8986e-06
3215.2, 5.0899e-06
3217.2, 5.1208e-06
3219.2, 5.0553e-06
3221.2, 5.0887e-06
3223.2, 5.0092e-06
3225.2, 5.1301e-06
3227.2, 5.044e-06
3229.2, 5.1697e-06
3231.2, 5.0446e-06
3233.2, 5.0469e-06
3235.2, 5.197e-06
3237.2, 5.1294e-06
3239.2, 5.0272e-06
3241.2, 5.1829e-06
3243.2, 5.1565e-06
3245.2, 5.0038e-06
3247.2, 5.0587e-06
3249.2, 5.0536e-06
3251.2, 4.954e-06
3253.2, 5.093e-06
3255.3, 5.1707e-06
3257.3, 5.1337e-06
3259.3, 5.1543e-06
3261.3, 5.1173e-06
3263.3, 5.0083e-06
3265.3, 5.1672e-06
3267.3, 5.1157e-06
3269.3, 5.1393e-06
3271.3, 5.0855e-06
3273.3, 5.0964e-06
3275.3, 5.1762e-06
3277.3, 5.2039e-06
3279.3, 5.1412e-06
3281.3, 5.0898e-06
3283.3, 5.11e-06
3285.3, 5.1522e-06
3287.3, 5.1898e-06
3289.3, 5.1108e-06
3291.3, 5.1302e-06
3293.3, 5.0901e-06
3295.3, 5.1577e-06
3297.3, 5.1062e-06
3299.3, 5.188e-06
3301.3, 5.0964e-06
3303.3, 5.036e-06
3305.3, 5.127e-06
3307.3, 5.1474e-06
3309.3, 5.0862e-06
3311.3, 5.1067e-06
3313.3, 5.1398e-06
3315.3, 5.09e-06
3317.3, 5.0925e-06
3319.3, 5.1029e-06
3321.3, 5.1935e-06
3323.3, 5.1668e-06
3325.3, 5.0986e-06
3327.3, 5.111e-06
3329.3, 4.9793e-06
3331.3, 5.2459e-06
3333.3, 5.1222e-06
3335.3, 5.2038e-06
3337.3, 4.9779e-06
3339.3, 5.1629e-06
3341.3, 5.0996e-06
3343.3, 5.1257e-06
3345.3, 5.2746e-06
3347.3, 5.1367e-06
3349.3, 5.1492e-06
3351.3, 5.2149e-06
3353.3, 5.1226e-06
3355.4, 5.2118e-06
3357.4, 5.1339e-06
3359.4, 5.1811e-06
3361.4, 5.0825e-06
3363.4, 5.1064e-06
3365.4, 5.0845e-06
3367.4, 5.1155e-06
3369.4, 5.1262e-06
3371.4, 5.0525e-06
3373.4, 4.9983e-06
3375.4, 5.0903e-06
3377.4, 5.1303e-06
3379.4, 5.1656e-06
3381.4, 5.1595e-06
3383.4, 5.1201e-06
3385.4, 5.1011e-06
3387.4, 5.0552e-06
3389.4, 5.2569e-06
3391.4, 5.1827e-06
3393.4, 5.0804e-06
3395.4, 5.0674e-06
3397.4, 5.1029e-06
3399.4, 5.2024e-06
3401.4, 5.1929e-06
3403.4, 5.1761e-06
3405.4, 5.1463e-06
3407.4, 5.1473e-06
3409.4, 5.2755e-06
3411.4, 5.1975e-06
3413.4, 5.1644e-06
3415.4, 5.1679e-06
3417.4, 5.1264e-06
3419.4, 5.1522e-06
3421.4, 5.168e-06
3423.4, 5.2326e-06
3425.4, 5.2351e-06
3427.4, 5.2719e-06
3429.4, 5.0535e-06
3431.4, 5.0756e-06
3433.4, 5.2279e-06
3435.4, 5.0688e-06
3437.4, 5.1991e-06
3439.4, 5.1e-06
3441.4, 5.1651e-06
3443.4, 5.2476e-06
3445.4, 5.0456e-06
3447.4, 5.05e-06
3449.4, 5.1442e-06
3451.4, 5.1088e-06
3453.4, 5.1082e-06
3455.5, 5.1495e-06
3457.5, 5.1383e-06
3459.5, 5.1752e-06
3461.5, 5.214e-06
3463.5, 5.1799e-06
3465.5, 5.156e-06
3467.5, 5.158e-06
3469.5, 5.2655e-06
3471.5, 5.14e-06
3473.5, 5.1792e-06
3475.5, 5.2219e-06
3477.5, 5.179e-06
3479.5, 5.1822e-06
3481.5, 5.1356e-06
3483.5, 5.1547e-06
3485.5, 5.1347e-06
3487.5, 5.1154e-06
3489.5, 5.1986e-06
3491.5, 5.0043e-06
3493.5, 5.1699e-06
3495.5, 5.1303e-06
3497.5, 5.2143e-06
3499.5, 5.2552e-06
3501.5, 5.1958e-06
3503.5, 5.1497e-06
3505.5, 5.2146e-06
3507.5, 5.0508e-06
3509.5, 5.1437e-06
3511.5, 5.1751e-06
3513.5, 5.1099e-06
3515.5, 5.2113e-06
3517.5, 5.1622e-06
3519.5, 5.1651e-06
3521.5, 5.1374e-06
3523.5, 5.1529e-06
3525.5, 5.2722e-06
3527.5, 5.1371e-06
3529.5, 5.2007e-06
3531.5, 5.1111e-06
3533.5, 5.1336e-06
3535.5, 5.1761e-06
3537.5, 5.2144e-06
3539.5, 5.1725e-06
3541.5, 5.1767e-06
3543.5, 5.1675e-06
3545.5, 5.1462e-06
3547.5, 5.0931e-06
3549.5, 5.2069e-06
3551.5, 5.1438e-06
3553.5, 5.1593e-06
3555.6, 5.2146e-06
3557.6, 5.1916e-06
3559.6, 5.1433e-06
3561.6, 5.2033e-06
3563.6, 5.0874e-06
3565.6, 5.1727e-06
3567.6, 5.1068e-06
3569.6, 5.1956e-06
3571.6, 5.1293e-06
3573.6, 5.1173e-06
3575.6, 5.1174e-06
3577.6, 5.1119e-06
3579.6, 5.2379e-06
3581.6, 5.1512e-06
3583.6, 5.2281e-06
3585.6, 5.2703e-06
3587.6, 5.2658e-06
3589.6, 5.1895e-06
3591.6, 5.2661e-06
3593.6, 5.1858e-06
3595.6, 5.2021e-06
3597.6, 5.1297e-06
3599.6, 5.2468e-06
3601.6, 5.1798e-06
3603.6, 5.1784e-06
3605.6, 5.0929e-06
3607.6, 5.2374e-06
3609.6, 5.1521e-06
3611.6, 5.2073e-06
3613.6, 5.1785e-06
3615.6, 5.203e-06
3617.6, 5.1852e-06
3619.6, 5.2758e-06
3621.6, 5.1298e-06
3623.6, 5.1686e-06
3625.6, 5.0716e-06
3627.6, 5.1663e-06
3629.6, 5.1707e-06
3631.6, 5.1923e-06
3633.6, 5.1998e-06
3635.6, 5.3179e-06
3637.6, 5.1112e-06
3639.6, 5.1627e-06
3641.6, 5.1868e-06
3643.6, 5.3152e-06
3645.6, 5.1533e-06
3647.6, 5.1735e-06
3649.6, 5.1042e-06
3651.6, 5.1565e-06
3653.6, 5.09e-06
3655.7, 5.1593e-06
3657.7, 5.1858e-06
3659.7, 5.2379e-06
3661.7, 5.1452e-06
3663.7, 5.1804e-06
3665.7, 5.1098e-06
3667.7, 5.1962e-06
3669.7, 5.0958e-06
3671.7, 5.1887e-06
3673.7, 5.2739e-06
3675.7, 5.0938e-06
3677.7, 5.1523e-06
3679.7, 5.2613e-06
3681.7, 5.2163e-06
3683.7, 5.2066e-06
3685.7, 5.1948e-06
3687.7, 5.2098e-06
3689.7, 5.102e-06
3691.7, 5.1885e-06
3693.7, 5.1653e-06
3695.7, 5.2144e-06
3697.7, 5.2285e-06
3699.7, 5.2555e-06
3701.7, 5.1892e-06
3703.7, 5.2993e-06
3705.7, 5.2675e-06
3707.7, 5.1184e-06
3709.7, 5.1443e-06
3711.7, 5.0865e-06
3713.7, 5.1091e-06
3715.7, 5.2025e-06
3717.7, 5.1822e-06
3719.7, 5.1364e-06
3721.7, 5.1484e-06
3723.7, 5.21e-06
3725.7, 5.1984e-06
3727.7, 5.2272e-06
3729.7, 5.1078e-06
3731.7, 5.2275e-06
3733.7, 5.1592e-06
3735.7, 5.1943e-06
3737.7, 5.185e-06
3739.7, 5.1893e-06
3741.7, 5.1667e-06
3743.7, 5.2909e-06
3745.7, 5.1334e-06
3747.7, 5.2046e-06
3749.7, 5.2568e-06
3751.7, 5.2436e-06
3753.7, 5.1508e-06
3755.8, 5.1661e-06
3757.8, 5.2219e-06
3759.8, 5.1679e-06
3761.8, 5.1953e-06
3763.8, 5.2712e-06
3765.8, 5.1579e-06
3767.8, 5.2009e-06
3769.8, 5.2099e-06
3771.8, 5.1252e-06
3773.8, 5.2406e-06
3775.8, 5.2089e-06
3777.8, 5.1718e-06
3779.8, 5.1195e-06
3781.8, 5.2408e-06
3783.8, 5.1649e-06
3785.8, 5.237e-06
3787.8, 5.2754e-06
3789.8, 5.2097e-06
3791.8, 5.2662e-06
3793.8, 5.2925e-06
3795.8, 5.2595e-06
3797.8, 5.2596e-06
3799.8, 5.2217e-06
3801.8, 5.1507e-06
3803.8, 5.235e-06
3805.8, 5.2074e-06
3807.8, 5.1592e-06
3809.8, 5.2583e-06
3811.8, 5.2814e-06
3813.8, 5.1926e-06
3815.8, 5.309e-06
3817.8, 5.1708e-06
3819.8, 5.1692e-06
3821.8, 5.2582e-06
3823.8, 5.1757e-06
3825.8, 5.2256e-06
3827.8, 5.223e-06
3829.8, 5.2999e-06
3831.8, 5.121e-06
3833.8, 5.1916e-06
3835.8, 5.2358e-06
3837.8, 5.2376e-06
3839.8, 5.1744e-06
3841.8, 5.1673e-06
3843.8, 5.2207e-06
3845.8, 5.2038e-06
3847.8, 5.2176e-06
3849.8, 5.176e-06
3851.8, 5.2372e-06
3853.8, 5.2341e-06
3855.9, 5.1255e-06
3857.9, 5.1902e-06
3859.9, 5.1213e-06
3861.9, 5.0656e-06
3863.9, 5.1941e-06
3865.9, 5.2787e-06
3867.9, 5.2306e-06
3869.9, 5.153e-06
3871.9, 5.2397e-06
3873.9, 5.1928e-06
3875.9, 5.1966e-06
3877.9, 5.1994e-06
3879.9, 5.2493e-06
3881.9, 5.1221e-06
3883.9, 5.1518e-06
3885.9, 5.2165e-06
3887.9, 5.2155e-06
3889.9, 5.1821e-06
3891.9, 5.046e-06
3893.9, 5.1948e-06
3895.9, 5.0953e-06
3897.9, 5.1777e-06
3899.9, 5.0652e-06
3901.9, 5.1386e-06
3903.9, 5.1073e-06
3905.9, 5.2587e-06
3907.9, 5.1803e-06
3909.9, 5.218e-06
3911.9, 5.2274e-06
3913.9, 5.1994e-06
3915.9, 5.1901e-06
3917.9, 5.2475e-06
3919.9, 5.1205e-06
3921.9, 5.2858e-06
3923.9, 5.2131e-06
3925.9, 5.184e-06
3927.9, 5.2662e-06
3929.9, 5.139e-06
3931.9, 5.2052e-06
3933.9, 5.1242e-06
3935.9, 5.1314e-06
3937.9, 5.2544e-06
3939.9, 5.2095e-06
3941.9, 5.2311e-06
3943.9, 5.1993e-06
3945.9, 5.2416e-06
3947.9, 5.0122e-06
3949.9, 5.2371e-06
3951.9, 5.2463e-06
3953.9, 5.1553e-06
3956.0, 5.0887e-06
3958.0, 5.2254e-06
3960.0, 5.1078e-06
3962.0, 5.249e-06
3964.0, 5.2139e-06
3966.0, 5.1623e-06
3968.0, 5.2653e-06
3970.0, 5.2649e-06
3972.0, 5.1768e-06
3974.0, 5.2196e-06
3976.0, 5.1341e-06
3978.0, 5.2069e-06
3980.0, 5.1849e-06
3982.0, 5.1569e-06
3984.0, 5.203e-06
3986.0, 5.1509e-06
3988.0, 5.2611e-06
3990.0, 5.1674e-06
3992.0, 5.2127e-06
3994.0, 5.2029e-06
3996.0, 5.326e-06
3998.0, 5.1425e-06
4000.0, 5.1965e-06
4002.0, 5.1324e-06
4004.0, 5.2382e-06
4006.0, 5.3096e-06
4008.0, 5.135e-06
4010.0, 5.2661e-06
4012.0, 5.109e-06
4014.0, 5.2034e-06
4016.0, 5.1966e-06
4018.0, 5.0703e-06
4020.0, 5.226e-06
4022.0, 5.2371e-06
4024.0, 5.2267e-06
4026.0, 5.217e-06
4028.0, 5.1545e-06
4030.0, 5.1543e-06
4032.0, 5.3129e-06
4034.0, 5.2141e-06
4036.0, 5.2536e-06
4038.0, 5.1855e-06
4040.0, 5.1484e-06
4042.0, 5.1776e-06
4044.0, 5.2492e-06
4046.0, 5.2485e-06
4048.0, 5.2134e-06
4050.0, 5.1056e-06
4052.0, 5.2708e-06
4054.0, 5.1006e-06
4056.1, 5.0802e-06
4058.1, 5.2167e-06
4060.1, 5.2368e-06
4062.1, 5.1783e-06
4064.1, 5.2971e-06
4066.1, 5.2169e-06
4068.1, 5.3015e-06
4070.1, 5.177e-06
4072.1, 5.2303e-06
4074.1, 5.2289e-06
4076.1, 5.1921e-06
4078.1, 5.1902e-06
4080.1, 5.2261e-06
4082.1, 5.2216e-06
4084.1, 5.1942e-06
4086.1, 5.2012e-06
4088.1, 5.1116e-06
4090.1, 5.1669e-06
4092.1, 5.2593e-06
4094.1, 5.1866e-06
4096.1, 5.2111e-06
4098.1, 5.1615e-06
4100.1, 5.1996e-06
4102.1, 5.1787e-06
4104.1, 5.2251e-06
4106.1, 5.1983e-06
4108.1, 5.1632e-06
4110.1, 5.2258e-06
4112.1, 5.261e-06
4114.1, 5.218e-06
4116.1, 5.1369e-06
4118.1, 5.1759e-06
4120.1, 5.1785e-06
4122.1, 5.2056e-06
4124.1, 5.1424e-06
4126.1, 5.2054e-06
4128.1, 5.2371e-06
4130.1, 5.2996e-06
4132.1, 5.2731e-06
4134.1, 5.2605e-06
4136.1, 5.2069e-06
4138.1, 5.2142e-06
4140.1, 5.1864e-06
4142.1, 5.2328e-06
4144.1, -1.103e-08
4146.1, -1.562e-08
4148.1, -1.472e-08
4150.1, -1.298e-08
4152.1, -1.81e-08
4154.1, -1.77e-08
4156.2, -1.042e-08
4158.2, -1.796e-08
4160.2, -1.818e-08
4162.2, -1.791e-08
4164.2, -1.896e-08
4166.2, -1.727e-08
4168.2, -1.785e-08
4170.2, -1.533e-08
4172.2, -1.587e-08
4174.2, -1.459e-08
4176.2, -1.699e-08
4178.2, -1.754e-08
4180.2, -1.615e-08
4182.2, -1.827e-08
4184.2, -1.585e-08
4186.2, -1.524e-08
4188.2, -1.55e-08
4190.2, -1.645e-08
4192.2, -1.677e-08
4194.2, -1.384e-08
4196.2, -1.452e-08
4198.2, -1.55e-08
4200.2, -1.528e-08
4202.2, -1.712e-08
4204.2, -1.369e-08
4206.2, -1.551e-08
4208.2, -1.867e-08
4210.2, -1.844e-08
4212.2, -1.65e-08
4214.2, -1.877e-08
4216.2, -1.779e-08
4218.2, -1.652e-08
4220.2, -1.535e-08
4222.2, -1.899e-08
4224.2, -2.511e-08
4226.2, -2.133e-08
4228.2, -1.919e-08
4230.2, -1.53e-08
4232.2, -1.83e-08
4234.2, -2.006e-08
4236.2, -1.722e-08
4238.2, -1.733e-08
4240.2, -1.826e-08
4242.2, -1.886e-08
4244.2, -2.188e-08
4246.2, -2.07e-08
4248.2, -2.104e-08
4250.2, -2.031e-08
4252.2, -2.297e-08
4254.2, -2.048e-08
4256.3, -2.203e-08
4258.3, -1.984e-08
4260.3, -1.879e-08
4262.3, -1.851e-08
4264.3, -1.85e-08
4266.3, -1.875e-08
4268.3, -1.619e-08
4270.3, -1.963e-08
4272.3, -2e-08
4274.3, -2.062e-08
4276.3, -2.14e-08
4278.3, -2.317e-08
4280.3, -2.704e-08
4282.3, -2.346e-08
4284.3, -2.3e-08
4286.3, -2.36e-08
4288.3, -2.652e-08
4290.3, -2.473e-08
4292.3, -2.073e-08
4294.3, -2.166e-08
4296.3, -2.474e-08
4298.3, -2.272e-08
4300.3, -2.578e-08
4302.3, -2.764e-08
4304.3, -2.465e-08
4306.3, -2.074e-08
4308.3, -2.181e-08
4310.3, -2.171e-08
4312.3, -2.381e-08
4314.3, -1.96e-08
4316.3, -2.383e-08
4318.3, -2.394e-08
4320.3, -2.072e-08
4322.3, -2.29e-08
4324.3, -2.229e-08
4326.3, -1.723e-08
4328.3, -2.305e-08
4330.3, -2.01e-08
4332.3, -2.09e-08
4334.3, -2.046e-08
4336.3, -1.978e-08
4338.3, -1.797e-08
4340.3, -2.014e-08
4342.3, -2.145e-08
4344.3, -2.165e-08
4346.3, -2.252e-08
4348.3, -1.897e-08
4350.3, -2.271e-08
4352.3, -2.497e-08
4354.3, -2.113e-08
4356.4, -1.788e-08
4358.4, -2.324e-08
4360.4, -2.1e-08
4362.4, -2.17e-08
4364.4, -2.196e-08
4366.4, -1.743e-08
4368.4, -2.229e-08
4370.4, -2.003e-08
4372.4, -2.48e-08
4374.4, -2.115e-08
4376.4, -1.926e-08
4378.4, -1.927e-08
4380.4, -1.956e-08
4382.4, -2.201e-08
4384.4, -1.872e-08
4386.4, -1.829e-08
4388.4, -1.989e-08
4390.4, -2.378e-08
4392.4, -2.425e-08
4394.4, -2.037e-08
4396.4, -2.296e-08
4398.4, -2.239e-08
4400.4, -2.137e-08
4402.4, -1.927e-08
4404.4, -2.309e-08
4406.4, -2.204e-08
4408.4, -2.291e-08
4410.4, -1.934e-08
4412.4, -2.209e-08
4414.4, -1.901e-08
4416.4, -2.206e-08
4418.4, -1.972e-08
4420.4, -2.103e-08
4422.4, -2.115e-08
4424.4, -2.261e-08
4426.4, -2.563e-08
4428.4, -2.36e-08
4430.4, -2.235e-08
4432.4, -2.341e-08
4434.4, -2.258e-08
4436.4, -2.404e-08
4438.4, -2.437e-08
4440.4, -2.518e-08
4442.4, -2.784e-08
4444.4, -2.533e-08
4446.4, -2.174e-08
4448.4, -2.405e-08
4450.4, -2.539e-08
4452.4, -2.565e-08
4454.4, -2.494e-08
4456.5, -2.242e-08
4458.5, -2.357e-08
4460.5, -2.344e-08
4462.5, -2.538e-08
4464.5, -2.386e-08
4466.5, -2.118e-08
4468.5, -1.912e-08
4470.5, -1.69e-08
4472.5, -2.457e-08
4474.5, -2.158e-08
4476.5, -2.169e-08
4478.5, -2.323e-08
4480.5, -2.533e-08
4482.5, -2.426e-08
4484.5, -2.536e-08
4486.5, -2.435e-08
4488.5, -2.211e-08
4490.5, -2.228e-08
4492.5, -2.412e-08
4494.5, -2.116e-08
4496.5, -2.595e-08
4498.5, -2.65e-08
4500.5, -2.649e-08
4502.5, -2.708e-08
4504.5, -2.756e-08
4506.5, -2.76e-08
4508.5, -2.739e-08
4510.5, -2.452e-08
4512.5, -2.473e-08
4514.5, -2.558e-08
4516.5, -2.493e-08
4518.5, -3.057e-08
4520.5, -2.517e-08
4522.5, -2.592e-08
4524.5, -2.25e-08
4526.5, -2.209e-08
4528.5, -2.693e-08
4530.5, -2.458e-08
4532.5, -2.211e-08
4534.5, -2.403e-08
4536.5, -2.017e-08
4538.5, -2.379e-08
4540.5, -2.465e-08
4542.5, -2.592e-08
4544.5, -2.551e-08
4546.5, -2.191e-08
4548.5, -2.252e-08
4550.5, -2.546e-08
4552.5, -2.279e-08
4554.5, -1.977e-08
4556.6, -2.246e-08
4558.6, -2.12e-08
4560.6, -2.543e-08
4562.6, -2.271e-08
4564.6, -2.21e-08
4566.6, -2.074e-08
4568.6, -2.333e-08
4570.6, -2.283e-08
4572.6, -2.355e-08
4574.6, -1.889e-08
4576.6, -2.523e-08
4578.6, -2.04e-08
4580.6, -2.394e-08
4582.6, -2.408e-08
4584.6, -2.303e-08
4586.6, -2.309e-08
4588.6, -2.44e-08
4590.6, -2.105e-08
4592.6, -2.197e-08
4594.6, -1.986e-08
4596.6, -2.21e-08
4598.6, -2.145e-08
4600.6, -2.347e-08
4602.6, -2.457e-08
4604.6, -2.108e-08
4606.6, -2.323e-08
4608.6, -2.332e-08
4610.6, -2.475e-08
4612.6, -1.922e-08
4614.6, -2.007e-08
4616.6, -2.151e-08
4618.6, -2.271e-08
4620.6, -2.508e-08
4622.6, -2.001e-08
4624.6, -2.548e-08
4626.6, -1.907e-08
4628.6, -2.434e-08
4630.6, -2.045e-08
4632.6, -2.254e-08
4634.6, -2.181e-08
4636.6, -2.292e-08
4638.6, -2.069e-08
4640.6, -2.175e-08
4642.6, -2.184e-08
4644.6, -2.038e-08
4646.6, -1.976e-08
4648.6, -2.302e-08
4650.6, -1.958e-08
4652.6, -2.055e-08
4654.6, -2.327e-08
4656.7, -1.947e-08
4658.7, -2.155e-08
4660.7, -2.251e-08
4662.7, -2.387e-08
4664.7, -1.954e-08
4666.7, -2.5e-08
4668.7, -2.484e-08
4670.7, -2.769e-08
4672.7, -2.847e-08
4674.7, -2.713e-08
4676.7, -2.726e-08
4678.7, -2.932e-08
4680.7, -2.463e-08
4682.7, -2.268e-08
4684.7, -2.684e-08
4686.7, -2.351e-08
4688.7, -2.058e-08
4690.7, -2.386e-08
4692.7, -2.271e-08
4694.7, -2.161e-08
4696.7, -2.303e-08
4698.7, -2.484e-08
4700.7, -2.34e-08
4702.7, -2.128e-08
4704.7, -2.272e-08
4706.7, -2.521e-08
4708.7, -2.138e-08
4710.7, -2.533e-08
4712.7, -2.419e-08
4714.7, -2.244e-08
4716.7, -2.104e-08
4718.7, -2.267e-08
4720.7, -2.56e-08
4722.7, -2.031e-08
4724.7, -2.404e-08
4726.7, -2.36e-08
4728.7, -2.166e-08
4730.7, -2.428e-08
4732.7, -2.136e-08
4734.7, -2.563e-08
4736.7, -2.125e-08
4738.7, -2.378e-08
4740.7, -2.158e-08
4742.7, -2.234e-08
4744.7, -2.547e-08
4746.7, -2.115e-08
4748.7, -2.356e-08
4750.7, -2.53e-08
4752.7, -2.516e-08
4754.7, -2.474e-08
4756.8, -2.353e-08
4758.8, -2.23e-08
4760.8, -1.874e-08
4762.8, -2.139e-08
4764.8, -2.287e-08
4766.8, -2.132e-08
4768.8, -2.107e-08
4770.8, -2.138e-08
4772.8, -2.035e-08
4774.8, -1.882e-08
4776.8, -2.269e-08
4778.8, -1.996e-08
4780.8, -2.308e-08
4782.8, -2.151e-08
4784.8, -2.279e-08
4786.8, -2.487e-08
4788.8, -2.493e-08
4790.8, -2.527e-08
4792.8, -2.43e-08
4794.8, -2.716e-08
4796.8, -2.375e-08
4798.8, -2.375e-08
4800.8, -2.402e-08
4802.8, -2.414e-08
4804.8, -2.195e-08
4806.8, -2.449e-08
4808.8, -2.06e-08
4810.8, -2.333e-08
4812.8, -2.335e-08
4814.8, -2.006e-08
4816.8, -2.051e-08
4818.8, -2.019e-08
4820.8, -2.072e-08
4822.8, -2.107e-08
4824.8, -2.149e-08
4826.8, -2.511e-08
4828.8, -2.016e-08
4830.8, -2.271e-08
4832.8, -2.322e-08
4834.8, -2.229e-08
4836.8, -2.387e-08
4838.8, -2.279e-08
4840.8, -2.324e-08
4842.8, -2.314e-08
4844.8, -2.661e-08
4846.8, -2.311e-08
4848.8, -2.907e-08
4850.8, -2.633e-08
4852.8, -2.293e-08
4854.8, -2.411e-08
4856.9, -2.397e-08
4858.9, -2.361e-08
4860.9, -2.09e-08
4862.9, -2.149e-08
4864.9, -1.717e-08
4866.9, -1.91e-08
4868.9, -1.867e-08
4870.9, -2.36e-08
4872.9, -2.273e-08
4874.9, -1.975e-08
4876.9, -1.973e-08
4878.9, -2.177e-08
4880.9, -1.844e-08
4882.9, -2.136e-08
4884.9, -2.262e-08
4886.9, -1.924e-08
4888.9, -1.724e-08
4890.9, -2.166e-08
4892.9, -2.357e-08
4894.9, -2.509e-08
4896.9, -2.358e-08
4898.9, -2.192e-08
4900.9, -2.071e-08
4902.9, -2.078e-08
4904.9, -2.238e-08
4906.9, -2.231e-08
4908.9, -2.434e-08
4910.9, -2.222e-08
4912.9, -2.079e-08
4914.9, -2.042e-08
4916.9, -1.986e-08
4918.9, -2.327e-08
4920.9, -2.177e-08
4922.9, -1.961e-08
4924.9, -2.235e-08
4926.9, -2.101e-08
4928.9, -2.122e-08
4930.9, -2.288e-08
4932.9, -2.026e-08
4934.9, -1.749e-08
4936.9, -1.91e-08
4938.9, -1.948e-08
4940.9, -2.488e-08
4942.9, -2.191e-08
4944.9, -2.549e-08
4946.9, -1.684e-08
4948.9, -2.22e-08
4950.9, -1.886e-08
4952.9, -2.057e-08
4954.9, -1.875e-08
4957.0, -2.069e-08
4959.0, -2.036e-08
4961.0, -2.181e-08
4963.0, -2e-08
4965.0, -2.197e-08
4967.0, -1.788e-08
4969.0, -1.785e-08
4971.0, -1.893e-08
4973.0, -2.288e-08
4975.0, -1.73e-08
4977.0, -1.841e-08
4979.0, -1.798e-08
4981.0, -1.94e-08
4983.0, -2.023e-08
4985.0, -2.281e-08
4987.0, -2.398e-08
4989.0, -2.505e-08
4991.0, -2.465e-08
4993.0, -2.118e-08
4995.0, -2.309e-08
4997.0, -2.168e-08
4999.0, -2.231e-08
5001.0, -2.234e-08
5003.0, -2.224e-08
5005.0, -1.726e-08
5007.0, -2.322e-08
5009.0, -1.763e-08
5011.0, -1.889e-08
5013.0, -1.922e-08
5015.0, -1.897e-08
5017.0, -1.751e-08
5019.0, -1.802e-08
5021.0, -1.924e-08
5023.0, -1.829e-08
5025.0, -1.751e-08
5027.0, -1.985e-08
5029.0, -1.813e-08
5031.0, -2.241e-08
5033.0, -2.105e-08
5035.0, -2.092e-08
5037.0, -2.189e-08
5039.0, -2.496e-08
5041.0, -1.947e-08
5043.0, -2.216e-08
5045.0, -1.922e-08
5047.0, -2.308e-08
5049.0, -2.107e-08
5051.0, -2.203e-08
5053.0, -1.932e-08
5055.0, -2.266e-08
5057.1, -2.188e-08
5059.1, -2.16e-08
5061.1, -2.226e-08
5063.1, -2.321e-08
5065.1, -2.018e-08
5067.1, -2.212e-08
5069.1, -2.758e-08
5071.1, -2.847e-08
5073.1, -2.63e-08
5075.1, -2.509e-08
5077.1, -2.45e-08
5079.1, -2.442e-08
5081.1, -2.784e-08
5083.1, -2.876e-08
5085.1, -2.388e-08
5087.1, -2.425e-08
5089.1, -2.594e-08
5091.1, -2.516e-08
5093.1, -2.704e-08
5095.1, -2.367e-08
5097.1, -2.434e-08
5099.1, -1.895e-08
5101.1, -2.538e-08
5103.1, -2.713e-08
5105.1, -2.6e-08
5107.1, -2.353e-08
5109.1, -2.532e-08
5111.1, -2.316e-08
5113.1, -2.407e-08
5115.1, -2.545e-08
5117.1, -2.847e-08
5119.1, -2.471e-08
5121.1, -2.925e-08
5123.1, -2.788e-08
5125.1, -2.578e-08
5127.1, -2.361e-08
5129.1, -2.617e-08
5131.1, -2.439e-08
5133.1, -2.112e-08
5135.1, -2.522e-08
5137.1, -2.459e-08
5139.1, -2.132e-08
5141.1, -2.51e-08
5143.1, -2.426e-08
5145.1, -2.459e-08
5147.1, -2.394e-08
5149.1, -2.331e-08
5151.1, -2.089e-08
5153.1, -2.348e-08
5155.1, -2.448e-08
5157.2, -2.534e-08
5159.2, -2.619e-08
5161.2, -2.461e-08
5163.2, -2.469e-08
5165.2, -2.502e-08
5167.2, -2.62e-08
5169.2, -2.477e-08
5171.2, -2.532e-08
5173.2, -2.125e-08
5175.2, -2.461e-08
5177.2, -2.435e-08
5179.2, -2.608e-08
5181.2, -2.286e-08
5183.2, -2.188e-08
5185.2, -2.295e-08
5187.2, -2.656e-08
5189.2, 2.7606e-06
5191.2, 4.8798e-06
5193.2, 4.9193e-06
5195.2, 4.935e-06
5197.2, 4.9381e-06
5199.2, 4.8929e-06
5201.2, 4.6262e-06
5203.2, 4.9528e-06
5205.2, 5.0192e-06
5207.2, 4.8997e-06
5209.2, 4.9658e-06
5211.2, 4.8122e-06
5213.2, 4.8589e-06
5215.2, 4.8311e-06
5217.2, 4.8869e-06
5219.2, 4.949e-06
5221.2, 4.8986e-06
5223.2, 4.9309e-06
5225.2, 4.9668e-06
5227.2, 4.8762e-06
5229.2, 4.9239e-06
5231.2, 4.9358e-06
5233.2, 4.9715e-06
5235.2, 4.9038e-06
5237.2, 4.9652e-06
5239.2, 4.9621e-06
5241.2, 5.0548e-06
5243.2, 4.8443e-06
5245.2, 5.0074e-06
5247.2, 5.0876e-06
5249.2, 5.0331e-06
5251.2, 4.8849e-06
5253.2, 5.0123e-06
5255.2, 5.0147e-06
5257.3, 4.9711e-06
5259.3, 4.8608e-06
5261.3, 4.9108e-06
5263.3, 5.0246e-06
5265.3, 4.9844e-06
5267.3, 4.9241e-06
5269.3, 4.9569e-06
5271.3, 4.905e-06
5273.3, 4.9668e-06
5275.3, 4.9213e-06
5277.3, 4.91e-06
5279.3, 5.042e-06
5281.3, 5.0014e-06
5283.3, 5.0134e-06
5285.3, 4.9812e-06
5287.3, 4.9123e-06
5289.3, 4.9769e-06
5291.3, 4.9764e-06
5293.3, 4.8226e-06
5295.3, 4.946e-06
5297.3, 5.0953e-06
5299.3, 5.0084e-06
5301.3, 4.9191e-06
5303.3, 4.965e-06
5305.3, 4.8868e-06
5307.3, 5.0318e-06
5309.3, 5.0674e-06
5311.3, 4.9482e-06
5313.3, 5.0655e-06
5315.3, 4.9079e-06
5317.3, 4.9931e-06
5319.3, 4.9613e-06
5321.3, 5.0268e-06
5323.3, 4.9503e-06
5325.3, 5.0147e-06
5327.3, 5.0755e-06
5329.3, 4.9716e-06
5331.3, 4.9634e-06
5333.3, 4.9697e-06
5335.3, 4.986e-06
5337.3, 5.0106e-06
5339.3, 5.0175e-06
5341.3, 4.9903e-06
5343.3, 5.0151e-06
5345.3, 5.0424e-06
5347.3, 5.0048e-06
5349.3, 5.0334e-06
5351.3, 5.0939e-06
5353.3, 5.0302e-06
5355.3, 4.9833e-06
5357.4, 4.9908e-06
5359.4, 4.9939e-06
5361.4, 4.9765e-06
5363.4, 4.9848e-06
5365.4, 4.9548e-06
5367.4, 5.114e-06
5369.4, 5.0141e-06
5371.4, 4.9827e-06
5373.4, 4.992e-06
5375.4, 5.0848e-06
5377.4, 5.0469e-06
5379.4, 5.0502e-06
5381.4, 5.0295e-06
5383.4, 5.0032e-06
5385.4, 4.9904e-06
5387.4, 5.0409e-06
5389.4, 5.0004e-06
5391.4, 5.076e-06
5393.4, 5.0464e-06
5395.4, 5.0586e-06
5397.4, 4.9541e-06
5399.4, 4.9097e-06
5401.4, 5.0858e-06
5403.4, 5.0595e-06
5405.4, 5.0638e-06
5407.4, 5.0435e-06
5409.4, 5.0146e-06
5411.4, 5.0188e-06
5413.4, 5.0737e-06
5415.4, 4.9875e-06
5417.4, 4.9672e-06
5419.4, 4.9986e-06
5421.4, 5.0261e-06
5423.4, 5.0714e-06
5425.4, 5.0202e-06
5427.4, 4.9767e-06
5429.4, 5.0328e-06
5431.4, 4.9534e-06
5433.4, 5.0531e-06
5435.4, 4.9233e-06
5437.4, 4.9977e-06
5439.4, 5.0573e-06
5441.4, 5.0579e-06
5443.4, 5.0133e-06
5445.4, 4.9647e-06
5447.4, 5.061e-06
5449.4, 5.0878e-06
5451.4, 4.9846e-06
5453.4, 5.089e-06
5455.4, 5.0099e-06
5457.5, 5.0726e-06
5459.5, 5.0427e-06
5461.5, 5.0465e-06
5463.5, 5.046e-06
5465.5, 5.0951e-06
5467.5, 5.0022e-06
5469.5, 5.0867e-06
5471.5, 4.993e-06
5473.5, 5.0386e-06
5475.5, 5.0188e-06
5477.5, 4.9643e-06
5479.5, 5.0764e-06
5481.5, 4.9959e-06
5483.5, 5.0238e-06
5485.5, 5.0109e-06
5487.5, 4.9304e-06
5489.5, 5.0592e-06
5491.5, 5.0518e-06
5493.5, 5.0326e-06
5495.5, 5.0363e-06
5497.5, 5.0258e-06
5499.5, 5.0287e-06
5501.5, 5.0249e-06
5503.5, 5.0307e-06
5505.5, 5.0494e-06
5507.5, 5.0414e-06
5509.5, 5.1228e-06
5511.5, 5.0656e-06
5513.5, 4.9937e-06
5515.5, 5.0228e-06
5517.5, 5.0787e-06
5519.5, 5.027e-06
5521.5, 5.0085e-06
5523.5, 5.006e-06
5525.5, 5.0506e-06
5527.5, 4.995e-06
5529.5, 5.0923e-06
5531.5, 5.1344e-06
5533.5, 5.03e-06
5535.5, 5.007e-06
5537.5, 5.0056e-06
5539.5, 5.1063e-06
5541.5, 4.9934e-06
5543.5, 5.0819e-06
5545.5, 5.0695e-06
5547.5, 4.9751e-06
5549.5, 5.0653e-06
5551.5, 5.0552e-06
5553.5, 5.0226e-06
5555.5, 5.0668e-06
5557.6, 5.0623e-06
5559.6, 5.1309e-06
5561.6, 5.0264e-06
5563.6, 5.0586e-06
5565.6, 5.0978e-06
5567.6, 5.0272e-06
5569.6, 5.1512e-06
5571.6, 5.0025e-06
5573.6, 5.0449e-06
5575.6, 4.999e-06
5577.6, 5.0218e-06
5579.6, 5.0684e-06
5581.6, 5.1289e-06
5583.6, 5.0187e-06
5585.6, 4.9873e-06
5587.6, 5.0257e-06
5589.6, 5.0858e-06
5591.6, 5.0103e-06
5593.6, 5.0659e-06
5595.6, 5.0728e-06
5597.6, 5.0615e-06
5599.6, 4.9772e-06
5601.6, 5.0528e-06
5603.6, 5.0497e-06
5605.6, 5.0482e-06
5607.6, 5.0528e-06
5609.6, 4.9839e-06
5611.6, 5.0865e-06
5613.6, 4.9853e-06
5615.6, 5.0085e-06
5617.6, 4.9432e-06
5619.6, 5.0422e-06
5621.6, 4.9942e-06
5623.6, 5.0171e-06
5625.6, 5.0939e-06
5627.6, 5.066e-06
5629.6, 5.0559e-06
5631.6, 5.0705e-06
5633.6, 4.983e-06
5635.6, 4.9636e-06
5637.6, 5.0701e-06
5639.6, 5.0984e-06
5641.6, 5.0648e-06
5643.6, 5.13e-06
5645.6, 5.1614e-06
5647.6, 5.0623e-06
5649.6, 5.0448e-06
5651.6, 5.0547e-06
5653.6, 5.0889e-06
5655.6, 5.1356e-06
5657.7, 5.0544e-06
5659.7, 5.0201e-06
5661.7, 5.1356e-06
5663.7, 5.078e-06
5665.7, 5.0727e-06
5667.7, 5.018e-06
5669.7, 4.9974e-06
5671.7, 5.11e-06
5673.7, 5.0925e-06
5675.7, 5.0141e-06
5677.7, 4.9806e-06
5679.7, 5.0216e-06
5681.7, 5.038e-06
5683.7, 5.0771e-06
5685.7, 5.1329e-06
5687.7, 5.0243e-06
5689.7, 5.1168e-06
5691.7, 5.0815e-06
5693.7, 5.166e-06
5695.7, 5.1298e-06
5697.7, 4.9851e-06
5699.7, 5.1302e-06
5701.7, 5.1208e-06
5703.7, 5.111e-06
5705.7, 5.167e-06
5707.7, 5.0719e-06
5709.7, 5.0023e-06
5711.7, 5.1e-06
5713.7, 5.1403e-06
5715.7, 5.1282e-06
5717.7, 5.0866e-06
5719.7, 5.0428e-06
5721.7, 5.004e-06
5723.7, 5.0659e-06
5725.7, 5.0471e-06
5727.7, 5.0752e-06
5729.7, 5.1638e-06
5731.7, 5.0556e-06
5733.7, 5.0946e-06
5735.7, 5.0583e-06
5737.7, 5.0659e-06
5739.7, 5.0375e-06
5741.7, 5.0618e-06
5743.7, 5.0547e-06
5745.7, 5.072e-06
5747.7, 5.1531e-06
5749.7, 5.0716e-06
5751.7, 4.9116e-06
5753.7, 5.119e-06
5755.7, 5.1653e-06
5757.8, 5.106e-06
5759.8, 5.1203e-06
5761.8, 5.1075e-06
5763.8, 5.0881e-06
5765.8, 5.0343e-06
5767.8, 4.9508e-06
5769.8, 5.0893e-06
5771.8, 5.014e-06
5773.8, 5.0434e-06
5775.8, 5.1369e-06
5777.8, 5.0916e-06
5779.8, 5.1101e-06
5781.8, 5.0913e-06
5783.8, 5.0602e-06
5785.8, 5.1267e-06
5787.8, 5.0692e-06
5789.8, 5.1358e-06
5791.8, 5.1964e-06
5793.8, 5.1287e-06
5795.8, 5.1092e-06
5797.8, 5.1361e-06
5799.8, 5.1399e-06
5801.8, 5.0321e-06
5803.8, 5.0341e-06
5805.8, 5.133e-06
5807.8, 5.0609e-06
5809.8, 5.1785e-06
5811.8, 5.1517e-06
5813.8, 5.0811e-06
5815.8, 5.0259e-06
5817.8, 4.9349e-06
5819.8, 5.0749e-06
5821.8, 5.0126e-06
5823.8, 5.1345e-06
5825.8, 5.152e-06
5827.8, 5.0859e-06
5829.8, 5.1329e-06
5831.8, 5.0304e-06
5833.8, 4.9374e-06
5835.8, 5.0965e-06
5837.8, 5.0997e-06
5839.8, 5.0571e-06
5841.8, 5.1162e-06
5843.8, 5.1098e-06
5845.8, 5.0596e-06
5847.8, 5.0423e-06
5849.8, 5.0803e-06
5851.8, 5.059e-06
5853.8, 5.0939e-06
5855.8, 5.017e-06
5857.9, 5.0578e-06
5859.9, 5.026e-06
5861.9, 5.0564e-06
5863.9, 5.0442e-06
5865.9, 5.0459e-06
5867.9, 5.036e-06
5869.9, 5.0998e-06
5871.9, 5.103e-06
5873.9, 5.102e-06
5875.9, 5.1048e-06
5877.9, 5.0657e-06
5879.9, 5.072e-06
5881.9, 5.0944e-06
5883.9, 5.1538e-06
5885.9, 5.1132e-06
5887.9, 5.0681e-06
5889.9, 5.0499e-06
5891.9, 5.0789e-06
5893.9, 5.0776e-06
5895.9, 5.1386e-06
5897.9, 5.1171e-06
5899.9, 5.157e-06
5901.9, 4.9873e-06
5903.9, 4.9893e-06
5905.9, 5.037e-06
5907.9, 5.0787e-06
5909.9, 5.1166e-06
5911.9, 5.0819e-06
5913.9, 5.1086e-06
5915.9, 5.0513e-06
5917.9, 5.0456e-06
5919.9, 5.1356e-06
5921.9, 5.1536e-06
5923.9, 5.1351e-06
5925.9, 5.1395e-06
5927.9, 5.0687e-06
5929.9, 5.0739e-06
5931.9, 5.108e-06
5933.9, 5.1349e-06
5935.9, 5.087e-06
5937.9, 5.0923e-06
5939.9, 5.132e-06
5941.9, 5.1675e-06
5943.9, 5.0687e-06
5945.9, 5.0659e-06
5947.9, 5.1369e-06
5949.9, 5.1249e-06
5951.9, 4.9917e-06
5953.9, 5.0509e-06
5955.9, 5.0702e-06
5958.0, 5.1281e-06
5960.0, 5.1236e-06
5962.0, 4.9918e-06
5964.0, 4.9856e-06
5966.0, 5.1285e-06
5968.0, 5.1328e-06
5970.0, 5.1249e-06
5972.0, 5.0565e-06
5974.0, 5.0905e-06
5976.0, 5.0552e-06
5978.0, 5.1038e-06
5980.0, 5.0725e-06
5982.0, 5.0715e-06
5984.0, 5.1164e-06
5986.0, 5.1007e-06
5988.0, 5.0135e-06
5990.0, 5.1014e-06
5992.0, 5.0829e-06
5994.0, 5.0987e-06
5996.0, 5.1186e-06
5998.0, 5.0993e-06
6000.0, 5.1122e-06
6002.0, 5.1024e-06
6004.0, 5.0628e-06
6006.0, 5.0369e-06
6008.0, 5.1106e-06
6010.0, 5.189e-06
6012.0, 5.0516e-06
6014.0, 5.0672e-06
6016.0, 5.1115e-06
6018.0, 5.0592e-06
6020.0, 5.134e-06
6022.0, 5.0742e-06
6024.0, 5.1124e-06
6026.0, 5.1087e-06
6028.0, 5.0292e-06
6030.0, 5.0265e-06
6032.0, 5.1557e-06
6034.0, 5.113e-06
6036.0, 5.0987e-06
6038.0, 5.0535e-06
6040.0, 5.1569e-06
6042.0, 5.221e-06
6044.0, 5.1776e-06
6046.0, 5.1259e-06
6048.0, 5.0638e-06
6050.0, 5.0551e-06
6052.0, 5.0642e-06
6054.0, 5.138e-06
6056.0, 5.0764e-06
6058.1, 5.0971e-06
6060.1, 5.0693e-06
6062.1, 5.1075e-06
6064.1, 5.0669e-06
6066.1, 5.1035e-06
6068.1, 5.0907e-06
6070.1, 5.1487e-06
6072.1, 5.1311e-06
6074.1, 5.0462e-06
6076.1, 5.0873e-06
6078.1, 5.0325e-06
6080.1, 5.0024e-06
6082.1, 5.0541e-06
6084.1, 5.0945e-06
6086.1, 5.0905e-06
6088.1, 5.1123e-06
6090.1, 5.0644e-06
6092.1, 5.0577e-06
6094.1, 5.106e-06
6096.1, 5.179e-06
6098.1, 5.2229e-06
6100.1, 5.2089e-06
6102.1, 5.1148e-06
6104.1, 5.0893e-06
6106.1, 5.1906e-06
6108.1, 5.1573e-06
6110.1, 5.0613e-06
6112.1, 5.0691e-06
6114.1, 5.0875e-06
6116.1, 5.0233e-06
6118.1, 5.1129e-06
6120.1, 5.0459e-06
6122.1, 5.1103e-06
6124.1, 5.1639e-06
6126.1, 5.0177e-06
6128.1, 5.0726e-06
6130.1, 5.0746e-06
6132.1, 5.1215e-06
6134.1, 5.085e-06
6136.1, 5.1521e-06
6138.1, 5.122e-06
6140.1, 5.0787e-06
6142.1, 5.0774e-06
6144.1, 5.0379e-06
6146.1, 4.9937e-06
6148.1, 5.0851e-06
6150.1, 5.0787e-06
6152.1, 5.1427e-06
6154.1, 5.0347e-06
6156.1, 5.0574e-06
6158.2, 5.0664e-06
6160.2, 5.0801e-06
6162.2, 5.0822e-06
6164.2, 5.1332e-06
6166.2, 5.0912e-06
6168.2, 5.052e-06
6170.2, 5.1429e-06
6172.2, 5.0998e-06
6174.2, 5.1698e-06
6176.2, 5.2142e-06
6178.2, 5.0892e-06
6180.2, 5.0867e-06
6182.2, 5.1974e-06
6184.2, 5.0996e-06
6186.2, 5.0493e-06
6188.2, 5.0759e-06
6190.2, 1.2242e-06
6192.2, -1.384e-08
6194.2, -2.095e-08
6196.2, -1.762e-08
6198.2, -1.742e-08
6200.2, -1.967e-08
6202.2, -2.091e-08
6204.2, -1.919e-08
6206.2, -1.94e-08
6208.2, -1.59e-08
6210.2, -1.972e-08
6212.2, -2.195e-08
6214.2, -1.837e-08
6216.2, -1.88e-08
6218.2, -1.948e-08
6220.2, -1.832e-08
6222.2, -1.995e-08
6224.2, -1.72e-08
6226.2, -1.549e-08
6228.2, -1.46e-08
6230.2, -1.93e-08
6232.2, -1.881e-08
6234.2, -1.933e-08
6236.2, -1.985e-08
6238.2, -1.682e-08
6240.2, -2.066e-08
6242.2, -1.884e-08
6244.2, -1.958e-08
6246.2, -1.305e-08
6248.2, -1.602e-08
6250.2, -1.863e-08
6252.2, -1.779e-08
6254.2, -2.16e-08
6256.2, -2.123e-08
6258.3, -1.899e-08
6260.3, -1.861e-08
6262.3, -2.194e-08
6264.3, -2.038e-08
6266.3, -1.71e-08
6268.3, -1.778e-08
6270.3, -1.913e-08
6272.3, -2.175e-08
6274.3, -1.872e-08
6276.3, -2.119e-08
6278.3, -2.313e-08
6280.3, -2.434e-08
6282.3, -2.258e-08
6284.3, -1.929e-08
6286.3, -1.97e-08
6288.3, -1.958e-08
6290.3, -2.104e-08
6292.3, -1.915e-08
6294.3, -1.898e-08
6296.3, -2.336e-08
6298.3, -1.862e-08
6300.3, -2.544e-08
6302.3, -2.11e-08
6304.3, -2.355e-08
6306.3, -1.905e-08
6308.3, -2.127e-08
6310.3, -2.028e-08
6312.3, -2.019e-08
6314.3, -2.02e-08
6316.3, -1.83e-08
6318.3, -1.899e-08
6320.3, -1.999e-08
6322.3, -2.131e-08
6324.3, -2.33e-08
6326.3, -2.209e-08
6328.3, -1.703e-08
6330.3, -1.886e-08
6332.3, -1.736e-08
6334.3, -1.928e-08
6336.3, -1.493e-08
6338.3, -2.01e-08
6340.3, -1.817e-08
6342.3, -1.955e-08
6344.3, -1.935e-08
6346.3, -1.914e-08
6348.3, -1.895e-08
6350.3, -2.097e-08
6352.3, -1.926e-08
6354.3, -1.884e-08
6356.3, -1.822e-08
6358.4, -2.145e-08
6360.4, -2.017e-08
6362.4, -1.868e-08
6364.4, -2.242e-08
6366.4, -2.264e-08
6368.4, -1.866e-08
6370.4, -2.113e-08
6372.4, -2.226e-08
6374.4, -2.406e-08
6376.4, -2.093e-08
6378.4, -2.509e-08
6380.4, -2.173e-08
6382.4, -2.411e-08
6384.4, -2.412e-08
6386.4, -2.481e-08
6388.4, -2.438e-08
6390.4, -2.211e-08
6392.4, -2.51e-08
6394.4, -2.515e-08
6396.4, -2.682e-08
6398.4, -2.25e-08
6400.4, -2.267e-08
6402.4, -2.427e-08
6404.4, -2.241e-08
6406.4, -2.187e-08
6408.4, -2.491e-08
6410.4, -2.339e-08
6412.4, -2.977e-08
6414.4, -2.496e-08
6416.4, -2.429e-08
6418.4, -2.729e-08
6420.4, -2.44e-08
6422.4, -2.39e-08
6424.4, -2.57e-08
6426.4, -2.392e-08
6428.4, -2.592e-08
6430.4, -2.262e-08
6432.4, -2.034e-08
6434.4, -2.586e-08
6436.4, -2.18e-08
6438.4, -2.287e-08
6440.4, -2.553e-08
6442.4, -2.315e-08
6444.4, -2.108e-08
6446.4, -2.395e-08
6448.4, -1.925e-08
6450.4, -1.975e-08
6452.4, -1.957e-08
6454.4, -1.844e-08
6456.4, -2.108e-08
6458.5, -2.052e-08
6460.5, -2.117e-08
6462.5, -1.996e-08
6464.5, -2.142e-08
6466.5, -1.93e-08
6468.5, -1.967e-08
6470.5, -1.997e-08
6472.5, -2.649e-08
6474.5, -2.332e-08
6476.5, -2.473e-08
6478.5, -2.482e-08
6480.5, -2.484e-08
6482.5, -2.642e-08
6484.5, -2.709e-08
6486.5, -2.207e-08
6488.5, -2.352e-08
6490.5, -2.35e-08
6492.5, -2.385e-08
6494.5, -2.079e-08
6496.5, -2.091e-08
6498.5, -1.895e-08
6500.5, -2.084e-08
6502.5, -2.649e-08
6504.5, -2.429e-08
6506.5, -2.473e-08
6508.5, -2.401e-08
6510.5, -2.727e-08
6512.5, -2.691e-08
6514.5, -2.457e-08
6516.5, -2.168e-08
6518.5, -2.314e-08
6520.5, -2.379e-08
6522.5, -2.209e-08
6524.5, -2.132e-08
6526.5, -2.481e-08
6528.5, -2.083e-08
6530.5, -2.381e-08
6532.5, -2.063e-08
6534.5, -2.281e-08
6536.5, -2.098e-08
6538.5, -2.245e-08
6540.5, -2.094e-08
6542.5, -1.888e-08
6544.5, -2.132e-08
6546.5, -2.197e-08
6548.5, -2.292e-08
6550.5, -2.071e-08
6552.5, -2.072e-08
6554.5, -2.188e-08
6556.5, -2.026e-08
6558.6, -1.992e-08
6560.6, -2.082e-08
6562.6, -1.965e-08
6564.6, -1.863e-08
6566.6, -1.953e-08
6568.6, -1.857e-08
6570.6, -2.034e-08
6572.6, -2.395e-08
6574.6, -2.119e-08
6576.6, -2.024e-08
6578.6, -1.762e-08
6580.6, -2.127e-08
6582.6, -1.802e-08
6584.6, -2.145e-08
6586.6, -1.907e-08
6588.6, -2.187e-08
6590.6, -1.718e-08
6592.6, -1.905e-08
6594.6, -1.681e-08
6596.6, -1.498e-08
6598.6, -1.737e-08
6600.6, -2.165e-08
6602.6, -2.235e-08
6604.6, -2.005e-08
6606.6, -2.13e-08
6608.6, -2.214e-08
6610.6, -2.065e-08
6612.6, -2.284e-08
6614.6, -2.422e-08
6616.6, -2.091e-08
6618.6, -1.856e-08
6620.6, -1.788e-08
6622.6, -2.227e-08
6624.6, -1.99e-08
6626.6, -1.957e-08
6628.6, -1.994e-08
6630.6, -1.935e-08
6632.6, -2.314e-08
6634.6, -2.134e-08
6636.6, -1.794e-08
6638.6, -2.248e-08
6640.6, -2.183e-08
6642.6, -2.058e-08
6644.6, -2.215e-08
6646.6, -2.029e-08
6648.6, -1.98e-08
6650.6, -1.98e-08
6652.6, -1.773e-08
6654.6, -2.007e-08
6656.6, -2.035e-08
6658.7, -2.06e-08
6660.7, -2.182e-08
6662.7, -2.262e-08
6664.7, -2.14e-08
6666.7, -2.266e-08
6668.7, -2.138e-08
6670.7, -2.277e-08
6672.7, -1.997e-08
6674.7, -1.986e-08
6676.7, -1.569e-08
6678.7, -1.888e-08
6680.7, -1.749e-08
6682.7, -2.032e-08
6684.7, -2.199e-08
6686.7, -2.244e-08
6688.7, -2.173e-08
6690.7, -2.027e-08
6692.7, -2.206e-08
6694.7, -2.3e-08
6696.7, -2.117e-08
6698.7, -2.462e-08
6700.7, -2.357e-08
6702.7, -2.355e-08
6704.7, -2.043e-08
6706.7, -2.194e-08
6708.7, -2.138e-08
6710.7, -2.184e-08
6712.7, -2.069e-08
6714.7, -2.033e-08
6716.7, -2.033e-08
6718.7, -2.417e-08
6720.7, -2.031e-08
6722.7, -2.203e-08
6724.7, -2.327e-08
6726.7, -1.838e-08
6728.7, -1.627e-08
6730.7, -2.048e-08
6732.7, -1.781e-08
6734.7, -2.036e-08
6736.7, -2.055e-08
6738.7, -2.118e-08
6740.7, -2.104e-08
6742.7, -2.381e-08
6744.7, -2.421e-08
6746.7, -2.326e-08
6748.7, -2.296e-08
6750.7, -1.875e-08
6752.7, -1.911e-08
6754.7, -2.611e-08
6756.7, -2.687e-08
6758.8, -2.681e-08
6760.8, -2.426e-08
6762.8, -2.443e-08
6764.8, -2.462e-08
6766.8, -2.557e-08
6768.8, -2.194e-08
6770.8, -2.12e-08
6772.8, -2.718e-08
6774.8, -2.468e-08
6776.8, -2.194e-08
6778.8, -2.389e-08
6780.8, -2.392e-08
6782.8, -1.888e-08
6784.8, -2.428e-08
6786.8, -2.052e-08
6788.8, -1.963e-08
6790.8, -2.358e-08
6792.8, -2.064e-08
6794.8, -2.395e-08
6796.8, -2.403e-08
6798.8, -2.657e-08
6800.8, -2.333e-08
6802.8, -2.475e-08
6804.8, -2.382e-08
6806.8, -2.559e-08
6808.8, -2.529e-08
6810.8, -2.556e-08
6812.8, -2.294e-08
6814.8, -2.417e-08
6816.8, -2.46e-08
6818.8, -2.048e-08
6820.8, -2.098e-08
6822.8, -2.139e-08
6824.8, -2.116e-08
6826.8, -2.271e-08
6828.8, -2.096e-08
6830.8, -2.277e-08
6832.8, -2.129e-08
6834.8, -2.444e-08
6836.8, -2.216e-08
6838.8, -2.282e-08
6840.8, -2.689e-08
6842.8, -2.284e-08
6844.8, -2.226e-08
6846.8, -2.432e-08
6848.8, -2.39e-08
6850.8, -2.283e-08
6852.8, -2.059e-08
6854.8, -2.16e-08
6856.8, -2.027e-08
6858.9, -2.312e-08
6860.9, -2.164e-08
6862.9, -2.236e-08
6864.9, -2.04e-08
6866.9, -2.017e-08
6868.9, -1.967e-08
6870.9, -1.971e-08
6872.9, -2.056e-08
6874.9, -1.96e-08
6876.9, -1.907e-08
6878.9, -2.152e-08
6880.9, -2.352e-08
6882.9, -2.022e-08
6884.9, -2.115e-08
6886.9, -2.177e-08
6888.9, -2.014e-08
6890.9, -2.02e-08
6892.9, -2.613e-08
6894.9, -2.345e-08
6896.9, -2.349e-08
6898.9, -2.195e-08
6900.9, -2.214e-08
6902.9, -2.392e-08
6904.9, -2.373e-08
6906.9, -2.287e-08
6908.9, -2.106e-08
6910.9, -2.153e-08
6912.9, -1.96e-08
6914.9, -2.262e-08
6916.9, -1.782e-08
6918.9, -2.089e-08
6920.9, -1.696e-08
6922.9, -1.765e-08
6924.9, -1.962e-08
6926.9, -2.29e-08
6928.9, -2.392e-08
6930.9, -2.068e-08
6932.9, -2.185e-08
6934.9, -2.198e-08
6936.9, -1.851e-08
6938.9, -1.862e-08
6940.9, -1.69e-08
6942.9, -1.863e-08
6944.9, -2.035e-08
6946.9, -1.738e-08
6948.9, -1.8e-08
6950.9, -2.228e-08
6952.9, -1.95e-08
6954.9, -1.895e-08
6956.9, -2.333e-08
6959.0, -2.202e-08
6961.0, -1.851e-08
6963.0, -1.956e-08
6965.0, -2.401e-08
6967.0, -2.427e-08
6969.0, -2.425e-08
6971.0, -2.173e-08
6973.0, -2.428e-08
6975.0, -2.233e-08
6977.0, -2.428e-08
6979.0, -2.495e-08
6981.0, -2.363e-08
6983.0, -2.136e-08
6985.0, -2.066e-08
6987.0, -2.011e-08
6989.0, -1.944e-08
6991.0, -2.075e-08
6993.0, -2.102e-08
6995.0, -1.907e-08
6997.0, -1.667e-08
6999.0, -1.727e-08
7001.0, -1.853e-08
7003.0, -2.173e-08
7005.0, -1.852e-08
7007.0, -1.782e-08
7009.0, -1.913e-08
7011.0, -1.933e-08
7013.0, -2.037e-08
7015.0, -2.23e-08
7017.0, -1.927e-08
7019.0, -1.854e-08
7021.0, -2.202e-08
7023.0, -2.318e-08
7025.0, -2.535e-08
7027.0, -2.497e-08
7029.0, -2.297e-08
7031.0, -2.177e-08
7033.0, -2.068e-08
7035.0, -2.446e-08
7037.0, -2.156e-08
7039.0, -2.074e-08
7041.0, -2.366e-08
7043.0, -2.199e-08
7045.0, -2.144e-08
7047.0, -2.197e-08
7049.0, -2.089e-08
7051.0, -2.38e-08
7053.0, -2.339e-08
7055.0, -2.235e-08
7057.0, -2.389e-08
7059.1, -2.165e-08
7061.1, -2.28e-08
7063.1, -1.73e-08
7065.1, -1.979e-08
7067.1, -2e-08
7069.1, -2.142e-08
7071.1, -2.22e-08
7073.1, -1.773e-08
7075.1, -2.163e-08
7077.1, -2.256e-08
7079.1, -1.965e-08
7081.1, -2.022e-08
7083.1, -2.256e-08
7085.1, -2.151e-08
7087.1, -2.25e-08
7089.1, -1.728e-08
7091.1, -1.772e-08
7093.1, -1.997e-08
7095.1, -1.687e-08
7097.1, -1.57e-08
7099.1, -1.849e-08
7101.1, -2.043e-08
7103.1, -2.319e-08
7105.1, -2.195e-08
7107.1, -1.932e-08
7109.1, -2.197e-08
7111.1, -2.223e-08
7113.1, -2.444e-08
7115.1, -2.196e-08
7117.1, -2.327e-08
7119.1, -2.39e-08
7121.1, -2.585e-08
7123.1, -2.424e-08
7125.1, -2.457e-08
7127.1, -2.264e-08
7129.1, -2.239e-08
7131.1, -2.213e-08
7133.1, -2.274e-08
7135.1, -2.002e-08
7137.1, -1.757e-08
7139.1, -1.797e-08
7141.1, -2.113e-08
7143.1, -1.955e-08
7145.1, -2.089e-08
7147.1, -2.038e-08
7149.1, -2.239e-08
7151.1, -2.436e-08
7153.1, -2.463e-08
7155.1, -2.392e-08
7157.1, -2.259e-08
7159.2, -2.119e-08
7161.2, -1.909e-08
7163.2, -2.464e-08
7165.2, -2.186e-08
7167.2, -2.003e-08
7169.2, -2.003e-08
7171.2, -2.18e-08
7173.2, -1.649e-08
7175.2, -2.087e-08
7177.2, -2.061e-08
7179.2, -1.946e-08
7181.2, -1.692e-08
7183.2, -1.864e-08
7185.2, -1.919e-08
7187.2, -1.922e-08
7189.2, -2.059e-08
7191.2, -2.563e-08
7193.2, -2.031e-08
7195.2, -2.052e-08
7197.2, -2.261e-08
7199.2, -2.269e-08
7201.2, -2.533e-08
7203.2, -2.271e-08
7205.2, -2.868e-08
7207.2, -2.44e-08
7209.2, -2.022e-08
7211.2, -2.234e-08
7213.2, -2.272e-08
7215.2, -2.01e-08
7217.2, -2.212e-08
7219.2, -2.005e-08
7221.2, -2.194e-08
7223.2, -2.069e-08
7225.2, -2.069e-08
7227.2, -1.936e-08
7229.2, -2.184e-08
7231.2, -2.119e-08
7233.2, -2.073e-08
7235.2, -2.069e-08
7237.2, -2.079e-08
7239.2, -2.322e-08
7241.2, -2.311e-08
7243.2, -2.271e-08
7245.2, -2.443e-08
7247.2, -2.155e-08
7249.2, -2.407e-08
7251.2, -2.37e-08
7253.2, -2.492e-08
7255.2, -2.014e-08
7257.2, -1.948e-08
7259.3, -2.013e-08
7261.3, -2.236e-08
7263.3, -2.037e-08
7265.3, -2.006e-08
7267.3, -2.096e-08
7269.3, -2.45e-08
7271.3, -2.308e-08
7273.3, -2.328e-08
7275.3, -2.333e-08
7277.3, -2.43e-08
7279.3, -2.31e-08
7281.3, -2.343e-08
7283.3, -2.422e-08
7285.3, -2.466e-08
7287.3, -2.172e-08
7289.3, -2.327e-08
7291.3, -2.066e-08
7293.3, -1.894e-08
7295.3, -1.843e-08
7297.3, -1.708e-08
7299.3, -1.769e-08
7301.3, -1.89e-08
7303.3, -1.725e-08
7305.3, -2.161e-08
7307.3, -1.775e-08
7309.3, -1.842e-08
7311.3, -2.023e-08
7313.3, -2.087e-08
7315.3, 5.0414e-06
7317.3, 4.8918e-06
7319.3, 5.0106e-06
7321.3, 4.9313e-06
7323.3, 4.9234e-06
7325.3, 4.9176e-06
7327.3, 4.9313e-06
7329.3, 4.972e-06
7331.3, 5.073e-06
7333.3, 4.9871e-06
7335.3, 4.991e-06
7337.3, 4.9855e-06
7339.3, 5.0765e-06
7341.3, 5.0332e-06
7343.3, 4.9966e-06
7345.3, 5.0508e-06
7347.3, 4.9253e-06
7349.3, 5.0287e-06
7351.3, 5.0176e-06
7353.3, 5.0313e-06
7355.3, 4.9622e-06
7357.3, 5.0034e-06
7359.4, 5.0688e-06
7361.4, 4.9469e-06
7363.4, 5.1461e-06
7365.4, 4.9627e-06
7367.4, 5.0207e-06
7369.4, 5.0218e-06
7371.4, 5.0779e-06
7373.4, 5.0846e-06
7375.4, 5.1376e-06
7377.4, 5.0455e-06
7379.4, 5.0955e-06
7381.4, 5.0731e-06
7383.4, 5.033e-06
7385.4, 5.1388e-06
7387.4, 5.026e-06
7389.4, 5.0081e-06
7391.4, 5.0706e-06
7393.4, 5.0603e-06
7395.4, 5.1602e-06
7397.4, 4.886e-06
7399.4, 5.0631e-06
7401.4, 5.0767e-06
7403.4, 5.1099e-06
7405.4, 5.0214e-06
7407.4, 5.0808e-06
7409.4, 5.0561e-06
7411.4, 5.0431e-06
7413.4, 5.0633e-06
7415.4, 5.0534e-06
7417.4, 5.034e-06
7419.4, 5.1006e-06
7421.4, 5.0724e-06
7423.4, 5.0424e-06
7425.4, 5.1048e-06
7427.4, 5.0776e-06
7429.4, 5.0916e-06
7431.4, 5.0969e-06
7433.4, 4.8878e-06
7435.4, 5.1133e-06
7437.4, 5.0302e-06
7439.4, 5.1044e-06
7441.4, 5.0132e-06
7443.4, 5.1655e-06
7445.4, 5.1151e-06
7447.4, 5.0515e-06
7449.4, 5.0076e-06
7451.4, 5.0945e-06
7453.4, 5.1805e-06
7455.4, 5.0699e-06
7457.4, 5.1331e-06
7459.5, 5.173e-06
7461.5, 5.098e-06
7463.5, 5.1767e-06
7465.5, 5.1148e-06
7467.5, 5.0885e-06
7469.5, 5.1298e-06
7471.5, 5.0692e-06
7473.5, 4.9968e-06
7475.5, 5.0753e-06
7477.5, 5.0706e-06
7479.5, 5.146e-06
7481.5, 5.08e-06
7483.5, 5.0056e-06
7485.5, 5.2165e-06
7487.5, 5.0975e-06
7489.5, 5.0997e-06
7491.5, 5.075e-06
7493.5, 5.0761e-06
7495.5, 5.1188e-06
7497.5, 5.1917e-06
7499.5, 5.0981e-06
7501.5, 5.2051e-06
7503.5, 5.1561e-06
7505.5, 5.0187e-06
7507.5, 5.065e-06
7509.5, 5.0965e-06
7511.5, 5.0886e-06
7513.5, 5.1075e-06
7515.5, 5.0881e-06
7517.5, 5.1447e-06
7519.5, 5.0661e-06
7521.5, 5.1119e-06
7523.5, 5.1346e-06
7525.5, 5.2322e-06
7527.5, 5.1795e-06
7529.5, 5.0847e-06
7531.5, 5.0979e-06
7533.5, 5.108e-06
7535.5, 5.1316e-06
7537.5, 5.051e-06
7539.5, 5.0224e-06
7541.5, 5.1737e-06
7543.5, 5.1391e-06
7545.5, 5.0805e-06
7547.5, 5.1527e-06
7549.5, 5.1228e-06
7551.5, 5.1265e-06
7553.5, 5.2325e-06
7555.5, 5.0749e-06
7557.5, 5.1913e-06
7559.6, 5.208e-06
7561.6, 5.1575e-06
7563.6, 5.1935e-06
7565.6, 5.0112e-06
7567.6, 5.129e-06
7569.6, 5.0895e-06
7571.6, 5.131e-06
7573.6, 5.0247e-06
7575.6, 5.1259e-06
7577.6, 5.2006e-06
7579.6, 5.1828e-06
7581.6, 5.0989e-06
7583.6, 5.1975e-06
7585.6, 5.2977e-06
7587.6, 5.1238e-06
7589.6, 5.1275e-06
7591.6, 5.1953e-06
7593.6, 5.2243e-06
7595.6, 5.1285e-06
7597.6, 5.1691e-06
7599.6, 5.0454e-06
7601.6, 5.1321e-06
7603.6, 5.1592e-06
7605.6, 5.1735e-06
7607.6, 5.1245e-06
7609.6, 5.1333e-06
7611.6, 5.1818e-06
7613.6, 5.2336e-06
7615.6, 5.0649e-06
7617.6, 5.1938e-06
7619.6, 5.1389e-06
7621.6, 5.1747e-06
7623.6, 5.1454e-06
7625.6, 5.1583e-06
7627.6, 5.2174e-06
7629.6, 5.2433e-06
7631.6, 5.1546e-06
7633.6, 4.9201e-06
7635.6, 5.219e-06
7637.6, 5.1033e-06
7639.6, 5.1839e-06
7641.6, 5.2082e-06
7643.6, 5.1443e-06
7645.6, 5.1544e-06
7647.6, 5.087e-06
7649.6, 5.2619e-06
7651.6, 5.0806e-06
7653.6, 5.05e-06
7655.6, 5.2406e-06
7657.6, 5.1536e-06
7659.7, 5.2034e-06
7661.7, 5.2706e-06
7663.7, 5.0595e-06
7665.7, 5.2365e-06
7667.7, 5.1345e-06
7669.7, 5.1357e-06
7671.7, 5.0976e-06
7673.7, 5.1538e-06
7675.7, 5.1886e-06
7677.7, 5.1842e-06
7679.7, 5.1989e-06
7681.7, 5.1052e-06
7683.7, 5.162e-06
7685.7, 5.1095e-06
7687.7, 5.1907e-06
7689.7, 5.1052e-06
7691.7, 5.2186e-06
7693.7, 5.1337e-06
7695.7, 5.2092e-06
7697.7, 5.1588e-06
7699.7, 5.2246e-06
7701.7, 5.1641e-06
7703.7, 5.2189e-06
7705.7, 5.096e-06
7707.7, 5.0505e-06
7709.7, 5.1476e-06
7711.7, 5.2214e-06
7713.7, 5.1048e-06
7715.7, 5.1186e-06
7717.7, 5.2122e-06
7719.7, 5.3091e-06
7721.7, 5.1374e-06
7723.7, 5.1363e-06
7725.7, 5.1947e-06
7727.7, 5.1469e-06
7729.7, 5.2284e-06
7731.7, 5.154e-06
7733.7, 5.1922e-06
7735.7, 5.1412e-06
7737.7, 5.1141e-06
7739.7, 5.252e-06
7741.7, 5.2576e-06
7743.7, 5.2173e-06
7745.7, 5.1238e-06
7747.7, 5.2403e-06
7749.7, 5.0709e-06
7751.7, 5.2247e-06
7753.7, 5.1346e-06
7755.7, 5.1994e-06
7757.7, 5.1991e-06
7759.8, 5.1213e-06
7761.8, 5.2969e-06
7763.8, 5.1652e-06
7765.8, 5.2239e-06
7767.8, 5.1554e-06
7769.8, 5.2461e-06
7771.8, 5.2164e-06
7773.8, 5.1523e-06
7775.8, 5.1963e-06
7777.8, 5.1627e-06
7779.8, 5.137e-06
7781.8, 5.2181e-06
7783.8, 5.228e-06
7785.8, 5.2236e-06
7787.8, 5.2095e-06
7789.8, 5.2597e-06
7791.8, 5.1585e-06
7793.8, 5.2094e-06
7795.8, 5.1981e-06
7797.8, 5.2555e-06
7799.8, 5.2619e-06
7801.8, 5.239e-06
7803.8, 5.1828e-06
7805.8, 5.2521e-06
7807.8, 5.2285e-06
7809.8, 5.211e-06
7811.8, 5.0969e-06
7813.8, 5.1993e-06
7815.8, 5.2076e-06
7817.8, 5.2933e-06
7819.8, 5.0677e-06
7821.8, 5.1615e-06
7823.8, 5.344e-06
7825.8, 5.2612e-06
7827.8, 5.2306e-06
7829.8, 5.1131e-06
7831.8, 5.1986e-06
7833.8, 5.1801e-06
7835.8, 5.2321e-06
7837.8, 5.2565e-06
7839.8, 5.1605e-06
7841.8, 5.2471e-06
7843.8, 5.2845e-06
7845.8, 5.2325e-06
7847.8, 5.139e-06
7849.8, 5.2904e-06
7851.8, 5.2025e-06
7853.8, 5.2071e-06
7855.8, 5.0994e-06
7857.8, 5.1604e-06
7859.9, 5.1864e-06
7861.9, 5.203e-06
7863.9, 5.2254e-06
7865.9, 5.2429e-06
7867.9, 5.1695e-06
7869.9, 5.2592e-06
7871.9, 5.1351e-06
7873.9, 5.1774e-06
7875.9, 5.2291e-06
7877.9, 5.1919e-06
7879.9, 5.2658e-06
7881.9, 5.2341e-06
7883.9, 5.1698e-06
7885.9, 5.3848e-06
7887.9, 5.3007e-06
7889.9, 5.1631e-06
7891.9, 5.2625e-06
7893.9, 5.1583e-06
7895.9, 5.2701e-06
7897.9, 5.1772e-06
7899.9, 5.1382e-06
7901.9, 5.1897e-06
7903.9, 5.1964e-06
7905.9, 5.275e-06
7907.9, 5.2367e-06
7909.9, 5.1961e-06
7911.9, 5.1652e-06
7913.9, 5.1338e-06
7915.9, 5.2132e-06
7917.9, 5.2923e-06
7919.9, 5.1912e-06
7921.9, 5.2726e-06
7923.9, 5.2192e-06
7925.9, 5.2669e-06
7927.9, 5.2626e-06
7929.9, 5.1815e-06
7931.9, 5.2113e-06
7933.9, 5.2062e-06
7935.9, 5.2229e-06
7937.9, 5.2324e-06
7939.9, 5.2325e-06
7941.9, 5.2209e-06
7943.9, 5.2002e-06
7945.9, 5.0997e-06
7947.9, 5.1986e-06
7949.9, 5.1971e-06
7951.9, 5.3087e-06
7953.9, 5.2257e-06
7955.9, 5.215e-06
7957.9, 5.2952e-06
7960.0, 5.142e-06
7962.0, 5.322e-06
7964.0, 5.1915e-06
7966.0, 5.3105e-06
7968.0, 5.2735e-06
7970.0, 5.2248e-06
7972.0, 5.2006e-06
7974.0, 5.2864e-06
7976.0, 5.2054e-06
7978.0, 5.2406e-06
7980.0, 5.1986e-06
7982.0, 5.2788e-06
7984.0, 5.2331e-06
7986.0, 5.255e-06
7988.0, 5.2613e-06
7990.0, 5.2222e-06
7992.0, 5.2423e-06
7994.0, 5.2224e-06
7996.0, 5.357e-06
7998.0, 5.2455e-06
8000.0, 5.2029e-06
8002.0, 5.209e-06
8004.0, 5.2761e-06
8006.0, 5.1737e-06
8008.0, 5.1792e-06
8010.0, 5.233e-06
8012.0, 5.2533e-06
8014.0, 5.2178e-06
8016.0, 5.2456e-06
8018.0, 5.1442e-06
8020.0, 5.3089e-06
8022.0, 5.1278e-06
8024.0, 5.2516e-06
8026.0, 5.1546e-06
8028.0, 5.1824e-06
8030.0, 5.2573e-06
8032.0, 5.2749e-06
8034.0, 5.2036e-06
8036.0, 5.2461e-06
8038.0, 5.2563e-06
8040.0, 5.3055e-06
8042.0, 5.2343e-06
8044.0, 5.2077e-06
8046.0, 5.1875e-06
8048.0, 5.1757e-06
8050.0, 5.1294e-06
8052.0, 5.2586e-06
8054.0, 5.28e-06
8056.0, 5.1798e-06
8058.0, 5.179e-06
8060.1, 5.1888e-06
8062.1, 5.1538e-06
8064.1, 5.2546e-06
8066.1, 5.2025e-06
8068.1, 5.2647e-06
8070.1, 5.1084e-06
8072.1, 5.3083e-06
8074.1, 5.3028e-06
8076.1, 5.1654e-06
8078.1, 5.2646e-06
8080.1, 5.2671e-06
8082.1, 5.207e-06
8084.1, 5.153e-06
8086.1, 5.3012e-06
8088.1, 5.2299e-06
8090.1, 5.2256e-06
8092.1, 5.227e-06
8094.1, 5.2832e-06
8096.1, 5.2133e-06
8098.1, 5.2739e-06
8100.1, 5.2569e-06
8102.1, 5.1514e-06
8104.1, 5.245e-06
8106.1, 5.1986e-06
8108.1, 5.1638e-06
8110.1, 5.2651e-06
8112.1, 5.248e-06
8114.1, 5.0529e-06
8116.1, 5.3209e-06
8118.1, 5.0928e-06
8120.1, 5.235e-06
8122.1, 5.1843e-06
8124.1, 5.1839e-06
8126.1, 5.2268e-06
8128.1, 5.3675e-06
8130.1, 5.2335e-06
8132.1, 5.3318e-06
8134.1, 5.1858e-06
8136.1, 5.2669e-06
8138.1, 5.1693e-06
8140.1, 5.1578e-06
8142.1, 5.2527e-06
8144.1, 5.1664e-06
8146.1, 5.2693e-06
8148.1, 5.2521e-06
8150.1, 5.2375e-06
8152.1, 5.136e-06
8154.1, 5.2542e-06
8156.1, 5.2481e-06
8158.1, 5.2338e-06
8160.2, 5.1779e-06
8162.2, 5.1987e-06
8164.2, 5.1862e-06
8166.2, 5.251e-06
8168.2, 5.2255e-06
8170.2, 5.2765e-06
8172.2, 5.2522e-06
8174.2, 5.2632e-06
8176.2, 5.2318e-06
8178.2, 5.284e-06
8180.2, 5.2359e-06
8182.2, 5.2534e-06
8184.2, 5.2668e-06
8186.2, 5.2079e-06
8188.2, 5.2702e-06
8190.2, 5.2027e-06
8192.2, 5.2888e-06
8194.2, 5.232e-06
8196.2, 5.269e-06
8198.2, 5.1768e-06
8200.2, 5.2922e-06
8202.2, 5.2355e-06
8204.2, 5.1675e-06
8206.2, 5.2581e-06
8208.2, 5.136e-06
8210.2, 5.3335e-06
8212.2, 5.2608e-06
8214.2, 5.1795e-06
8216.2, 5.3282e-06
8218.2, 5.2065e-06
8220.2, 5.2435e-06
8222.2, 5.1798e-06
8224.2, 5.2495e-06
8226.2, 5.1782e-06
8228.2, 5.2334e-06
8230.2, 5.2429e-06
8232.2, 5.2274e-06
8234.2, 5.2886e-06
8236.2, 5.247e-06
8238.2, 5.1547e-06
8240.2, 5.224e-06
8242.2, 5.1808e-06
8244.2, 5.1423e-06
8246.2, 5.3193e-06
8248.2, 5.1844e-06
8250.2, 5.193e-06
8252.2, 5.2821e-06
8254.2, 5.2814e-06
8256.2, 5.2162e-06
8258.2, 5.2738e-06
8260.3, 5.2699e-06
8262.3, 5.2787e-06
8264.3, 5.2877e-06
8266.3, 5.3759e-06
8268.3, 5.1928e-06
8270.3, 5.2235e-06
8272.3, 5.2816e-06
8274.3, 5.2215e-06
8276.3, 5.2352e-06
8278.3, 5.3196e-06
8280.3, 5.2936e-06
8282.3, 5.2334e-06
8284.3, 5.2177e-06
8286.3, 5.1484e-06
8288.3, 5.3071e-06
8290.3, 5.1986e-06
8292.3, 5.2279e-06
8294.3, 5.2033e-06
8296.3, 5.2072e-06
8298.3, 5.1201e-06
8300.3, 5.2143e-06
8302.3, 5.2468e-06
8304.3, 5.3027e-06
8306.3, 5.0992e-06
8308.3, 5.3073e-06
8310.3, 5.2366e-06
8312.3, 5.2694e-06
8314.3, 5.2011e-06
8316.3, -1.4197e-07
8318.3, -1.404e-08
8320.3, -1.631e-08
8322.3, -1.279e-08
8324.3, -1.068e-08
8326.3, -1.291e-08
8328.3, -1.354e-08
8330.3, -1.079e-08
8332.3, -1.134e-08
8334.3, -1.287e-08
8336.3, -1.205e-08
8338.3, -1.903e-08
8340.3, -1.498e-08
8342.3, -1.866e-08
8344.3, -1.414e-08
8346.3, -1.258e-08
8348.3, -1.227e-08
8350.3, -1.045e-08
8352.3, -1.315e-08
8354.3, -1.17e-08
8356.3, -1.46e-08
8358.3, -1.361e-08
8360.4, -1.293e-08
8362.4, -1.332e-08
8364.4, -1.259e-08
8366.4, -1.725e-08
8368.4, -1.892e-08
8370.4, -1.747e-08
8372.4, -1.269e-08
8374.4, -1.367e-08
8376.4, -1.324e-08
8378.4, -1.379e-08
8380.4, -1.586e-08
8382.4, -1.277e-08
8384.4, -1.005e-08
8386.4, -1.246e-08
8388.4, -1.268e-08
8390.4, -1.275e-08
8392.4, -1.343e-08
8394.4, -1.284e-08
8396.4, -1.757e-08
8398.4, -1.511e-08
8400.4, -1.692e-08
8402.4, -1.583e-08
8404.4, -1.79e-08
8406.4, -1.737e-08
8408.4, -1.533e-08
8410.4, -1.64e-08
8412.4, -1.603e-08
8414.4, -1.176e-08
8416.4, -1.637e-08
8418.4, -1.742e-08
8420.4, -1.77e-08
8422.4, -1.546e-08
8424.4, -1.368e-08
8426.4, -1.339e-08
8428.4, -1.685e-08
8430.4, -1.549e-08
8432.4, -1.563e-08
8434.4, -1.77e-08
8436.4, -1.667e-08
8438.4, -1.831e-08
8440.4, -1.498e-08
8442.4, -1.799e-08
8444.4, -1.418e-08
8446.4, -1.635e-08
8448.4, -1.593e-08
8450.4, -1.875e-08
8452.4, -1.543e-08
8454.4, -1.427e-08
8456.4, -1.469e-08
8458.4, -1.613e-08
8460.5, -1.609e-08
8462.5, -1.4e-08
8464.5, -1.456e-08
8466.5, -1.365e-08
8468.5, -1.588e-08
8470.5, -1.605e-08
8472.5, -1.29e-08
8474.5, -1.059e-08
8476.5, -1.849e-08
8478.5, -1.507e-08
8480.5, -1.783e-08
8482.5, -1.716e-08
8484.5, -1.825e-08
8486.5, -1.576e-08
8488.5, -1.634e-08
8490.5, -1.666e-08
8492.5, -1.44e-08
8494.5, -1.608e-08
8496.5, -1.953e-08
8498.5, -1.504e-08
8500.5, -1.401e-08
8502.5, -1.454e-08
8504.5, -1.539e-08
8506.5, -1.177e-08
8508.5, -1.46e-08
8510.5, -1.403e-08
8512.5, -1.48e-08
8514.5, -1.519e-08
8516.5, -1.456e-08
8518.5, -1.482e-08
8520.5, -1.545e-08
8522.5, -1.872e-08
8524.5, -1.461e-08
8526.5, -1.884e-08
8528.5, -1.84e-08
8530.5, -1.598e-08
8532.5, -1.047e-08
8534.5, -1.365e-08
8536.5, -1.451e-08
8538.5, -1.409e-08
8540.5, -1.813e-08
8542.5, -1.431e-08
8544.5, -1.462e-08
8546.5, -1.478e-08
8548.5, -1.093e-08
8550.5, -1.344e-08
8552.5, -1.395e-08
8554.5, -1.584e-08
8556.5, -1.5e-08
8558.5, -1.848e-08
8560.6, -1.493e-08
8562.6, -1.511e-08
8564.6, -1.809e-08
8566.6, -2.027e-08
8568.6, -2.196e-08
8570.6, -1.706e-08
8572.6, -1.465e-08
8574.6, -1.83e-08
8576.6, -1.482e-08
8578.6, -1.449e-08
8580.6, -1.387e-08
8582.6, -1.789e-08
8584.6, -1.907e-08
8586.6, -1.784e-08
8588.6, -1.822e-08
8590.6, -1.99e-08
8592.6, -1.567e-08
8594.6, -2.062e-08
8596.6, -1.558e-08
8598.6, -1.857e-08
8600.6, -1.841e-08
8602.6, -1.741e-08
8604.6, -1.87e-08
8606.6, -1.731e-08
8608.6, -2.001e-08
8610.6, -2.177e-08
8612.6, -1.573e-08
8614.6, -1.789e-08
8616.6, -1.885e-08
8618.6, -1.955e-08
8620.6, -1.857e-08
8622.6, -1.572e-08
8624.6, -1.657e-08
8626.6, -1.549e-08
8628.6, -1.677e-08
8630.6, -1.642e-08
8632.6, -1.5e-08
8634.6, -1.36e-08
8636.6, -1.714e-08
8638.6, -1.541e-08
8640.6, -1.725e-08
8642.6, -1.31e-08
8644.6, -1.469e-08
8646.6, -1.592e-08
8648.6, -1.927e-08
8650.6, -1.565e-08
8652.6, -1.559e-08
8654.6, -1.7e-08
8656.6, -1.78e-08
8658.6, -2.047e-08
8660.7, -1.809e-08
8662.7, -1.717e-08
8664.7, -1.68e-08
8666.7, -1.742e-08
8668.7, -1.54e-08
8670.7, -1.792e-08
8672.7, -1.569e-08
8674.7, -1.568e-08
8676.7, -1.679e-08
8678.7, -1.404e-08
8680.7, -1.754e-08
8682.7, -1.589e-08
8684.7, -1.525e-08
8686.7, -1.797e-08
8688.7, -2.162e-08
8690.7, -2.19e-08
8692.7, -1.698e-08
8694.7, -1.7e-08
8696.7, -1.911e-08
8698.7, -1.881e-08
8700.7, -1.334e-08
8702.7, -1.522e-08
8704.7, -1.601e-08
8706.7, -1.817e-08
8708.7, -1.83e-08
8710.7, -1.681e-08
8712.7, -1.727e-08
8714.7, -1.668e-08
8716.7, -1.516e-08
8718.7, -1.584e-08
8720.7, -1.664e-08
8722.7, -1.747e-08
8724.7, -1.566e-08
8726.7, -1.468e-08
8728.7, -1.68e-08
8730.7, -1.719e-08
8732.7, -1.444e-08
8734.7, -1.681e-08
8736.7, -1.337e-08
8738.7, -1.275e-08
8740.7, -1.15e-08
8742.7, -1.447e-08
8744.7, -1.623e-08
8746.7, -1.806e-08
8748.7, -2.114e-08
8750.7, -1.544e-08
8752.7, -1.725e-08
8754.7, -1.467e-08
8756.7, -2.045e-08
8758.7, -1.595e-08
8760.8, -1.614e-08
8762.8, -1.602e-08
8764.8, -1.628e-08
8766.8, -1.581e-08
8768.8, -1.454e-08
8770.8, -1.406e-08
8772.8, -1.638e-08
8774.8, -1.881e-08
8776.8, -1.821e-08
8778.8, -1.827e-08
8780.8, -1.556e-08
8782.8, -2.12e-08
8784.8, -1.509e-08
8786.8, -1.962e-08
8788.8, -1.896e-08
8790.8, -2.032e-08
8792.8, -1.531e-08
8794.8, -1.823e-08
8796.8, -2.003e-08
8798.8, -2.046e-08
8800.8, -1.971e-08
8802.8, -2.055e-08
8804.8, -1.758e-08
8806.8, -2.123e-08
8808.8, -1.949e-08
8810.8, -1.874e-08
8812.8, -1.64e-08
8814.8, -1.58e-08
8816.8, -1.427e-08
8818.8, -1.698e-08
8820.8, -1.749e-08
8822.8, -1.664e-08
8824.8, -1.753e-08
8826.8, -1.806e-08
8828.8, -1.797e-08
8830.8, -2.172e-08
8832.8, -2.064e-08
8834.8, -2.165e-08
8836.8, -2.009e-08
8838.8, -1.9e-08
8840.8, -2.093e-08
8842.8, -2.084e-08
8844.8, -1.727e-08
8846.8, -1.902e-08
8848.8, -1.752e-08
8850.8, -1.808e-08
8852.8, -2.015e-08
8854.8, -2.049e-08
8856.8, -2.248e-08
8858.8, -2.019e-08
8860.9, -1.882e-08
8862.9, -1.791e-08
8864.9, -1.94e-08
8866.9, -1.563e-08
8868.9, -1.776e-08
8870.9, -1.668e-08
8872.9, -1.744e-08
8874.9, -1.806e-08
8876.9, -1.772e-08
8878.9, -1.884e-08
8880.9, -1.679e-08
8882.9, -1.662e-08
8884.9, -2.032e-08
8886.9, -2.143e-08
8888.9, -2.299e-08
8890.9, -2.081e-08
8892.9, -2.353e-08
8894.9, -2.641e-08
8896.9, -2.124e-08
8898.9, -2.443e-08
8900.9, -2.202e-08
8902.9, -2.159e-08
8904.9, -1.809e-08
8906.9, -2.116e-08
8908.9, -1.679e-08
8910.9, -1.768e-08
8912.9, -1.815e-08
8914.9, -1.847e-08
8916.9, -1.747e-08
8918.9, -1.886e-08
8920.9, -2.242e-08
8922.9, -2.166e-08
8924.9, -1.962e-08
8926.9, -2.213e-08
8928.9, -2.1e-08
8930.9, -2.269e-08
8932.9, -2.238e-08
8934.9, -2.014e-08
8936.9, -2.305e-08
8938.9, -1.816e-08
8940.9, -1.735e-08
8942.9, -2.187e-08
8944.9, -2.089e-08
8946.9, -1.976e-08
8948.9, -1.973e-08
8950.9, -1.87e-08
8952.9, -1.681e-08
8954.9, -2.019e-08
8956.9, -1.88e-08
8958.9, -1.956e-08
8961.0, -1.97e-08
8963.0, -2.1e-08
8965.0, -2.264e-08
8967.0, -1.861e-08
8969.0, -2.316e-08
8971.0, -2.012e-08
8973.0, -1.894e-08
8975.0, -2.099e-08
8977.0, -2.205e-08
8979.0, -1.915e-08
8981.0, -1.872e-08
8983.0, -1.866e-08
8985.0, -1.84e-08
8987.0, -1.656e-08
8989.0, -1.943e-08
8991.0, -2.025e-08
8993.0, -1.804e-08
8995.0, -1.644e-08
8997.0, -1.66e-08
8999.0, -1.794e-08
9001.0, -1.561e-08
9003.0, -1.914e-08
9005.0, -2.106e-08
9007.0, -2.053e-08
9009.0, -2.054e-08
9011.0, -1.826e-08
9013.0, -1.726e-08
9015.0, -1.95e-08
9017.0, -2.219e-08
9019.0, -1.825e-08
9021.0, -1.58e-08
9023.0, -1.864e-08
9025.0, -2.243e-08
9027.0, -2.275e-08
9029.0, -2.194e-08
9031.0, -2.283e-08
9033.0, -2.362e-08
9035.0, -2.179e-08
9037.0, -2.58e-08
9039.0, -2.379e-08
9041.0, -2.553e-08
9043.0, -2.226e-08
9045.0, -2.181e-08
9047.0, -2.021e-08
9049.0, -1.963e-08
9051.0, -2.086e-08
9053.0, -2.333e-08
9055.0, -2.371e-08
9057.0, -2.643e-08
9059.0, -2.086e-08
9061.1, -2.522e-08
9063.1, -2.284e-08
9065.1, -2.356e-08
9067.1, -2.363e-08
9069.1, -2.315e-08
9071.1, -2.307e-08
9073.1, -2.277e-08
9075.1, -1.939e-08
9077.1, -2.128e-08
9079.1, -2.141e-08
9081.1, -1.835e-08
9083.1, -2.592e-08
9085.1, -1.931e-08
9087.1, -2.459e-08
9089.1, -2.291e-08
9091.1, -2.636e-08
9093.1, -2.433e-08
9095.1, -2.303e-08
9097.1, -2.11e-08
9099.1, -1.937e-08
9101.1, -2.399e-08
9103.1, -2.407e-08
9105.1, -2.489e-08
9107.1, -2.65e-08
9109.1, -2.522e-08
9111.1, -2.248e-08
9113.1, -2.401e-08
9115.1, -1.971e-08
9117.1, -2.304e-08
9119.1, -2.378e-08
9121.1, -2.2e-08
9123.1, -2.352e-08
9125.1, -2.489e-08
9127.1, -2.579e-08
9129.1, -2.098e-08
9131.1, -1.928e-08
9133.1, -2.034e-08
9135.1, -2.073e-08
9137.1, -1.896e-08
9139.1, -1.841e-08
9141.1, -2.005e-08
9143.1, -1.677e-08
9145.1, -1.658e-08
9147.1, -2.283e-08
9149.1, -2.24e-08
9151.1, -1.996e-08
9153.1, -2.183e-08
9155.1, -2.382e-08
9157.1, -2.254e-08
9159.1, -1.985e-08
9161.2, -1.892e-08
9163.2, -1.743e-08
9165.2, -1.857e-08
9167.2, -1.994e-08
9169.2, -2.223e-08
9171.2, -2.213e-08
9173.2, -1.926e-08
9175.2, -2.087e-08
9177.2, -2.228e-08
9179.2, -2.088e-08
9181.2, -2.274e-08
9183.2, -2.018e-08
9185.2, -2.488e-08
9187.2, -2.178e-08
9189.2, -2.467e-08
9191.2, -2.396e-08
9193.2, -2.021e-08
9195.2, -1.76e-08
9197.2, -2.3e-08
9199.2, -1.957e-08
9201.2, -2.088e-08
9203.2, -2.179e-08
9205.2, -2.42e-08
9207.2, -2.528e-08
9209.2, -2.545e-08
9211.2, -2.455e-08
9213.2, -2.411e-08
9215.2, -1.928e-08
9217.2, -2.364e-08
9219.2, -2.261e-08
9221.2, -1.991e-08
9223.2, -1.747e-08
9225.2, -1.995e-08
9227.2, -2.146e-08
9229.2, -2.415e-08
9231.2, -2.241e-08
9233.2, -2.19e-08
9235.2, -2.174e-08
9237.2, -2.254e-08
9239.2, -2.173e-08
9241.2, -2.143e-08
9243.2, -2.142e-08
9245.2, -1.857e-08
9247.2, -2.062e-08
9249.2, -2.016e-08
9251.2, -2.062e-08
9253.2, -1.889e-08
9255.2, -2.041e-08
9257.2, -2.405e-08
9259.2, -2.069e-08
9261.3, -1.922e-08
9263.3, -2.17e-08
9265.3, -2.176e-08
9267.3, -2.085e-08
9269.3, -1.935e-08
9271.3, -1.638e-08
9273.3, -2.057e-08
9275.3, -1.944e-08
9277.3, -2.096e-08
9279.3, -1.898e-08
9281.3, -1.632e-08
9283.3, -2.105e-08
9285.3, -1.649e-08
9287.3, -2.033e-08
9289.3, -2.241e-08
9291.3, -2.114e-08
9293.3, -1.892e-08
9295.3, -2.165e-08
9297.3, -1.544e-08
9299.3, -1.923e-08
9301.3, -2.041e-08
9303.3, -1.968e-08
9305.3, -1.809e-08
9307.3, -1.617e-08
9309.3, -1.668e-08
9311.3, -1.44e-08
9313.3, -1.718e-08
9315.3, -1.693e-08
9317.3, -2.045e-08
9319.3, -1.965e-08
9321.3, -2.259e-08
9323.3, -2.121e-08
9325.3, -1.825e-08
9327.3, -1.918e-08
9329.3, -2.109e-08
9331.3, -2.17e-08
9333.3, -2.305e-08
9335.3, -2.233e-08
9337.3, -2.16e-08
9339.3, -2.254e-08
9341.3, -2.441e-08
9343.3, -2.045e-08
9345.3, -1.426e-08
9347.3, -1.929e-08
9349.3, -2.077e-08
9351.3, -1.967e-08
9353.3, -2.065e-08
9355.3, -2.013e-08
9357.3, -1.966e-08
9359.3, -2.016e-08
9361.4, -2.153e-08
9363.4, -2.208e-08
9365.4, -2.248e-08
9367.4, -2.236e-08
9369.4, -2.351e-08
9371.4, -2.388e-08
9373.4, -2.675e-08
9375.4, -2.349e-08
9377.4, -2.498e-08
9379.4, -2.505e-08
9381.4, -2.294e-08
9383.4, -2.019e-08
9385.4, -2.53e-08
9387.4, -2.324e-08
9389.4, -2.242e-08
9391.4, -2.043e-08
9393.4, -2.232e-08
9395.4, -2.048e-08
9397.4, -2.339e-08
9399.4, -2.389e-08
9401.4, -2.342e-08
9403.4, -2.045e-08
9405.4, -2.209e-08
9407.4, -2.194e-08
9409.4, -2.371e-08
9411.4, -2.395e-08
9413.4, -2.513e-08
9415.4, -2.212e-08
9417.4, -2.281e-08
9419.4, -2.51e-08
9421.4, -2.329e-08
9423.4, -2.578e-08
9425.4, -2.306e-08
9427.4, -2.284e-08
9429.4, -2.471e-08
9431.4, -2.571e-08
9433.4, -2.197e-08
9435.4, -2.777e-08
9437.4, -2.396e-08
9439.4, -2.161e-08
9441.4, -2.007e-08
9443.4, -2.355e-08
9445.4, -2.104e-08
9447.4, -2.441e-08
9449.4, -2.446e-08
9451.4, -2.14e-08
9453.4, -2.277e-08
9455.4, -1.986e-08
9457.4, -1.962e-08
9459.4, -2.654e-08
9461.5, -2.209e-08
9463.5, -2.075e-08
9465.5, -2.49e-08
9467.5, -2.477e-08
9469.5, -2.468e-08
9471.5, -2.228e-08
9473.5, -2.191e-08
9475.5, -2.182e-08
9477.5, -2.357e-08
9479.5, -2.45e-08
9481.5, -2.313e-08
9483.5, -2.33e-08
9485.5, -2.531e-08
9487.5, -2.569e-08
9489.5, -2.758e-08
9491.5, -2.385e-08
9493.5, -2.132e-08
9495.5, -2.608e-08
9497.5, -2.493e-08
9499.5, -2.647e-08
9501.5, -2.283e-08
9503.5, -2.426e-08
9505.5, -2.412e-08
9507.5, -2.305e-08
9509.5, -2.432e-08
9511.5, -2.71e-08
9513.5, -2.609e-08
9515.5, -2.518e-08
9517.5, -2.498e-08
9519.5, -2.401e-08
9521.5, -2.588e-08
9523.5, -2.431e-08
9525.5, -2.588e-08
9527.5, -2.428e-08
9529.5, -2.591e-08
9531.5, -3.017e-08
9533.5, -2.514e-08
9535.5, -2.64e-08
9537.5, -2.145e-08
9539.5, -2.471e-08
9541.5, -2.041e-08
9543.5, -2.162e-08
9545.5, -2.422e-08
9547.5, -2.32e-08
9549.5, -2.287e-08
9551.5, -2.04e-08
9553.5, -2.106e-08
9555.5, -2.48e-08
9557.5, -2.099e-08
9559.5, -2.376e-08
9561.6, -2.49e-08
9563.6, -2.459e-08
9565.6, -2.359e-08
9567.6, -2.445e-08
9569.6, -2.376e-08
9571.6, -2.411e-08
9573.6, -2.373e-08
9575.6, -2.109e-08
9577.6, -2.608e-08
9579.6, -2.409e-08
9581.6, -2.635e-08
9583.6, -2.366e-08
9585.6, -2.395e-08
9587.6, -2.368e-08
9589.6, -2.3e-08
9591.6, -1.9e-08
9593.6, -1.691e-08
9595.6, -2.28e-08
9597.6, -2.034e-08
9599.6, -2.326e-08
9601.6, -2.351e-08
9603.6, -1.955e-08
9605.6, -2.399e-08
9607.6, -2.265e-08
9609.6, -2.476e-08
9611.6, -2.211e-08
9613.6, -2.06e-08
9615.6, -2.011e-08
9617.6, -2.209e-08
9619.6, -1.934e-08
9621.6, -2.225e-08
9623.6, -2.044e-08
9625.6, -2.154e-08
9627.6, -2.044e-08
9629.6, -1.839e-08
9631.6, -2.238e-08
9633.6, -2.058e-08
9635.6, -2.256e-08
9637.6, -2.4e-08
9639.6, -1.892e-08
9641.6, -2.243e-08
9643.6, -2.202e-08
9645.6, -2.024e-08
9647.6, -2.195e-08
9649.6, -2.178e-08
9651.6, -2.031e-08
9653.6, -1.914e-08
9655.6, -2.012e-08
9657.6, -2.034e-08
9659.6, -2.133e-08
9661.7, -2.176e-08
9663.7, -2.13e-08
9665.7, -1.856e-08
9667.7, -2.044e-08
9669.7, -2.238e-08
9671.7, -1.965e-08
9673.7, -2.019e-08
9675.7, -2.143e-08
9677.7, -2.329e-08
9679.7, -1.763e-08
9681.7, -1.803e-08
9683.7, -2.074e-08
9685.7, -1.88e-08
9687.7, -2.107e-08
9689.7, -1.868e-08
9691.7, -1.701e-08
9693.7, -1.939e-08
9695.7, -1.796e-08
9697.7, -1.623e-08
9699.7, -1.939e-08
9701.7, -1.719e-08
9703.7, -1.945e-08
9705.7, -2.006e-08
9707.7, -2.506e-08
9709.7, -2.14e-08
9711.7, -2.103e-08
9713.7, -2.408e-08
9715.7, -2.414e-08
9717.7, -2.231e-08
9719.7, -1.706e-08
9721.7, -1.745e-08
9723.7, -2.049e-08
9725.7, -2.235e-08
9727.7, -2.278e-08
9729.7, -2.358e-08
9731.7, -2.363e-08
9733.7, -1.989e-08
9735.7, -2.193e-08
9737.7, -2.408e-08
9739.7, -2.382e-08
9741.7, -2.318e-08
9743.7, -1.964e-08
9745.7, -2.055e-08
9747.7, -2.201e-08
9749.7, -2.215e-08
9751.7, -2.129e-08
9753.7, -2.271e-08
9755.7, -2.112e-08
9757.7, -2.338e-08
9759.7, -2.655e-08
9761.8, -1.905e-08
9763.8, -1.897e-08
9765.8, -1.908e-08
9767.8, -2.369e-08
9769.8, -2.348e-08
9771.8, -2.504e-08
9773.8, -2.564e-08
9775.8, -2.585e-08
9777.8, -2.1e-08
9779.8, -2.121e-08
9781.8, -1.724e-08
9783.8, -1.862e-08
9785.8, -2.173e-08
9787.8, -1.815e-08
9789.8, -1.825e-08
9791.8, -1.621e-08
9793.8, -1.588e-08
9795.8, -1.336e-08
9797.8, -2.104e-08
9799.8, -1.77e-08
9801.8, -1.594e-08
9803.8, -1.726e-08
9805.8, -1.817e-08
9807.8, -1.681e-08
9809.8, -1.986e-08
9811.8, -1.93e-08
9813.8, -2.127e-08
9815.8, -1.617e-08
9817.8, -2.369e-08
9819.8, -2.067e-08
9821.8, -2.176e-08
9823.8, -1.933e-08
9825.8, -2.078e-08
9827.8, -1.593e-08
9829.8, -1.825e-08
9831.8, -1.79e-08
9833.8, -2.047e-08
9835.8, -1.898e-08
9837.8, -1.633e-08
9839.8, -1.896e-08
9841.8, -2.033e-08
9843.8, -1.728e-08
9845.8, -1.866e-08
9847.8, -2.3e-08
9849.8, -2.209e-08
9851.8, -1.928e-08
9853.8, -2.428e-08
9855.8, -2.19e-08
9857.8, -2.576e-08
9859.8, -2.356e-08
9861.9, -2.565e-08
9863.9, -2.403e-08
9865.9, -2.464e-08
9867.9, -2.395e-08
9869.9, -2.507e-08
9871.9, -2.372e-08
9873.9, -2.441e-08
9875.9, -2.313e-08
9877.9, -2.678e-08
9879.9, -2.466e-08
9881.9, -2.087e-08
9883.9, -2.634e-08
9885.9, -2.305e-08
9887.9, -2.979e-08
9889.9, -2.411e-08
9891.9, -2.221e-08
9893.9, -2.287e-08
9895.9, -2.132e-08
9897.9, -2.554e-08
9899.9, -2.4e-08
9901.9, -2.441e-08
9903.9, -2.205e-08
9905.9, -1.947e-08
9907.9, -2.455e-08
9909.9, -2.503e-08
9911.9, -2.465e-08
9913.9, -2.3e-08
9915.9, -1.965e-08
9917.9, -2.169e-08
9919.9, -2.016e-08
9921.9, -2.003e-08
9923.9, -1.938e-08
9925.9, -1.875e-08
9927.9, -2.318e-08
9929.9, -2.077e-08
9931.9, -2.348e-08
9933.9, -2.212e-08
9935.9, -2.057e-08
9937.9, -2.024e-08
9939.9, -1.941e-08
9941.9, -2.342e-08
9943.9, -2.571e-08
9945.9, -2.261e-08
9947.9, -2.277e-08
9949.9, -2.119e-08
9951.9, -2.104e-08
9953.9, -2.024e-08
9955.9, -2.043e-08
9957.9, -2.22e-08
9959.9, -1.962e-08
9962.0, -2.333e-08
9964.0, -2.082e-08
9966.0, -1.99e-08
9968.0, -2.195e-08
9970.0, -1.881e-08
9972.0, -2.083e-08
9974.0, -2.205e-08
9976.0, -1.966e-08
9978.0, -2.155e-08
9980.0, -2.279e-08
9982.0, -1.942e-08
9984.0, -1.927e-08
9986.0, -1.871e-08
9988.0, -1.607e-08
9990.0, -2.202e-08
9992.0, -2.203e-08
9994.0, -2.112e-08
9996.0, -2.211e-08
9998.0, -2.013e-08
10000.0, -1.841e-08
10002.0, -1.94e-08
10004.0, -1.926e-08
10006.0, -2.116e-08
10008.0, -1.805e-08
