Time sep (ms?), Current (A)
0.0, -2.882e-08
2.002, -2.907e-08
4.004, -2.996e-08
6.006, -3.431e-08
8.008, -3.351e-08
10.01, -3.178e-08
12.012, -3.236e-08
14.014, -3.299e-08
16.016, -3.102e-08
18.018, -2.793e-08
20.02, -3.314e-08
22.022, -2.986e-08
24.024, -3.129e-08
26.026, -3.34e-08
28.028, -3.271e-08
30.03, -3.144e-08
32.032, -3.254e-08
34.034, -3.565e-08
36.036, -3.571e-08
38.038, -3.311e-08
40.04, -3.541e-08
42.042, -3.185e-08
44.044, -3.165e-08
46.046, -2.788e-08
48.048, -3.506e-08
50.05, -3.05e-08
52.052, -3.183e-08
54.054, -3.407e-08
56.056, -3.156e-08
58.058, -3.346e-08
60.06, -3.419e-08
62.062, -3.569e-08
64.064, -3.389e-08
66.066, -3.201e-08
68.068, -3.091e-08
70.07, -3.198e-08
72.072, -2.804e-08
74.074, -3.099e-08
76.076, -3.105e-08
78.078, -3.029e-08
80.08, -2.929e-08
82.082, -3.015e-08
84.084, -3.205e-08
86.086, -2.984e-08
88.088, -3.004e-08
90.09, -3.044e-08
92.092, -2.986e-08
94.094, -3.204e-08
96.096, -3.34e-08
98.098, -3.028e-08
100.1, -2.949e-08
102.1, -3.05e-08
104.1, -3.201e-08
106.11, -2.961e-08
108.11, -3.005e-08
110.11, -3.103e-08
112.11, -3.021e-08
114.11, -3.215e-08
116.12, -3.329e-08
118.12, -3.408e-08
120.12, -3.312e-08
122.12, -3.004e-08
124.12, -3.049e-08
126.13, -2.915e-08
128.13, -3.115e-08
130.13, -3.492e-08
132.13, -3.106e-08
134.13, -2.889e-08
136.14, -3.314e-08
138.14, -3.201e-08
140.14, -3.188e-08
142.14, -3.178e-08
144.14, -3.065e-08
146.15, -3.232e-08
148.15, -3.484e-08
150.15, -3.342e-08
152.15, -3.504e-08
154.15, -3.24e-08
156.16, -3.245e-08
158.16, -3.139e-08
160.16, -3.426e-08
162.16, -3.283e-08
164.16, -3.374e-08
166.17, -3.187e-08
168.17, -3.235e-08
170.17, -3.221e-08
172.17, -3.378e-08
174.17, -3.576e-08
176.18, -3.584e-08
178.18, -3.595e-08
180.18, -3.287e-08
182.18, -3.255e-08
184.18, -3.191e-08
186.19, -3.303e-08
188.19, -3.661e-08
190.19, -3.479e-08
192.19, -3.492e-08
194.19, -3.126e-08
196.2, -3.195e-08
198.2, -3.419e-08
200.2, -3.226e-08
202.2, -3.58e-08
204.2, -3.3e-08
206.21, -3.634e-08
208.21, -3.296e-08
210.21, -3.096e-08
212.21, -3.232e-08
214.21, -3.42e-08
216.22, -3.586e-08
218.22, -3.59e-08
220.22, -3.251e-08
222.22, -3.451e-08
224.22, -3.032e-08
226.23, -3.233e-08
228.23, -3.166e-08
230.23, -3.222e-08
232.23, -3.548e-08
234.23, -3.161e-08
236.24, -3.031e-08
238.24, -3.189e-08
240.24, -2.547e-08
242.24, -2.747e-08
244.24, -3.1e-08
246.25, -2.858e-08
248.25, -3.028e-08
250.25, -3.029e-08
252.25, -3.02e-08
254.25, -2.833e-08
256.26, -2.985e-08
258.26, -2.578e-08
260.26, -2.502e-08
262.26, -2.526e-08
264.26, -2.884e-08
266.27, -2.786e-08
268.27, -2.979e-08
270.27, -3.171e-08
272.27, -3.159e-08
274.27, -3.435e-08
276.28, -3.293e-08
278.28, -2.942e-08
280.28, -3.094e-08
282.28, -3.432e-08
284.28, -3.185e-08
286.29, -3.448e-08
288.29, -3.564e-08
290.29, -3.525e-08
292.29, -3.494e-08
294.29, -3.438e-08
296.3, -3.297e-08
298.3, -3.31e-08
300.3, -3.381e-08
302.3, -3.402e-08
304.3, -3.522e-08
306.31, -3.24e-08
308.31, -2.648e-08
310.31, -3.105e-08
312.31, -2.904e-08
314.31, -2.965e-08
316.32, -3.042e-08
318.32, -3.324e-08
320.32, -3.223e-08
322.32, -3.143e-08
324.32, -2.937e-08
326.33, -3.304e-08
328.33, -2.992e-08
330.33, -3.188e-08
332.33, -3.05e-08
334.33, -3.147e-08
336.34, -3.171e-08
338.34, -3.104e-08
340.34, -3.006e-08
342.34, -2.995e-08
344.34, -3.062e-08
346.35, -2.723e-08
348.35, -2.73e-08
350.35, -2.762e-08
352.35, -2.457e-08
354.35, -2.695e-08
356.36, -2.869e-08
358.36, -3.085e-08
360.36, -2.706e-08
362.36, -2.665e-08
364.36, -2.526e-08
366.37, -3.044e-08
368.37, -3.021e-08
370.37, -2.741e-08
372.37, -3.053e-08
374.37, -2.754e-08
376.38, -3.033e-08
378.38, -2.831e-08
380.38, -2.932e-08
382.38, -3.042e-08
384.38, -3.058e-08
386.39, -3.139e-08
388.39, -3.191e-08
390.39, -3.165e-08
392.39, -3.07e-08
394.39, -2.916e-08
396.4, -2.717e-08
398.4, -2.878e-08
400.4, -2.901e-08
402.4, -2.891e-08
404.4, -2.818e-08
406.41, -2.976e-08
408.41, -3.056e-08
410.41, -2.815e-08
412.41, -2.612e-08
414.41, -2.399e-08
416.42, -2.734e-08
418.42, -2.631e-08
420.42, -2.537e-08
422.42, -2.473e-08
424.42, -2.805e-08
426.43, -2.813e-08
428.43, -2.866e-08
430.43, -3.256e-08
432.43, -2.732e-08
434.43, -2.982e-08
436.44, -2.989e-08
438.44, -2.709e-08
440.44, -2.847e-08
442.44, -2.888e-08
444.44, -2.867e-08
446.45, -2.737e-08
448.45, -2.765e-08
450.45, -2.841e-08
452.45, -3.068e-08
454.45, -2.58e-08
456.46, -2.886e-08
458.46, -2.829e-08
460.46, -2.634e-08
462.46, -3.032e-08
464.46, -2.35e-08
466.47, -3.129e-08
468.47, -2.806e-08
470.47, -3.186e-08
472.47, -2.851e-08
474.47, -2.904e-08
476.48, -3.218e-08
478.48, -2.809e-08
480.48, -2.788e-08
482.48, -2.663e-08
484.48, -3.166e-08
486.49, -3.037e-08
488.49, -3.267e-08
490.49, -3.214e-08
492.49, -3e-08
494.49, -3.028e-08
496.5, -3.32e-08
498.5, -3.273e-08
500.5, -3.266e-08
502.5, -2.974e-08
504.5, -3.083e-08
506.51, -2.752e-08
508.51, -3.168e-08
510.51, -2.696e-08
512.51, -2.939e-08
514.51, -2.905e-08
516.52, -2.912e-08
518.52, -2.882e-08
520.52, -2.938e-08
522.52, -3.013e-08
524.52, -2.815e-08
526.53, -3.007e-08
528.53, -3.032e-08
530.53, -3.172e-08
532.53, -3.181e-08
534.53, -3.084e-08
536.54, -3.368e-08
538.54, -3.191e-08
540.54, -3.196e-08
542.54, -3.159e-08
544.54, -3.032e-08
546.55, -3.306e-08
548.55, -3.223e-08
550.55, -3.228e-08
552.55, -2.679e-08
554.55, -3.173e-08
556.56, -3.043e-08
558.56, -2.849e-08
560.56, -2.957e-08
562.56, -2.942e-08
564.56, -3.155e-08
566.57, -3.607e-08
568.57, -3.287e-08
570.57, -3.083e-08
572.57, -3.2e-08
574.57, -2.953e-08
576.58, -2.892e-08
578.58, -2.776e-08
580.58, -3.307e-08
582.58, -2.92e-08
584.58, -2.84e-08
586.59, -3.102e-08
588.59, -3.266e-08
590.59, -2.998e-08
592.59, -3.27e-08
594.59, -3.004e-08
596.6, -3.589e-08
598.6, -3.381e-08
600.6, -3.235e-08
602.6, -3.379e-08
604.6, -3.245e-08
606.61, -3.29e-08
608.61, -3.055e-08
610.61, -3.353e-08
612.61, -2.997e-08
614.61, -3.65e-08
616.62, -3.468e-08
618.62, -3.404e-08
620.62, -3.147e-08
622.62, -3.534e-08
624.62, -3.271e-08
626.63, -2.966e-08
628.63, -3.334e-08
630.63, -2.912e-08
632.63, -2.833e-08
634.63, -2.982e-08
636.64, -2.936e-08
638.64, -3.237e-08
640.64, -2.916e-08
642.64, -3.104e-08
644.64, -3.151e-08
646.65, -3.171e-08
648.65, -3.099e-08
650.65, -3.143e-08
652.65, -3.014e-08
654.65, -3.356e-08
656.66, -3.219e-08
658.66, -3.268e-08
660.66, -3.237e-08
662.66, -3.238e-08
664.66, -3.085e-08
666.67, -3.057e-08
668.67, -3.402e-08
670.67, -3.275e-08
672.67, -2.792e-08
674.67, -2.857e-08
676.68, -3.198e-08
678.68, -2.739e-08
680.68, -3.178e-08
682.68, -2.928e-08
684.68, -3.238e-08
686.69, -3.061e-08
688.69, -3.24e-08
690.69, -3.242e-08
692.69, -3.093e-08
694.69, -3.423e-08
696.7, -3.07e-08
698.7, -3.178e-08
700.7, -3.183e-08
702.7, -3.328e-08
704.7, -3.006e-08
706.71, -3.166e-08
708.71, -3.395e-08
710.71, -3.142e-08
712.71, -3.144e-08
714.71, -3.125e-08
716.72, -3.108e-08
718.72, -3.538e-08
720.72, -3.603e-08
722.72, -3.4e-08
724.72, -3.346e-08
726.73, -3.321e-08
728.73, -3.609e-08
730.73, -3.243e-08
732.73, -3.044e-08
734.73, -3.282e-08
736.74, -3.36e-08
738.74, -3.11e-08
740.74, -3.24e-08
742.74, -3.213e-08
744.74, -2.968e-08
746.75, -3.008e-08
748.75, -3.205e-08
750.75, -3.276e-08
752.75, -2.864e-08
754.75, -3.118e-08
756.76, -3.384e-08
758.76, -3.15e-08
760.76, -3.076e-08
762.76, -2.818e-08
764.76, -3.102e-08
766.77, -2.871e-08
768.77, -3.013e-08
770.77, -2.866e-08
772.77, -2.833e-08
774.77, -2.828e-08
776.78, -2.719e-08
778.78, -2.999e-08
780.78, -3.103e-08
782.78, -3.067e-08
784.78, -3.206e-08
786.79, -3.2e-08
788.79, -3.007e-08
790.79, -3.152e-08
792.79, -3.019e-08
794.79, -3.047e-08
796.8, -3.292e-08
798.8, -3.139e-08
800.8, -3.163e-08
802.8, -2.697e-08
804.8, -2.527e-08
806.81, -2.629e-08
808.81, -3.078e-08
810.81, -2.703e-08
812.81, -2.588e-08
814.81, -2.691e-08
816.82, -2.781e-08
818.82, -3.054e-08
820.82, -2.892e-08
822.82, -3.073e-08
824.82, -3.169e-08
826.83, -2.827e-08
828.83, -2.68e-08
830.83, -2.606e-08
832.83, -2.63e-08
834.83, -2.496e-08
836.84, -2.89e-08
838.84, -2.924e-08
840.84, -2.645e-08
842.84, -2.826e-08
844.84, -2.711e-08
846.85, -2.785e-08
848.85, -2.737e-08
850.85, -2.477e-08
852.85, -2.689e-08
854.85, -2.595e-08
856.86, -3.119e-08
858.86, -2.846e-08
860.86, -2.994e-08
862.86, -2.937e-08
864.86, -2.895e-08
866.87, -3.088e-08
868.87, -3.149e-08
870.87, -3.115e-08
872.87, -3.21e-08
874.87, -3.153e-08
876.88, -2.888e-08
878.88, -2.916e-08
880.88, -3e-08
882.88, -2.946e-08
884.88, -2.796e-08
886.89, -2.965e-08
888.89, -2.966e-08
890.89, -2.943e-08
892.89, -2.756e-08
894.89, -3.05e-08
896.9, -3.238e-08
898.9, -3.066e-08
900.9, -3.248e-08
902.9, -2.768e-08
904.9, -2.946e-08
906.91, -2.89e-08
908.91, -2.998e-08
910.91, -2.959e-08
912.91, -3.06e-08
914.91, -3.07e-08
916.92, -3.05e-08
918.92, -3.291e-08
920.92, -3.065e-08
922.92, -3.118e-08
924.92, -3.061e-08
926.93, -2.617e-08
928.93, -3.044e-08
930.93, -3.344e-08
932.93, -3.015e-08
934.93, -3.128e-08
936.94, -2.924e-08
938.94, -2.827e-08
940.94, -3.489e-08
942.94, -3.182e-08
944.94, -2.645e-08
946.95, -3.119e-08
948.95, -3.608e-08
950.95, -3.06e-08
952.95, -3.24e-08
954.95, -3.151e-08
956.96, -3.011e-08
958.96, -2.857e-08
960.96, -2.779e-08
962.96, -3.072e-08
964.96, -3.039e-08
966.97, -3.207e-08
968.97, -3.213e-08
970.97, -3.31e-08
972.97, -3.097e-08
974.97, -3.529e-08
976.98, -3.75e-08
978.98, -3.463e-08
980.98, -3.533e-08
982.98, -3.223e-08
984.98, -3.311e-08
986.99, -3.167e-08
988.99, -3.444e-08
990.99, -3.552e-08
992.99, -2.973e-08
994.99, -2.987e-08
997.0, -2.674e-08
999.0, -2.713e-08
1001.0, -2.966e-08
1003.0, -2.771e-08
1005.0, -2.985e-08
1007.0, -3.176e-08
1009.0, -3.153e-08
1011.0, -3.204e-08
1013.0, -2.965e-08
1015.0, -3.312e-08
1017.0, -3.103e-08
1019.0, -3.293e-08
1021.0, -3.145e-08
1023.0, -2.629e-08
1025.0, -3.091e-08
1027.0, -2.879e-08
1029.0, -3.16e-08
1031.0, -2.643e-08
1033.0, -2.864e-08
1035.0, -2.889e-08
1037.0, -2.86e-08
1039.0, -3.023e-08
1041.0, -3.056e-08
1043.0, -2.783e-08
1045.0, -3.082e-08
1047.0, -3.082e-08
1049.0, -1.669e-08
1051.0, -1.139e-08
1053.1, -9e-09
1055.1, -1.366e-08
1057.1, -8.34e-09
1059.1, -1.124e-08
1061.1, -8.75e-09
1063.1, -8.6e-09
1065.1, -1.218e-08
1067.1, -1.157e-08
1069.1, -7.83e-09
1071.1, -1.076e-08
1073.1, -7.53e-09
1075.1, -5.22e-09
1077.1, -6.43e-09
1079.1, -6.24e-09
1081.1, -7.5e-09
1083.1, -9.66e-09
1085.1, -1.016e-08
1087.1, -8.48e-09
1089.1, -5.17e-09
1091.1, -8.8e-09
1093.1, -5.44e-09
1095.1, -4.85e-09
1097.1, -1.75e-09
1099.1, -7.88e-09
1101.1, -7.46e-09
1103.1, -2.7e-09
1105.1, -8.78e-09
1107.1, -7.01e-09
1109.1, -1.346e-08
1111.1, -7.65e-09
1113.1, -7.95e-09
1115.1, -3.89e-09
1117.1, -1.099e-08
1119.1, -1.003e-08
1121.1, -9.72e-09
1123.1, -1.216e-08
1125.1, -7.91e-09
1127.1, -5.51e-09
1129.1, -8.19e-09
1131.1, -3.76e-09
1133.1, -1.056e-08
1135.1, -6.7e-09
1137.1, -1.101e-08
1139.1, -1.07e-08
1141.1, -7.53e-09
1143.1, -7.29e-09
1145.1, -1.262e-08
1147.1, -9.43e-09
1149.1, -8.9e-09
1151.1, -1.201e-08
1153.2, -1.156e-08
1155.2, -8.02e-09
1157.2, -9.24e-09
1159.2, -7.72e-09
1161.2, -1.124e-08
1163.2, -6.25e-09
1165.2, -5.99e-09
1167.2, -9.12e-09
1169.2, -5.97e-09
1171.2, -8.03e-09
1173.2, -4.91e-09
1175.2, -7.19e-09
1177.2, -6.91e-09
1179.2, -7.16e-09
1181.2, -7.07e-09
1183.2, -6.36e-09
1185.2, -1.85e-09
1187.2, -8.4e-09
1189.2, -1.092e-08
1191.2, -8.02e-09
1193.2, -5.3e-09
1195.2, -5.04e-09
1197.2, -7.8e-09
1199.2, -1.045e-08
1201.2, -6.51e-09
1203.2, -5.14e-09
1205.2, -8.07e-09
1207.2, -8.77e-09
1209.2, -4.62e-09
1211.2, -8.89e-09
1213.2, -3.24e-09
1215.2, -7.06e-09
1217.2, -8.77e-09
1219.2, -9.92e-09
1221.2, -8.98e-09
1223.2, -7.83e-09
1225.2, -6.84e-09
1227.2, -4.01e-09
1229.2, -7.31e-09
1231.2, -1.634e-08
1233.2, -1.383e-08
1235.2, -1.368e-08
1237.2, -8.16e-09
1239.2, -4.36e-09
1241.2, -8.01e-09
1243.2, -6.88e-09
1245.2, -6.67e-09
1247.2, -6.93e-09
1249.2, -8.15e-09
1251.2, -3.46e-09
1253.3, -1.093e-08
1255.3, -8.75e-09
1257.3, -1.289e-08
1259.3, -6.76e-09
1261.3, -1.01e-08
1263.3, -1.063e-08
1265.3, -7.55e-09
1267.3, -8.86e-09
1269.3, -1.399e-08
1271.3, -9.93e-09
1273.3, -6.02e-09
1275.3, -1.058e-08
1277.3, -9.62e-09
1279.3, -4.94e-09
1281.3, -9.95e-09
1283.3, -8.64e-09
1285.3, -4.92e-09
1287.3, -8e-09
1289.3, -8.5e-09
1291.3, -3.5e-09
1293.3, -7.06e-09
1295.3, -7.06e-09
1297.3, -1.65e-09
1299.3, -4.82e-09
1301.3, -9e-09
1303.3, -5.99e-09
1305.3, -3.89e-09
1307.3, -5.94e-09
1309.3, -4.57e-09
1311.3, -1.071e-08
1313.3, -8.45e-09
1315.3, -4.75e-09
1317.3, -6.91e-09
1319.3, -8.06e-09
1321.3, -9.96e-09
1323.3, -9.32e-09
1325.3, -4.69e-09
1327.3, -6.77e-09
1329.3, -9.03e-09
1331.3, -8.2e-09
1333.3, -7.22e-09
1335.3, -4.08e-09
1337.3, -8.05e-09
1339.3, -7.33e-09
1341.3, -1.075e-08
1343.3, -5.91e-09
1345.3, -4.33e-09
1347.3, -8.91e-09
1349.3, -1.237e-08
1351.3, -7.12e-09
1353.4, -1.185e-08
1355.4, -1.181e-08
1357.4, -5.71e-09
1359.4, -1.026e-08
1361.4, -4.97e-09
1363.4, -6.68e-09
1365.4, -8.1e-09
1367.4, -8.75e-09
1369.4, -1.19e-09
1371.4, -6.49e-09
1373.4, -3.99e-09
1375.4, -7.45e-09
1377.4, -7.37e-09
1379.4, -4.04e-09
1381.4, -8e-10
1383.4, -5.7e-09
1385.4, -9.18e-09
1387.4, -6.17e-09
1389.4, -8.31e-09
1391.4, -4.02e-09
1393.4, -2.19e-09
1395.4, -5.5e-10
1397.4, -1.18e-09
1399.4, -5.46e-09
1401.4, -1.26e-09
1403.4, -1.13e-09
1405.4, -2.15e-09
1407.4, -3.91e-09
1409.4, -6.59e-09
1411.4, -7.88e-09
1413.4, -3.86e-09
1415.4, -6.67e-09
1417.4, -2.27e-09
1419.4, -8e-10
1421.4, -7.38e-09
1423.4, -1e-09
1425.4, -4.19e-09
1427.4, -6e-09
1429.4, -5.44e-09
1431.4, -5.97e-09
1433.4, -6.05e-09
1435.4, -4.34e-09
1437.4, -3.2e-09
1439.4, -1.11e-09
1441.4, -4.79e-09
1443.4, -7.78e-09
1445.4, -2.05e-09
1447.4, -8.9e-10
1449.4, -5.3e-09
1451.4, -3.46e-09
1453.5, -4.27e-09
1455.5, -3.75e-09
1457.5, -3.88e-09
1459.5, -6.97e-09
1461.5, -2.49e-09
1463.5, -2.19e-09
1465.5, -3.71e-09
1467.5, -4.09e-09
1469.5, -1.17e-09
1471.5, -3.1e-09
1473.5, -1.42e-09
1475.5, -5.66e-09
1477.5, -1.77e-09
1479.5, -7.24e-09
1481.5, -7.86e-09
1483.5, -6.96e-09
1485.5, -7.6e-10
1487.5, -5.94e-09
1489.5, -7.81e-09
1491.5, -4.73e-09
1493.5, -3.61e-09
1495.5, -3.51e-09
1497.5, -7.4e-09
1499.5, 1.15e-09
1501.5, -5.28e-09
1503.5, -6.72e-09
1505.5, -6.52e-09
1507.5, -4.08e-09
1509.5, -1.83e-09
1511.5, -6.92e-09
1513.5, -7.31e-09
1515.5, -1.004e-08
1517.5, -8.06e-09
1519.5, -1.056e-08
1521.5, -9.78e-09
1523.5, -1.299e-08
1525.5, -8.11e-09
1527.5, -9.86e-09
1529.5, -1.138e-08
1531.5, -9.44e-09
1533.5, -6.02e-09
1535.5, -5.26e-09
1537.5, -1.73e-09
1539.5, -2.9e-09
1541.5, -4.41e-09
1543.5, 5.6e-10
1545.5, -6.49e-09
1547.5, -6.98e-09
1549.5, -8.2e-09
1551.5, -3.57e-09
1553.6, -7.74e-09
1555.6, -9.72e-09
1557.6, -5.19e-09
1559.6, -9.04e-09
1561.6, -2.1e-09
1563.6, -9.27e-09
1565.6, -1.123e-08
1567.6, -6.83e-09
1569.6, -4.33e-09
1571.6, -8.71e-09
1573.6, -7.09e-09
1575.6, -4.2e-09
1577.6, -8.58e-09
1579.6, -6.81e-09
1581.6, -4.88e-09
1583.6, -5.18e-09
1585.6, -8.91e-09
1587.6, -1.186e-08
1589.6, -7.66e-09
1591.6, -4.78e-09
1593.6, -4.33e-09
1595.6, -7.75e-09
1597.6, -7.28e-09
1599.6, -6.57e-09
1601.6, -5.55e-09
1603.6, -1.191e-08
1605.6, -8.75e-09
1607.6, -4.7e-09
1609.6, -7.18e-09
1611.6, -1.418e-08
1613.6, -3.99e-09
1615.6, -6.31e-09
1617.6, -8.15e-09
1619.6, -6.78e-09
1621.6, -1.192e-08
1623.6, -1.039e-08
1625.6, -1.006e-08
1627.6, -4.6e-09
1629.6, -5.38e-09
1631.6, -6.22e-09
1633.6, -3.62e-09
1635.6, -9.65e-09
1637.6, -7.44e-09
1639.6, -4.08e-09
1641.6, -8.5e-09
1643.6, -6.13e-09
1645.6, -8.98e-09
1647.6, -1.062e-08
1649.6, -1.152e-08
1651.6, -1.217e-08
1653.7, -7.15e-09
1655.7, -1.221e-08
1657.7, -8.95e-09
1659.7, -1.139e-08
1661.7, -1.229e-08
1663.7, -8.74e-09
1665.7, -8.32e-09
1667.7, -1.214e-08
1669.7, -9.55e-09
1671.7, -1.256e-08
1673.7, -9.58e-09
1675.7, -7.74e-09
1677.7, -1.152e-08
1679.7, -8.29e-09
1681.7, -9.6e-09
1683.7, -1.205e-08
1685.7, -1.129e-08
1687.7, -8.15e-09
1689.7, -7.9e-09
1691.7, -1.32e-08
1693.7, -9.51e-09
1695.7, -1.149e-08
1697.7, -8.46e-09
1699.7, -1.472e-08
1701.7, -1.081e-08
1703.7, -9.27e-09
1705.7, -9.91e-09
1707.7, -1.532e-08
1709.7, -1.16e-08
1711.7, -9.9e-09
1713.7, -1.229e-08
1715.7, -1.115e-08
1717.7, -1.177e-08
1719.7, -1.321e-08
1721.7, -1.462e-08
1723.7, -1.059e-08
1725.7, -6.41e-09
1727.7, -1.125e-08
1729.7, -7.15e-09
1731.7, -1.199e-08
1733.7, -1.222e-08
1735.7, -8.54e-09
1737.7, -1.2e-08
1739.7, -1.199e-08
1741.7, -1.714e-08
1743.7, -8.73e-09
1745.7, -1.58e-08
1747.7, -1.031e-08
1749.7, -1.543e-08
1751.7, -1.531e-08
1753.8, -1.169e-08
1755.8, -1.126e-08
1757.8, -2.092e-08
1759.8, -1.009e-08
1761.8, -9.63e-09
1763.8, -1.143e-08
1765.8, -1.235e-08
1767.8, -1.311e-08
1769.8, -1.055e-08
1771.8, -8.74e-09
1773.8, -8.13e-09
1775.8, -6.9e-09
1777.8, -7.24e-09
1779.8, -1.075e-08
1781.8, -9.54e-09
1783.8, -1.14e-08
1785.8, -1.088e-08
1787.8, -1.133e-08
1789.8, -1.139e-08
1791.8, -1.466e-08
1793.8, -1.287e-08
1795.8, -1.051e-08
1797.8, -1.112e-08
1799.8, -9.28e-09
1801.8, -1.226e-08
1803.8, -7.75e-09
1805.8, -3.06e-09
1807.8, -9.19e-09
1809.8, -8.71e-09
1811.8, -1.084e-08
1813.8, -6.33e-09
1815.8, -6.95e-09
1817.8, -9.2e-10
1819.8, -3.26e-09
1821.8, -2.54e-09
1823.8, -5.47e-09
1825.8, -4.22e-09
1827.8, -6.16e-09
1829.8, -7.89e-09
1831.8, -9.99e-09
1833.8, -8.88e-09
1835.8, -4.7e-09
1837.8, -6.65e-09
1839.8, -1.143e-08
1841.8, -2.28e-09
1843.8, -5.38e-09
1845.8, -1.066e-08
1847.8, -6.33e-09
1849.8, -8.01e-09
1851.8, -1.436e-08
1853.9, -7.9e-09
1855.9, -1.41e-08
1857.9, -9.48e-09
1859.9, -6.5e-09
1861.9, -5.81e-09
1863.9, -7.02e-09
1865.9, -6.85e-09
1867.9, -7.87e-09
1869.9, -6.01e-09
1871.9, -6.36e-09
1873.9, -4.5e-10
1875.9, -5.53e-09
1877.9, -3.48e-09
1879.9, -9.39e-09
1881.9, -1.086e-08
1883.9, -9.34e-09
1885.9, -9.17e-09
1887.9, -7.98e-09
1889.9, -8.32e-09
1891.9, -8.55e-09
1893.9, -2.52e-09
1895.9, -3.36e-09
1897.9, -2.6e-10
1899.9, -3.12e-09
1901.9, -8.24e-09
1903.9, -6.42e-09
1905.9, -6.68e-09
1907.9, -8.34e-09
1909.9, -8.39e-09
1911.9, -7.09e-09
1913.9, -1.037e-08
1915.9, -5.91e-09
1917.9, -5.95e-09
1919.9, -8.18e-09
1921.9, -1.082e-08
1923.9, -9.16e-09
1925.9, -1.035e-08
1927.9, -7.36e-09
1929.9, -9.23e-09
1931.9, -4.25e-09
1933.9, -1.063e-08
1935.9, -4.49e-09
1937.9, -9.47e-09
1939.9, -1.216e-08
1941.9, -9.06e-09
1943.9, -4.82e-09
1945.9, -7.41e-09
1947.9, -8.92e-09
1949.9, -1.151e-08
1951.9, -7.99e-09
1954.0, -9.74e-09
1956.0, -1.114e-08
1958.0, -9.06e-09
1960.0, -8.54e-09
1962.0, -1.307e-08
1964.0, -1.177e-08
1966.0, -1.425e-08
1968.0, -1.359e-08
1970.0, -1.417e-08
1972.0, -1.264e-08
1974.0, -7.37e-09
1976.0, -1.252e-08
1978.0, -1.417e-08
1980.0, -1.134e-08
1982.0, -1.073e-08
1984.0, -9.03e-09
1986.0, -1.109e-08
1988.0, -1.432e-08
1990.0, -1.168e-08
1992.0, -1.489e-08
1994.0, -1.458e-08
1996.0, -1.394e-08
1998.0, -1.527e-08
2000.0, -1.105e-08
2002.0, -6.24e-09
2004.0, -1.155e-08
2006.0, -1.064e-08
2008.0, -1.101e-08
2010.0, -1.003e-08
2012.0, -1.144e-08
2014.0, -1.361e-08
2016.0, -9.41e-09
2018.0, -1.12e-08
2020.0, -1.081e-08
2022.0, -1.311e-08
2024.0, -1.226e-08
2026.0, -1.264e-08
2028.0, -8.65e-09
2030.0, -1.141e-08
2032.0, -6.88e-09
2034.0, -8.38e-09
2036.0, -1.034e-08
2038.0, -1.308e-08
2040.0, -1.153e-08
2042.0, -1.332e-08
2044.0, -1.329e-08
2046.0, -2.97e-09
2048.0, -5.24e-09
2050.0, -2.427e-08
2052.0, -3.522e-08
2054.1, -3.199e-08
2056.1, -3.059e-08
2058.1, -3.609e-08
2060.1, -3.332e-08
2062.1, -3.432e-08
2064.1, -3.148e-08
2066.1, -3.183e-08
2068.1, -3.509e-08
2070.1, -3.194e-08
2072.1, -3.27e-08
2074.1, -3.628e-08
2076.1, -3.346e-08
2078.1, -3.533e-08
2080.1, -3.316e-08
2082.1, -3.194e-08
2084.1, -3.485e-08
2086.1, -3.551e-08
2088.1, -3.733e-08
2090.1, -3.634e-08
2092.1, -3.173e-08
2094.1, -3.309e-08
2096.1, -3.39e-08
2098.1, -3.298e-08
2100.1, -3.475e-08
2102.1, -3.632e-08
2104.1, -3.131e-08
2106.1, -3.426e-08
2108.1, -3.389e-08
2110.1, -3.664e-08
2112.1, -3.524e-08
2114.1, -3.38e-08
2116.1, -3.639e-08
2118.1, -3.581e-08
2120.1, -3.8e-08
2122.1, -3.952e-08
2124.1, -4.022e-08
2126.1, -3.356e-08
2128.1, -3.7e-08
2130.1, -3.215e-08
2132.1, -3.301e-08
2134.1, -3.323e-08
2136.1, -3.202e-08
2138.1, -3.5e-08
2140.1, -3.515e-08
2142.1, -3.636e-08
2144.1, -3.299e-08
2146.1, -3.238e-08
2148.1, -3.449e-08
2150.1, -3.579e-08
2152.1, -3.429e-08
2154.2, -3.457e-08
2156.2, -3.525e-08
2158.2, -3.656e-08
2160.2, -3.516e-08
2162.2, -3.863e-08
2164.2, -3.553e-08
2166.2, -3.408e-08
2168.2, -3.252e-08
2170.2, -3.386e-08
2172.2, -3.178e-08
2174.2, -3.248e-08
2176.2, -2.675e-08
2178.2, -2.86e-08
2180.2, -3.444e-08
2182.2, -3.178e-08
2184.2, -2.95e-08
2186.2, -3.074e-08
2188.2, -3.249e-08
2190.2, -3.055e-08
2192.2, -3.231e-08
2194.2, -3.291e-08
2196.2, -3.042e-08
2198.2, -3.159e-08
2200.2, -3.144e-08
2202.2, -3.237e-08
2204.2, -3.242e-08
2206.2, -3.615e-08
2208.2, -3.21e-08
2210.2, -3.179e-08
2212.2, -3.393e-08
2214.2, -3.228e-08
2216.2, -3.369e-08
2218.2, -3.212e-08
2220.2, -3.401e-08
2222.2, -3.266e-08
2224.2, -3.684e-08
2226.2, -3.722e-08
2228.2, -3.821e-08
2230.2, -3.535e-08
2232.2, -3.322e-08
2234.2, -3.264e-08
2236.2, -3.39e-08
2238.2, -3.399e-08
2240.2, -3.418e-08
2242.2, -3.389e-08
2244.2, -3.234e-08
2246.2, -3.377e-08
2248.2, -3.499e-08
2250.2, -3.731e-08
2252.2, -3.649e-08
2254.3, -3.527e-08
2256.3, -3.562e-08
2258.3, -3.316e-08
2260.3, -3.2e-08
2262.3, -3.338e-08
2264.3, -3.141e-08
2266.3, -3.243e-08
2268.3, -2.906e-08
2270.3, -3.218e-08
2272.3, -3.092e-08
2274.3, -2.742e-08
2276.3, -2.56e-08
2278.3, -2.714e-08
2280.3, -2.623e-08
2282.3, -2.816e-08
2284.3, -2.834e-08
2286.3, -2.596e-08
2288.3, -2.813e-08
2290.3, -2.907e-08
2292.3, -2.836e-08
2294.3, -2.786e-08
2296.3, -2.883e-08
2298.3, -3.049e-08
2300.3, -3.044e-08
2302.3, -3.163e-08
2304.3, -2.975e-08
2306.3, -3.313e-08
2308.3, -2.996e-08
2310.3, -2.809e-08
2312.3, -2.832e-08
2314.3, -3.217e-08
2316.3, -2.952e-08
2318.3, -3.165e-08
2320.3, -3.103e-08
2322.3, -2.812e-08
2324.3, -3.085e-08
2326.3, -3.238e-08
2328.3, -3.255e-08
2330.3, -3.18e-08
2332.3, -3.381e-08
2334.3, -3.317e-08
2336.3, -3.338e-08
2338.3, -3.077e-08
2340.3, -3.433e-08
2342.3, -3.401e-08
2344.3, -3.393e-08
2346.3, -3.425e-08
2348.3, -3.637e-08
2350.3, -3.343e-08
2352.3, -3.648e-08
2354.4, -3.282e-08
2356.4, -3.493e-08
2358.4, -3.447e-08
2360.4, -3.317e-08
2362.4, -3.207e-08
2364.4, -3.29e-08
2366.4, -3.073e-08
2368.4, -3.057e-08
2370.4, -3.156e-08
2372.4, -3.125e-08
2374.4, -3.2e-08
2376.4, -3.084e-08
2378.4, -3.191e-08
2380.4, -2.87e-08
2382.4, -3.124e-08
2384.4, -3.499e-08
2386.4, -3.432e-08
2388.4, -3.293e-08
2390.4, -3.62e-08
2392.4, -3.533e-08
2394.4, -3.301e-08
2396.4, -3.009e-08
2398.4, -3.281e-08
2400.4, -3.45e-08
2402.4, -3.379e-08
2404.4, -3.217e-08
2406.4, -3.338e-08
2408.4, -3.319e-08
2410.4, -3.925e-08
2412.4, -3.756e-08
2414.4, -3.421e-08
2416.4, -3.505e-08
2418.4, -3.423e-08
2420.4, -3.464e-08
2422.4, -3.275e-08
2424.4, -3.093e-08
2426.4, -3.2e-08
2428.4, -3.055e-08
2430.4, -3.217e-08
2432.4, -3.383e-08
2434.4, -3.124e-08
2436.4, -3.102e-08
2438.4, -3.384e-08
2440.4, -3.448e-08
2442.4, -3.326e-08
2444.4, -3.324e-08
2446.4, -3.251e-08
2448.4, -2.942e-08
2450.4, -2.926e-08
2452.4, -3.001e-08
2454.5, -2.85e-08
2456.5, -3.049e-08
2458.5, -2.906e-08
2460.5, -3.218e-08
2462.5, -2.917e-08
2464.5, -2.746e-08
2466.5, -3.351e-08
2468.5, -3.477e-08
2470.5, -3.198e-08
2472.5, -2.907e-08
2474.5, -3.319e-08
2476.5, -2.743e-08
2478.5, -3.347e-08
2480.5, -3.338e-08
2482.5, -3.094e-08
2484.5, -3.257e-08
2486.5, -3.288e-08
2488.5, -3.658e-08
2490.5, -3.295e-08
2492.5, -2.988e-08
2494.5, -3.06e-08
2496.5, -3.101e-08
2498.5, -3.222e-08
2500.5, -3.4e-08
2502.5, -3.1e-08
2504.5, -3.288e-08
2506.5, -3.199e-08
2508.5, -3.238e-08
2510.5, -3.236e-08
2512.5, -3.479e-08
2514.5, -3.032e-08
2516.5, -3.672e-08
2518.5, -3.373e-08
2520.5, -2.867e-08
2522.5, -3.254e-08
2524.5, -3.203e-08
2526.5, -3.303e-08
2528.5, -3.155e-08
2530.5, -3.137e-08
2532.5, -3.302e-08
2534.5, -3.34e-08
2536.5, -3.258e-08
2538.5, -3.205e-08
2540.5, -3.374e-08
2542.5, -3.182e-08
2544.5, -2.86e-08
2546.5, -3.099e-08
2548.5, -3.221e-08
2550.5, -3.368e-08
2552.5, -3.524e-08
2554.6, -3.438e-08
2556.6, -3.562e-08
2558.6, -3.448e-08
2560.6, -3.599e-08
2562.6, -3.265e-08
2564.6, -3.37e-08
2566.6, -3.532e-08
2568.6, -3.226e-08
2570.6, -3.456e-08
2572.6, -3.513e-08
2574.6, -3.654e-08
2576.6, -3.401e-08
2578.6, -3.777e-08
2580.6, -3.444e-08
2582.6, -3.574e-08
2584.6, -3.339e-08
2586.6, -3.725e-08
2588.6, -3.839e-08
2590.6, -3.523e-08
2592.6, -3.814e-08
2594.6, -3.756e-08
2596.6, -3.671e-08
2598.6, -3.761e-08
2600.6, -3.619e-08
2602.6, -3.714e-08
2604.6, -3.549e-08
2606.6, -3.43e-08
2608.6, -3.672e-08
2610.6, -3.621e-08
2612.6, -3.857e-08
2614.6, -3.804e-08
2616.6, -3.302e-08
2618.6, -3.354e-08
2620.6, -3.482e-08
2622.6, -3.213e-08
2624.6, -3.616e-08
2626.6, -3.381e-08
2628.6, -3.344e-08
2630.6, -3.605e-08
2632.6, -3.132e-08
2634.6, -2.97e-08
2636.6, -3.155e-08
2638.6, -3.053e-08
2640.6, -3.113e-08
2642.6, -3.171e-08
2644.6, -3.2e-08
2646.6, -3.026e-08
2648.6, -3.517e-08
2650.6, -3.068e-08
2652.6, -3.261e-08
2654.7, -2.945e-08
2656.7, -3.215e-08
2658.7, -3.453e-08
2660.7, -3.061e-08
2662.7, -3.089e-08
2664.7, -3.087e-08
2666.7, -3.182e-08
2668.7, -3.125e-08
2670.7, -3.225e-08
2672.7, -3.353e-08
2674.7, -3.283e-08
2676.7, -3.302e-08
2678.7, -3.621e-08
2680.7, -3.687e-08
2682.7, -3.33e-08
2684.7, -3.508e-08
2686.7, -3.214e-08
2688.7, -2.981e-08
2690.7, -3.157e-08
2692.7, -2.846e-08
2694.7, -3.331e-08
2696.7, -3.532e-08
2698.7, -3.788e-08
2700.7, -3.525e-08
2702.7, -3.356e-08
2704.7, -2.982e-08
2706.7, -2.958e-08
2708.7, -3.121e-08
2710.7, -3.002e-08
2712.7, -3.02e-08
2714.7, -2.97e-08
2716.7, -3.26e-08
2718.7, -3.489e-08
2720.7, -3.137e-08
2722.7, -3.301e-08
2724.7, -3.703e-08
2726.7, -3.304e-08
2728.7, -3.18e-08
2730.7, -2.94e-08
2732.7, -3.216e-08
2734.7, -3.193e-08
2736.7, -2.955e-08
2738.7, -3.217e-08
2740.7, -3.016e-08
2742.7, -3.187e-08
2744.7, -3.306e-08
2746.7, -3.371e-08
2748.7, -3.762e-08
2750.7, -4.055e-08
2752.7, -3.637e-08
2754.8, -3.413e-08
2756.8, -3.646e-08
2758.8, -3.563e-08
2760.8, -3.385e-08
2762.8, -3.355e-08
2764.8, -3.181e-08
2766.8, -3.618e-08
2768.8, -3.346e-08
2770.8, -3.254e-08
2772.8, -3.381e-08
2774.8, -3.354e-08
2776.8, -3.388e-08
2778.8, -3.766e-08
2780.8, -3.466e-08
2782.8, -3.353e-08
2784.8, -3.05e-08
2786.8, -3.198e-08
2788.8, -3.237e-08
2790.8, -3.683e-08
2792.8, -3.524e-08
2794.8, -3.361e-08
2796.8, -3.375e-08
2798.8, -3.488e-08
2800.8, -3.122e-08
2802.8, -2.771e-08
2804.8, -3.207e-08
2806.8, -3.072e-08
2808.8, -2.988e-08
2810.8, -3.205e-08
2812.8, -3.061e-08
2814.8, -3.176e-08
2816.8, -2.995e-08
2818.8, -3.051e-08
2820.8, -3.276e-08
2822.8, -3.191e-08
2824.8, -3.335e-08
2826.8, -3.008e-08
2828.8, -3.102e-08
2830.8, -3.329e-08
2832.8, -2.924e-08
2834.8, -3.07e-08
2836.8, -3.214e-08
2838.8, -3.084e-08
2840.8, -3.498e-08
2842.8, -3.382e-08
2844.8, -3.434e-08
2846.8, -3.197e-08
2848.8, -3.056e-08
2850.8, -3.247e-08
2852.8, -3.311e-08
2854.9, -3.229e-08
2856.9, -3.194e-08
2858.9, -3.154e-08
2860.9, -3.179e-08
2862.9, -3.421e-08
2864.9, -3.319e-08
2866.9, -3.258e-08
2868.9, -3.781e-08
2870.9, -3.681e-08
2872.9, -3.671e-08
2874.9, -3.716e-08
2876.9, -3.483e-08
2878.9, -3.232e-08
2880.9, -3.504e-08
2882.9, -3.954e-08
2884.9, -3.35e-08
2886.9, -3.29e-08
2888.9, -3.363e-08
2890.9, -3.263e-08
2892.9, -3.199e-08
2894.9, -3.465e-08
2896.9, -3.299e-08
2898.9, -3.345e-08
2900.9, -2.984e-08
2902.9, -3.285e-08
2904.9, -3.172e-08
2906.9, -2.863e-08
2908.9, -3.468e-08
2910.9, -3.669e-08
2912.9, -3.532e-08
2914.9, -3.316e-08
2916.9, -3.457e-08
2918.9, -3.09e-08
2920.9, -3.238e-08
2922.9, -3.189e-08
2924.9, -3.282e-08
2926.9, -3.526e-08
2928.9, -2.99e-08
2930.9, -3.383e-08
2932.9, -3.498e-08
2934.9, -3.111e-08
2936.9, -3.32e-08
2938.9, -3.412e-08
2940.9, -3.59e-08
2942.9, -3.353e-08
2944.9, -3.692e-08
2946.9, -3.367e-08
2948.9, -3.47e-08
2950.9, -3.607e-08
2952.9, -3.527e-08
2955.0, -3.288e-08
2957.0, -3.36e-08
2959.0, -3.454e-08
2961.0, -3.416e-08
2963.0, -3.812e-08
2965.0, -3.348e-08
2967.0, -3.433e-08
2969.0, -3.732e-08
2971.0, -3.4e-08
2973.0, -3.435e-08
2975.0, -3.163e-08
2977.0, -3.527e-08
2979.0, -3.658e-08
2981.0, -3.907e-08
2983.0, -3.618e-08
2985.0, -3.487e-08
2987.0, -3.225e-08
2989.0, -3.443e-08
2991.0, -3.084e-08
2993.0, -3.438e-08
2995.0, -3.698e-08
2997.0, -3.491e-08
2999.0, -3.855e-08
3001.0, -3.542e-08
3003.0, -3.781e-08
3005.0, -3.185e-08
3007.0, -3.543e-08
3009.0, -2.947e-08
3011.0, -3.591e-08
3013.0, -3.306e-08
3015.0, -3.262e-08
3017.0, -3.199e-08
3019.0, -3.163e-08
3021.0, -3.156e-08
3023.0, -3.562e-08
3025.0, -3.221e-08
3027.0, -3.279e-08
3029.0, -3.199e-08
3031.0, -3.195e-08
3033.0, -3.247e-08
3035.0, -3.356e-08
3037.0, -3.068e-08
3039.0, -3.16e-08
3041.0, -2.984e-08
3043.0, -3.037e-08
3045.0, -3.052e-08
3047.0, -3.062e-08
3049.0, -3.354e-08
3051.0, -3.39e-08
3053.0, -3.187e-08
3055.1, -3.457e-08
3057.1, -3.056e-08
3059.1, -3.149e-08
3061.1, -3.501e-08
3063.1, -3.245e-08
3065.1, -3.079e-08
3067.1, -3.175e-08
3069.1, -2.91e-08
3071.1, -3.326e-08
3073.1, -3.111e-08
3075.1, -3.145e-08
3077.1, -3.059e-08
3079.1, -3.296e-08
3081.1, -2.952e-08
3083.1, -1.575e-08
3085.1, -1.845e-08
3087.1, -1.798e-08
3089.1, -1.625e-08
3091.1, -1.874e-08
3093.1, -2.026e-08
3095.1, -1.65e-08
3097.1, -1.773e-08
3099.1, -1.481e-08
3101.1, -1.544e-08
3103.1, -1.401e-08
3105.1, -8.51e-09
3107.1, -1.214e-08
3109.1, -1.258e-08
3111.1, -1.066e-08
3113.1, -1.123e-08
3115.1, -1.046e-08
3117.1, -1.113e-08
3119.1, -1.039e-08
3121.1, -1.003e-08
3123.1, -1.219e-08
3125.1, -1.381e-08
3127.1, -9.62e-09
3129.1, -1.053e-08
3131.1, -1.406e-08
3133.1, -1.47e-08
3135.1, -1.159e-08
3137.1, -1.156e-08
3139.1, -1.212e-08
3141.1, -1.3e-08
3143.1, -1.128e-08
3145.1, -6.97e-09
3147.1, -9.76e-09
3149.1, -8.72e-09
3151.1, -7.53e-09
3153.1, -1.157e-08
3155.2, -5.56e-09
3157.2, -9.07e-09
3159.2, -1.394e-08
3161.2, -1.351e-08
3163.2, -9.52e-09
3165.2, -1.287e-08
3167.2, -1.261e-08
3169.2, -1.115e-08
3171.2, -7.4e-09
3173.2, -1.207e-08
3175.2, -6.78e-09
3177.2, -5.47e-09
3179.2, -7.07e-09
3181.2, -8.25e-09
3183.2, -9.45e-09
3185.2, -8.3e-09
3187.2, -6.33e-09
3189.2, -1.009e-08
3191.2, -1.166e-08
3193.2, -7.18e-09
3195.2, -8.07e-09
3197.2, -8.53e-09
3199.2, -1.038e-08
3201.2, -1.002e-08
3203.2, -1.211e-08
3205.2, -6.03e-09
3207.2, -1.318e-08
3209.2, -8.43e-09
3211.2, -9.59e-09
3213.2, -9.89e-09
3215.2, -1.307e-08
3217.2, -5.06e-09
3219.2, -1.048e-08
3221.2, -5.08e-09
3223.2, -9.44e-09
3225.2, -9.84e-09
3227.2, -7.75e-09
3229.2, -1.062e-08
3231.2, -9.05e-09
3233.2, -1.023e-08
3235.2, -1.008e-08
3237.2, -8.73e-09
3239.2, -8.49e-09
3241.2, -7.83e-09
3243.2, -7.99e-09
3245.2, -9.02e-09
3247.2, -7.35e-09
3249.2, -5.14e-09
3251.2, -1.13e-08
3253.2, -7.83e-09
3255.3, -2.38e-09
3257.3, -7.06e-09
3259.3, -9.44e-09
3261.3, -9.11e-09
3263.3, -6.61e-09
3265.3, -5.1e-09
3267.3, -7.98e-09
3269.3, -6.83e-09
3271.3, -6.91e-09
3273.3, -4.88e-09
3275.3, -7.35e-09
3277.3, -9.3e-09
3279.3, -5.85e-09
3281.3, -8.07e-09
3283.3, -1.167e-08
3285.3, -1.421e-08
3287.3, -1.525e-08
3289.3, -5.39e-09
3291.3, -8.7e-09
3293.3, -1.005e-08
3295.3, -9.71e-09
3297.3, -1.197e-08
3299.3, -1.157e-08
3301.3, -1.133e-08
3303.3, -1.196e-08
3305.3, -1.321e-08
3307.3, -9.09e-09
3309.3, -8.71e-09
3311.3, -1.122e-08
3313.3, -1.123e-08
3315.3, -1.104e-08
3317.3, -1.554e-08
3319.3, -1.056e-08
3321.3, -1.031e-08
3323.3, -1.094e-08
3325.3, -1.154e-08
3327.3, -1.082e-08
3329.3, -8.42e-09
3331.3, -7.18e-09
3333.3, -1.145e-08
3335.3, -7.53e-09
3337.3, -9.09e-09
3339.3, -5.18e-09
3341.3, -1.291e-08
3343.3, -8.14e-09
3345.3, -6.79e-09
3347.3, -1.297e-08
3349.3, -1.102e-08
3351.3, -1.053e-08
3353.3, -8.34e-09
3355.4, -1.117e-08
3357.4, -1.138e-08
3359.4, -7.76e-09
3361.4, -8.13e-09
3363.4, -8e-09
3365.4, -1.164e-08
3367.4, -8.45e-09
3369.4, -9.46e-09
3371.4, -1.158e-08
3373.4, -1.49e-08
3375.4, -1.805e-08
3377.4, -1.467e-08
3379.4, -1.11e-08
3381.4, -1.196e-08
3383.4, -6.36e-09
3385.4, -1.056e-08
3387.4, -8.51e-09
3389.4, -1.359e-08
3391.4, -1.141e-08
3393.4, -1.325e-08
3395.4, -9.95e-09
3397.4, -9.29e-09
3399.4, -6.95e-09
3401.4, -9.02e-09
3403.4, -7.2e-09
3405.4, -1.109e-08
3407.4, -6.33e-09
3409.4, -7.9e-09
3411.4, -9.65e-09
3413.4, -1.393e-08
3415.4, -1.082e-08
3417.4, -1.225e-08
3419.4, -4.88e-09
3421.4, -1.45e-08
3423.4, -1.202e-08
3425.4, -7.79e-09
3427.4, -5.1e-09
3429.4, -1.115e-08
3431.4, -1.07e-08
3433.4, -1.009e-08
3435.4, -1.29e-08
3437.4, -1.126e-08
3439.4, -1.125e-08
3441.4, -1.316e-08
3443.4, -7.38e-09
3445.4, -1.199e-08
3447.4, -1.163e-08
3449.4, -1.115e-08
3451.4, -1.21e-08
3453.4, -1.276e-08
3455.5, -1.124e-08
3457.5, -8.04e-09
3459.5, -1.358e-08
3461.5, -1.212e-08
3463.5, -1.141e-08
3465.5, -1.494e-08
3467.5, -1.614e-08
3469.5, -1.461e-08
3471.5, -1.248e-08
3473.5, -1.409e-08
3475.5, -1.297e-08
3477.5, -1.564e-08
3479.5, -1.413e-08
3481.5, -1.445e-08
3483.5, -9.98e-09
3485.5, -1.15e-08
3487.5, -9.96e-09
3489.5, -1.419e-08
3491.5, -1.359e-08
3493.5, -1.215e-08
3495.5, -8.89e-09
3497.5, -9.47e-09
3499.5, -1.462e-08
3501.5, -1.228e-08
3503.5, -8.84e-09
3505.5, -1.213e-08
3507.5, -1.207e-08
3509.5, -1.053e-08
3511.5, -1.03e-08
3513.5, -1.254e-08
3515.5, -5.46e-09
3517.5, -7.4e-09
3519.5, -1.15e-08
3521.5, -1.101e-08
3523.5, -2.3e-09
3525.5, -9.28e-09
3527.5, -8.78e-09
3529.5, -9.22e-09
3531.5, -9.56e-09
3533.5, -1.103e-08
3535.5, -6.64e-09
3537.5, -8.1e-09
3539.5, -8.51e-09
3541.5, -8.33e-09
3543.5, -1.296e-08
3545.5, -7.67e-09
3547.5, -7.01e-09
3549.5, -7.84e-09
3551.5, -1.078e-08
3553.5, -1.132e-08
3555.6, -9.12e-09
3557.6, -1.061e-08
3559.6, -8.07e-09
3561.6, -7.99e-09
3563.6, -5.79e-09
3565.6, -8.57e-09
3567.6, -1.055e-08
3569.6, -1.311e-08
3571.6, -7.44e-09
3573.6, -1.399e-08
3575.6, -9.77e-09
3577.6, -8.18e-09
3579.6, -1.08e-08
3581.6, -1.16e-08
3583.6, -6.56e-09
3585.6, -5.78e-09
3587.6, -2.74e-09
3589.6, -8.72e-09
3591.6, -8.77e-09
3593.6, -1.001e-08
3595.6, -9.12e-09
3597.6, -5.74e-09
3599.6, -9.93e-09
3601.6, -9.79e-09
3603.6, -9.6e-09
3605.6, -1.006e-08
3607.6, -1.024e-08
3609.6, -8.71e-09
3611.6, -9.14e-09
3613.6, -9.13e-09
3615.6, -1.007e-08
3617.6, -9.23e-09
3619.6, -6.3e-09
3621.6, -8.95e-09
3623.6, -1.239e-08
3625.6, -1.355e-08
3627.6, -8.96e-09
3629.6, -1.251e-08
3631.6, -1.637e-08
3633.6, -1.374e-08
3635.6, -1.028e-08
3637.6, -9.56e-09
3639.6, -5.2e-09
3641.6, -8.98e-09
3643.6, -9.51e-09
3645.6, -1.048e-08
3647.6, -1.205e-08
3649.6, -1.369e-08
3651.6, -1.274e-08
3653.6, -9.03e-09
3655.7, -1.171e-08
3657.7, -7.17e-09
3659.7, -1.316e-08
3661.7, -1.107e-08
3663.7, -1.432e-08
3665.7, -1.198e-08
3667.7, -1.318e-08
3669.7, -8.45e-09
3671.7, -8.99e-09
3673.7, -9.88e-09
3675.7, -7.48e-09
3677.7, -1.441e-08
3679.7, -1.134e-08
3681.7, -1.508e-08
3683.7, -1.387e-08
3685.7, -1.24e-08
3687.7, -1.143e-08
3689.7, -7.58e-09
3691.7, -6.7e-09
3693.7, -6.54e-09
3695.7, -1.14e-08
3697.7, -8.07e-09
3699.7, -1.198e-08
3701.7, -1.217e-08
3703.7, -1.073e-08
3705.7, -8.46e-09
3707.7, -8.87e-09
3709.7, -5.08e-09
3711.7, -8.06e-09
3713.7, -7.11e-09
3715.7, -9.32e-09
3717.7, -9.52e-09
3719.7, -1.161e-08
3721.7, -8.14e-09
3723.7, -8.46e-09
3725.7, -9.9e-09
3727.7, -1.285e-08
3729.7, -1.073e-08
3731.7, -8.74e-09
3733.7, -9.77e-09
3735.7, -1.321e-08
3737.7, -8.71e-09
3739.7, -4.62e-09
3741.7, -1.435e-08
3743.7, -1.409e-08
3745.7, -1.035e-08
3747.7, -1.005e-08
3749.7, -1.294e-08
3751.7, -1.074e-08
3753.7, -7.91e-09
3755.8, -7.92e-09
3757.8, -1.059e-08
3759.8, -8.57e-09
3761.8, -5.9e-09
3763.8, -9.47e-09
3765.8, -6.99e-09
3767.8, -9.23e-09
3769.8, -1.041e-08
3771.8, -8.17e-09
3773.8, -8.07e-09
3775.8, -1.069e-08
3777.8, -6.77e-09
3779.8, -1.037e-08
3781.8, -5.94e-09
3783.8, -8.41e-09
3785.8, -7.66e-09
3787.8, -7.76e-09
3789.8, -1.342e-08
3791.8, -1.033e-08
3793.8, -9.88e-09
3795.8, -1.362e-08
3797.8, -9.47e-09
3799.8, -1.061e-08
3801.8, -1.203e-08
3803.8, -1.052e-08
3805.8, -1.265e-08
3807.8, -7.07e-09
3809.8, -9.18e-09
3811.8, -5.45e-09
3813.8, -6.9e-09
3815.8, -1.179e-08
3817.8, -1.092e-08
3819.8, -8.57e-09
3821.8, -1.269e-08
3823.8, -4.89e-09
3825.8, -7.67e-09
3827.8, -3.42e-09
3829.8, -9.25e-09
3831.8, -9.95e-09
3833.8, -8.62e-09
3835.8, -1.037e-08
3837.8, -1.332e-08
3839.8, -7.09e-09
3841.8, -1.426e-08
3843.8, -1.062e-08
3845.8, -1.157e-08
3847.8, -1.169e-08
3849.8, -1.056e-08
3851.8, -1.001e-08
3853.8, -6e-09
3855.9, -4.93e-09
3857.9, -9.53e-09
3859.9, -1.199e-08
3861.9, -7.9e-09
3863.9, -9.94e-09
3865.9, -5.82e-09
3867.9, -1.077e-08
3869.9, -5.84e-09
3871.9, -4.46e-09
3873.9, -1.061e-08
3875.9, -2e-09
3877.9, -7.91e-09
3879.9, -1.005e-08
3881.9, -8.76e-09
3883.9, -6.48e-09
3885.9, -7.39e-09
3887.9, -3.65e-09
3889.9, -1.368e-08
3891.9, -5.39e-09
3893.9, -8.07e-09
3895.9, -2.64e-09
3897.9, -6.83e-09
3899.9, -1.016e-08
3901.9, -2.76e-09
3903.9, -6.07e-09
3905.9, -6.22e-09
3907.9, -7.02e-09
3909.9, -1.14e-08
3911.9, -7.07e-09
3913.9, -1.205e-08
3915.9, -4.86e-09
3917.9, -1.002e-08
3919.9, -8.46e-09
3921.9, -3.66e-09
3923.9, -9.58e-09
3925.9, -1.169e-08
3927.9, -7.12e-09
3929.9, -9.64e-09
3931.9, -9.33e-09
3933.9, -6.18e-09
3935.9, -4.93e-09
3937.9, -9.79e-09
3939.9, -7.46e-09
3941.9, -1.005e-08
3943.9, -1.164e-08
3945.9, -6.59e-09
3947.9, -5.22e-09
3949.9, -7.87e-09
3951.9, -8.53e-09
3953.9, -9.24e-09
3956.0, -4.56e-09
3958.0, -5.74e-09
3960.0, -6.91e-09
3962.0, -7.4e-09
3964.0, -1.07e-08
3966.0, -7.48e-09
3968.0, -4.71e-09
3970.0, -6.54e-09
3972.0, -6.64e-09
3974.0, -8.39e-09
3976.0, -7.35e-09
3978.0, -1.027e-08
3980.0, -4.15e-09
3982.0, -4.71e-09
3984.0, -9.96e-09
3986.0, -9.98e-09
3988.0, -1.146e-08
3990.0, -1.219e-08
3992.0, -8.44e-09
3994.0, -2.42e-09
3996.0, -3.46e-09
3998.0, -9.76e-09
4000.0, -4.57e-09
4002.0, -9.82e-09
4004.0, -1.041e-08
4006.0, -8.47e-09
4008.0, -7.84e-09
4010.0, -7.62e-09
4012.0, -7.95e-09
4014.0, -7.74e-09
4016.0, -5.75e-09
4018.0, -4.92e-09
4020.0, -4.32e-09
4022.0, -7.43e-09
4024.0, -2.63e-09
4026.0, -4.83e-09
4028.0, -1.6e-09
4030.0, -6.87e-09
4032.0, -9.49e-09
4034.0, -6.6e-09
4036.0, -6.04e-09
4038.0, -1.17e-09
4040.0, 7e-10
4042.0, -4.18e-09
4044.0, -4.66e-09
4046.0, -3.1e-09
4048.0, -6.22e-09
4050.0, -7.24e-09
4052.0, -4.47e-09
4054.0, -5.82e-09
4056.1, -7.53e-09
4058.1, -3.61e-09
4060.1, -1.49e-09
4062.1, -4.72e-09
4064.1, -2.61e-09
4066.1, -3.3e-09
4068.1, -4.09e-09
4070.1, -5.98e-09
4072.1, -3.76e-09
4074.1, -7.78e-09
4076.1, -4.62e-09
4078.1, -4.81e-09
4080.1, -2.11e-09
4082.1, -1.415e-08
4084.1, -2.58e-08
4086.1, -2.655e-08
4088.1, -2.762e-08
4090.1, -2.296e-08
4092.1, -2.64e-08
4094.1, -2.773e-08
4096.1, -2.741e-08
4098.1, -2.86e-08
4100.1, -3.051e-08
4102.1, -3.021e-08
4104.1, -3.281e-08
4106.1, -2.904e-08
4108.1, -2.923e-08
4110.1, -3.115e-08
4112.1, -3.137e-08
4114.1, -2.858e-08
4116.1, -3.131e-08
4118.1, -3.39e-08
4120.1, -2.95e-08
4122.1, -3.303e-08
4124.1, -3.234e-08
4126.1, -3.171e-08
4128.1, -3.135e-08
4130.1, -3.309e-08
4132.1, -2.755e-08
4134.1, -3.235e-08
4136.1, -2.927e-08
4138.1, -2.99e-08
4140.1, -2.976e-08
4142.1, -2.681e-08
4144.1, -2.948e-08
4146.1, -2.724e-08
4148.1, -2.69e-08
4150.1, -2.809e-08
4152.1, -2.791e-08
4154.1, -2.807e-08
4156.2, -2.456e-08
4158.2, -2.851e-08
4160.2, -2.649e-08
4162.2, -2.842e-08
4164.2, -2.626e-08
4166.2, -2.674e-08
4168.2, -2.471e-08
4170.2, -2.679e-08
4172.2, -2.483e-08
4174.2, -2.865e-08
4176.2, -2.85e-08
4178.2, -2.613e-08
4180.2, -3.061e-08
4182.2, -3.148e-08
4184.2, -2.666e-08
4186.2, -2.723e-08
4188.2, -2.742e-08
4190.2, -2.581e-08
4192.2, -3.049e-08
4194.2, -3.336e-08
4196.2, -3.056e-08
4198.2, -3.087e-08
4200.2, -2.833e-08
4202.2, -3.242e-08
4204.2, -2.882e-08
4206.2, -2.83e-08
4208.2, -2.741e-08
4210.2, -3.013e-08
4212.2, -3.095e-08
4214.2, -3.241e-08
4216.2, -3.343e-08
4218.2, -3.039e-08
4220.2, -3.059e-08
4222.2, -3.257e-08
4224.2, -3.182e-08
4226.2, -3.27e-08
4228.2, -3.155e-08
4230.2, -3.136e-08
4232.2, -3.665e-08
4234.2, -3.033e-08
4236.2, -3.35e-08
4238.2, -2.96e-08
4240.2, -3.025e-08
4242.2, -3.375e-08
4244.2, -3.299e-08
4246.2, -3.552e-08
4248.2, -3.097e-08
4250.2, -3.238e-08
4252.2, -2.878e-08
4254.2, -3.041e-08
4256.3, -3.032e-08
4258.3, -2.956e-08
4260.3, -2.991e-08
4262.3, -2.98e-08
4264.3, -3.081e-08
4266.3, -2.953e-08
4268.3, -2.684e-08
4270.3, -2.914e-08
4272.3, -3.303e-08
4274.3, -3.281e-08
4276.3, -3.086e-08
4278.3, -3.195e-08
4280.3, -3.101e-08
4282.3, -3.162e-08
4284.3, -2.79e-08
4286.3, -2.687e-08
4288.3, -2.75e-08
4290.3, -2.819e-08
4292.3, -2.993e-08
4294.3, -2.935e-08
4296.3, -2.861e-08
4298.3, -2.326e-08
4300.3, -2.562e-08
4302.3, -2.949e-08
4304.3, -2.835e-08
4306.3, -2.556e-08
4308.3, -2.649e-08
4310.3, -2.697e-08
4312.3, -2.662e-08
4314.3, -2.599e-08
4316.3, -2.685e-08
4318.3, -2.482e-08
4320.3, -2.767e-08
4322.3, -2.887e-08
4324.3, -2.72e-08
4326.3, -2.72e-08
4328.3, -2.634e-08
4330.3, -3.024e-08
4332.3, -2.978e-08
4334.3, -3.052e-08
4336.3, -2.941e-08
4338.3, -2.554e-08
4340.3, -2.838e-08
4342.3, -2.65e-08
4344.3, -2.968e-08
4346.3, -2.705e-08
4348.3, -2.674e-08
4350.3, -2.884e-08
4352.3, -3.346e-08
4354.3, -3.292e-08
4356.4, -3.115e-08
4358.4, -3.131e-08
4360.4, -3.059e-08
4362.4, -3.045e-08
4364.4, -2.965e-08
4366.4, -3.311e-08
4368.4, -3.407e-08
4370.4, -2.837e-08
4372.4, -3.226e-08
4374.4, -3.043e-08
4376.4, -3.506e-08
4378.4, -3.069e-08
4380.4, -3.446e-08
4382.4, -3.183e-08
4384.4, -3.292e-08
4386.4, -3.013e-08
4388.4, -2.819e-08
4390.4, -2.787e-08
4392.4, -2.923e-08
4394.4, -3.562e-08
4396.4, -3.028e-08
4398.4, -2.718e-08
4400.4, -3.045e-08
4402.4, -3.081e-08
4404.4, -2.776e-08
4406.4, -3.249e-08
4408.4, -3.042e-08
4410.4, -3.432e-08
4412.4, -3.259e-08
4414.4, -3.374e-08
4416.4, -3.309e-08
4418.4, -3.682e-08
4420.4, -3.144e-08
4422.4, -3.548e-08
4424.4, -3.6e-08
4426.4, -3.368e-08
4428.4, -3.684e-08
4430.4, -3.094e-08
4432.4, -3.507e-08
4434.4, -3.291e-08
4436.4, -3.294e-08
4438.4, -3.328e-08
4440.4, -3.245e-08
4442.4, -3.5e-08
4444.4, -3.304e-08
4446.4, -3.222e-08
4448.4, -2.932e-08
4450.4, -3.086e-08
4452.4, -3.14e-08
4454.4, -3.205e-08
4456.5, -3.401e-08
4458.5, -3.206e-08
4460.5, -2.936e-08
4462.5, -3.017e-08
4464.5, -3.318e-08
4466.5, -3.263e-08
4468.5, -3.6e-08
4470.5, -3.404e-08
4472.5, -3.623e-08
4474.5, -3.726e-08
4476.5, -3.216e-08
4478.5, -3.285e-08
4480.5, -2.899e-08
4482.5, -3.32e-08
4484.5, -3.589e-08
4486.5, -3.136e-08
4488.5, -3.232e-08
4490.5, -3.349e-08
4492.5, -3.31e-08
4494.5, -3.49e-08
4496.5, -3.242e-08
4498.5, -3.106e-08
4500.5, -3.097e-08
4502.5, -3.473e-08
4504.5, -3.421e-08
4506.5, -3.306e-08
4508.5, -3.453e-08
4510.5, -3.453e-08
4512.5, -3.488e-08
4514.5, -3.287e-08
4516.5, -3.325e-08
4518.5, -3.425e-08
4520.5, -3.361e-08
4522.5, -3.566e-08
4524.5, -3.849e-08
4526.5, -3.486e-08
4528.5, -3.426e-08
4530.5, -3.656e-08
4532.5, -3.707e-08
4534.5, -3.617e-08
4536.5, -3.72e-08
4538.5, -3.507e-08
4540.5, -3.606e-08
4542.5, -3.801e-08
4544.5, -3.59e-08
4546.5, -3.48e-08
4548.5, -3.555e-08
4550.5, -3.634e-08
4552.5, -3.598e-08
4554.5, -3.593e-08
4556.6, -3.559e-08
4558.6, -3.047e-08
4560.6, -3.218e-08
4562.6, -3.481e-08
4564.6, -3.233e-08
4566.6, -3.345e-08
4568.6, -3.4e-08
4570.6, -3.483e-08
4572.6, -3.529e-08
4574.6, -3.424e-08
4576.6, -3.615e-08
4578.6, -3.377e-08
4580.6, -3.421e-08
4582.6, -3.779e-08
4584.6, -3.619e-08
4586.6, -3.47e-08
4588.6, -3.342e-08
4590.6, -3.603e-08
4592.6, -3.794e-08
4594.6, -3.656e-08
4596.6, -3.536e-08
4598.6, -3.636e-08
4600.6, -3.262e-08
4602.6, -3.488e-08
4604.6, -3.348e-08
4606.6, -3.33e-08
4608.6, -3.269e-08
4610.6, -3.194e-08
4612.6, -3.594e-08
4614.6, -3.446e-08
4616.6, -3.061e-08
4618.6, -3.076e-08
4620.6, -3.43e-08
4622.6, -3.362e-08
4624.6, -3.35e-08
4626.6, -3.304e-08
4628.6, -3.411e-08
4630.6, -3.361e-08
4632.6, -3.519e-08
4634.6, -3.214e-08
4636.6, -3.206e-08
4638.6, -2.924e-08
4640.6, -3.192e-08
4642.6, -3.4e-08
4644.6, -3.234e-08
4646.6, -3.103e-08
4648.6, -3.062e-08
4650.6, -3.075e-08
4652.6, -2.855e-08
4654.6, -3.005e-08
4656.7, -3.36e-08
4658.7, -3.034e-08
4660.7, -3.305e-08
4662.7, -3.158e-08
4664.7, -3.394e-08
4666.7, -3.544e-08
4668.7, -3.255e-08
4670.7, -3.129e-08
4672.7, -3.013e-08
4674.7, -3.23e-08
4676.7, -3.154e-08
4678.7, -3.101e-08
4680.7, -3.225e-08
4682.7, -3.437e-08
4684.7, -3.515e-08
4686.7, -3.548e-08
4688.7, -3.739e-08
4690.7, -3.64e-08
4692.7, -3.599e-08
4694.7, -3.423e-08
4696.7, -3.222e-08
4698.7, -3.726e-08
4700.7, -3.51e-08
4702.7, -3.611e-08
4704.7, -3.493e-08
4706.7, -3.227e-08
4708.7, -3.289e-08
4710.7, -3.663e-08
4712.7, -3.745e-08
4714.7, -3.574e-08
4716.7, -3.429e-08
4718.7, -3.418e-08
4720.7, -3.35e-08
4722.7, -3.386e-08
4724.7, -3.475e-08
4726.7, -3.253e-08
4728.7, -3.287e-08
4730.7, -3.131e-08
4732.7, -3.093e-08
4734.7, -3.407e-08
4736.7, -3.172e-08
4738.7, -2.733e-08
4740.7, -3.488e-08
4742.7, -3.034e-08
4744.7, -3.387e-08
4746.7, -3.41e-08
4748.7, -3.366e-08
4750.7, -3.013e-08
4752.7, -3.08e-08
4754.7, -3.403e-08
4756.8, -2.99e-08
4758.8, -2.953e-08
4760.8, -2.986e-08
4762.8, -3.311e-08
4764.8, -3.538e-08
4766.8, -3.54e-08
4768.8, -3.208e-08
4770.8, -3.125e-08
4772.8, -3.402e-08
4774.8, -3.267e-08
4776.8, -3.044e-08
4778.8, -2.772e-08
4780.8, -3.178e-08
4782.8, -2.905e-08
4784.8, -2.756e-08
4786.8, -3.302e-08
4788.8, -3.042e-08
4790.8, -2.745e-08
4792.8, -2.873e-08
4794.8, -2.972e-08
4796.8, -2.776e-08
4798.8, -2.614e-08
4800.8, -3.146e-08
4802.8, -3.201e-08
4804.8, -2.909e-08
4806.8, -2.949e-08
4808.8, -2.795e-08
4810.8, -3.198e-08
4812.8, -3.227e-08
4814.8, -3.489e-08
4816.8, -3.456e-08
4818.8, -3.444e-08
4820.8, -3.092e-08
4822.8, -3.534e-08
4824.8, -3.157e-08
4826.8, -2.876e-08
4828.8, -2.987e-08
4830.8, -2.803e-08
4832.8, -2.723e-08
4834.8, -2.708e-08
4836.8, -2.726e-08
4838.8, -2.848e-08
4840.8, -2.818e-08
4842.8, -2.711e-08
4844.8, -2.628e-08
4846.8, -2.799e-08
4848.8, -2.941e-08
4850.8, -2.683e-08
4852.8, -2.764e-08
4854.8, -2.739e-08
4856.9, -2.638e-08
4858.9, -2.563e-08
4860.9, -3.051e-08
4862.9, -2.945e-08
4864.9, -3.393e-08
4866.9, -2.764e-08
4868.9, -2.795e-08
4870.9, -2.797e-08
4872.9, -2.926e-08
4874.9, -2.958e-08
4876.9, -3.19e-08
4878.9, -2.861e-08
4880.9, -2.771e-08
4882.9, -2.745e-08
4884.9, -2.904e-08
4886.9, -2.882e-08
4888.9, -2.773e-08
4890.9, -2.982e-08
4892.9, -2.835e-08
4894.9, -2.761e-08
4896.9, -3.156e-08
4898.9, -2.823e-08
4900.9, -2.9e-08
4902.9, -2.309e-08
4904.9, -2.663e-08
4906.9, -2.309e-08
4908.9, -2.647e-08
4910.9, -2.889e-08
4912.9, -2.764e-08
4914.9, -2.465e-08
4916.9, -2.885e-08
4918.9, -2.719e-08
4920.9, -2.634e-08
4922.9, -3.218e-08
4924.9, -2.848e-08
4926.9, -2.85e-08
4928.9, -2.962e-08
4930.9, -2.975e-08
4932.9, -2.998e-08
4934.9, -2.638e-08
4936.9, -2.758e-08
4938.9, -3.236e-08
4940.9, -2.934e-08
4942.9, -2.899e-08
4944.9, -2.901e-08
4946.9, -2.899e-08
4948.9, -2.821e-08
4950.9, -2.822e-08
4952.9, -3.14e-08
4954.9, -2.844e-08
4957.0, -3.039e-08
4959.0, -2.962e-08
4961.0, -2.841e-08
4963.0, -2.824e-08
4965.0, -2.831e-08
4967.0, -2.319e-08
4969.0, -2.46e-08
4971.0, -2.539e-08
4973.0, -2.829e-08
4975.0, -2.839e-08
4977.0, -2.937e-08
4979.0, -2.401e-08
4981.0, -2.381e-08
4983.0, -2.588e-08
4985.0, -2.68e-08
4987.0, -2.17e-08
4989.0, -2.58e-08
4991.0, -2.725e-08
4993.0, -2.578e-08
4995.0, -2.951e-08
4997.0, -2.883e-08
4999.0, -2.875e-08
5001.0, -2.611e-08
5003.0, -2.725e-08
5005.0, -2.709e-08
5007.0, -2.769e-08
5009.0, -2.612e-08
5011.0, -2.8e-08
5013.0, -2.939e-08
5015.0, -3.021e-08
5017.0, -2.479e-08
5019.0, -3.049e-08
5021.0, -2.836e-08
5023.0, -2.864e-08
5025.0, -2.523e-08
5027.0, -2.857e-08
5029.0, -2.503e-08
5031.0, -2.806e-08
5033.0, -2.734e-08
5035.0, -2.959e-08
5037.0, -2.999e-08
5039.0, -2.864e-08
5041.0, -2.985e-08
5043.0, -3.022e-08
5045.0, -3.246e-08
5047.0, -2.794e-08
5049.0, -2.459e-08
5051.0, -3.072e-08
5053.0, -3.13e-08
5055.0, -2.82e-08
5057.1, -2.997e-08
5059.1, -2.784e-08
5061.1, -2.631e-08
5063.1, -2.644e-08
5065.1, -2.507e-08
5067.1, -2.8e-08
5069.1, -2.932e-08
5071.1, -3.033e-08
5073.1, -2.697e-08
5075.1, -2.939e-08
5077.1, -2.791e-08
5079.1, -2.862e-08
5081.1, -3.132e-08
5083.1, -2.939e-08
5085.1, -2.92e-08
5087.1, -3.075e-08
5089.1, -2.639e-08
5091.1, -3.067e-08
5093.1, -2.899e-08
5095.1, -2.969e-08
5097.1, -3.01e-08
5099.1, -2.809e-08
5101.1, -3.178e-08
5103.1, -2.993e-08
5105.1, -3.294e-08
5107.1, -3.018e-08
5109.1, -3.05e-08
5111.1, -3.051e-08
5113.1, -7.93e-09
5115.1, -8.08e-09
5117.1, -1.403e-08
5119.1, -7.34e-09
5121.1, -9.54e-09
5123.1, -1.222e-08
5125.1, -1.298e-08
5127.1, -1.252e-08
5129.1, -7.68e-09
5131.1, -8.69e-09
5133.1, -1.091e-08
5135.1, -9.97e-09
5137.1, -1.114e-08
5139.1, -8.73e-09
5141.1, -5.2e-09
5143.1, -6.49e-09
5145.1, -1.161e-08
5147.1, -1.347e-08
5149.1, -4.81e-09
5151.1, -1.405e-08
5153.1, -1.162e-08
5155.1, -1.128e-08
5157.2, -9.88e-09
5159.2, -1.084e-08
5161.2, -7.18e-09
5163.2, -8.76e-09
5165.2, -9.46e-09
5167.2, -1.32e-08
5169.2, -7.88e-09
5171.2, -1.193e-08
5173.2, -1.554e-08
5175.2, -1.412e-08
5177.2, -1.002e-08
5179.2, -8.23e-09
5181.2, -1.29e-08
5183.2, -1.127e-08
5185.2, -1.217e-08
5187.2, -1.329e-08
5189.2, -1.16e-08
5191.2, -1.212e-08
5193.2, -1.041e-08
5195.2, -9.28e-09
5197.2, -8.5e-09
5199.2, -1.336e-08
5201.2, -1.493e-08
5203.2, -1.258e-08
5205.2, -1.314e-08
5207.2, -1.828e-08
5209.2, -1.468e-08
5211.2, -1.222e-08
5213.2, -1.482e-08
5215.2, -1.31e-08
5217.2, -1.683e-08
5219.2, -1.541e-08
5221.2, -1.701e-08
5223.2, -1.52e-08
5225.2, -1.187e-08
5227.2, -1.096e-08
5229.2, -1.249e-08
5231.2, -8.24e-09
5233.2, -1.387e-08
5235.2, -8.77e-09
5237.2, -1.344e-08
5239.2, -1.485e-08
5241.2, -9.77e-09
5243.2, -1.268e-08
5245.2, -1.421e-08
5247.2, -1.005e-08
5249.2, -1.05e-08
5251.2, -1.267e-08
5253.2, -1.112e-08
5255.2, -1.238e-08
5257.3, -5.09e-09
5259.3, -1.099e-08
5261.3, -9.21e-09
5263.3, -1.196e-08
5265.3, -8.58e-09
5267.3, -1.256e-08
5269.3, -1.23e-08
5271.3, -8.15e-09
5273.3, -1.449e-08
5275.3, -9.37e-09
5277.3, -9.33e-09
5279.3, -1.584e-08
5281.3, -9.78e-09
5283.3, -1.076e-08
5285.3, -1.063e-08
5287.3, -9.95e-09
5289.3, -6.42e-09
5291.3, -1.257e-08
5293.3, -1.303e-08
5295.3, -1.327e-08
5297.3, -1.49e-08
5299.3, -1.145e-08
5301.3, -8.62e-09
5303.3, -1.043e-08
5305.3, -1.229e-08
5307.3, -8.16e-09
5309.3, -1.863e-08
5311.3, -1.848e-08
5313.3, -1.107e-08
5315.3, -1.313e-08
5317.3, -1.61e-08
5319.3, -8.51e-09
5321.3, -1.362e-08
5323.3, -1.301e-08
5325.3, -1.382e-08
5327.3, -1.42e-08
5329.3, -1.227e-08
5331.3, -1.387e-08
5333.3, -9.33e-09
5335.3, -1.276e-08
5337.3, -8.15e-09
5339.3, -8.4e-09
5341.3, -1.267e-08
5343.3, -1.163e-08
5345.3, -9.67e-09
5347.3, -1.442e-08
5349.3, -1.132e-08
5351.3, -7.97e-09
5353.3, -6.79e-09
5355.3, -8.72e-09
5357.4, -1.086e-08
5359.4, -8.03e-09
5361.4, -2.9e-09
5363.4, -4.86e-09
5365.4, -5.68e-09
5367.4, -7.5e-09
5369.4, -8.76e-09
5371.4, -9.3e-09
5373.4, -1.376e-08
5375.4, -9.88e-09
5377.4, -9.19e-09
5379.4, -3.86e-09
5381.4, -1.107e-08
5383.4, -1.126e-08
5385.4, -1.131e-08
5387.4, -1.152e-08
5389.4, -6.53e-09
5391.4, -1.192e-08
5393.4, -8.26e-09
5395.4, -1.292e-08
5397.4, -9.74e-09
5399.4, -1.154e-08
5401.4, -1.028e-08
5403.4, -5.45e-09
5405.4, -9.48e-09
5407.4, -6.81e-09
5409.4, -1.005e-08
5411.4, -3.25e-09
5413.4, -7.26e-09
5415.4, -1.112e-08
5417.4, -1.223e-08
5419.4, -5.27e-09
5421.4, -9.6e-09
5423.4, -1.472e-08
5425.4, -7.69e-09
5427.4, -8.14e-09
5429.4, -1.531e-08
5431.4, -1.273e-08
5433.4, -1.343e-08
5435.4, -6.5e-09
5437.4, -1.144e-08
5439.4, -1.023e-08
5441.4, -9.42e-09
5443.4, -1.123e-08
5445.4, -9.4e-09
5447.4, -1.054e-08
5449.4, -1.047e-08
5451.4, -6.96e-09
5453.4, -3.51e-09
5455.4, -3.67e-09
5457.5, -4.92e-09
5459.5, -1.006e-08
5461.5, -1.248e-08
5463.5, -1.157e-08
5465.5, -6.43e-09
5467.5, -9.42e-09
5469.5, -8.2e-09
5471.5, -7e-09
5473.5, -5.7e-09
5475.5, -8.16e-09
5477.5, -6.05e-09
5479.5, -6.53e-09
5481.5, -6.24e-09
5483.5, -8.52e-09
5485.5, -6.06e-09
5487.5, -7.75e-09
5489.5, -5.5e-09
5491.5, -6.7e-09
5493.5, -8.2e-09
5495.5, -8.56e-09
5497.5, -1.04e-08
5499.5, -4.44e-09
5501.5, -4.86e-09
5503.5, -1.507e-08
5505.5, -9.57e-09
5507.5, -1.054e-08
5509.5, -8.56e-09
5511.5, -8.91e-09
5513.5, -9.02e-09
5515.5, -1.118e-08
5517.5, -5.77e-09
5519.5, -5.26e-09
5521.5, -9.28e-09
5523.5, -2e-09
5525.5, -1.02e-08
5527.5, -8.16e-09
5529.5, -1.13e-08
5531.5, -6.34e-09
5533.5, -1.127e-08
5535.5, -4.97e-09
5537.5, -9.67e-09
5539.5, -1.272e-08
5541.5, -1.042e-08
5543.5, -1.061e-08
5545.5, -1.338e-08
5547.5, -9.4e-09
5549.5, -7.65e-09
5551.5, -8.26e-09
5553.5, -1.099e-08
5555.5, -1.415e-08
5557.6, -1.262e-08
5559.6, -1.055e-08
5561.6, -1.023e-08
5563.6, -1.321e-08
5565.6, -8.57e-09
5567.6, -1.363e-08
5569.6, -1.453e-08
5571.6, -1.079e-08
5573.6, -8.93e-09
5575.6, -1.186e-08
5577.6, -1.076e-08
5579.6, -1.162e-08
5581.6, -1.103e-08
5583.6, -1.115e-08
5585.6, -1.077e-08
5587.6, -1.496e-08
5589.6, -8.33e-09
5591.6, -8.23e-09
5593.6, -7.28e-09
5595.6, -7.7e-09
5597.6, -8.41e-09
5599.6, -6.04e-09
5601.6, -6.57e-09
5603.6, -3.38e-09
5605.6, -9.06e-09
5607.6, -1.347e-08
5609.6, -1.664e-08
5611.6, -7.44e-09
5613.6, -1.128e-08
5615.6, -1.509e-08
5617.6, -1.065e-08
5619.6, -1.002e-08
5621.6, -1.075e-08
5623.6, -9.91e-09
5625.6, -1.137e-08
5627.6, -8.78e-09
5629.6, -8.58e-09
5631.6, -1.459e-08
5633.6, -1.72e-08
5635.6, -8.31e-09
5637.6, -9.85e-09
5639.6, -8.02e-09
5641.6, -1.287e-08
5643.6, -7.49e-09
5645.6, -8.15e-09
5647.6, -7.3e-09
5649.6, -1.124e-08
5651.6, -8.21e-09
5653.6, -8.32e-09
5655.6, -1.044e-08
5657.7, -1.559e-08
5659.7, -1.135e-08
5661.7, -1.173e-08
5663.7, -1.052e-08
5665.7, -1.293e-08
5667.7, -1.108e-08
5669.7, -1.37e-08
5671.7, -9.86e-09
5673.7, -1.048e-08
5675.7, -1.121e-08
5677.7, -1.022e-08
5679.7, -9.72e-09
5681.7, -1.192e-08
5683.7, -1.27e-08
5685.7, -1.571e-08
5687.7, -7.61e-09
5689.7, -1.124e-08
5691.7, -8.27e-09
5693.7, -1.221e-08
5695.7, -1.143e-08
5697.7, -9.94e-09
5699.7, -9.57e-09
5701.7, -8.69e-09
5703.7, -1.023e-08
5705.7, -8.56e-09
5707.7, -6.67e-09
5709.7, -8.79e-09
5711.7, -9.36e-09
5713.7, -8.64e-09
5715.7, -1.343e-08
5717.7, -6.15e-09
5719.7, -1.189e-08
5721.7, -5.75e-09
5723.7, -6.7e-09
5725.7, -8.57e-09
5727.7, -6.91e-09
5729.7, -7.99e-09
5731.7, -8.18e-09
5733.7, -9.56e-09
5735.7, -7.74e-09
5737.7, -8.77e-09
5739.7, -1.561e-08
5741.7, -1.102e-08
5743.7, -1e-08
5745.7, -9.18e-09
5747.7, -1.227e-08
5749.7, -1.181e-08
5751.7, -7.34e-09
5753.7, -1.232e-08
5755.7, -8.19e-09
5757.8, -1.155e-08
5759.8, -8.79e-09
5761.8, -1.463e-08
5763.8, -1.16e-08
5765.8, -5.67e-09
5767.8, -1.275e-08
5769.8, -1.038e-08
5771.8, -1.236e-08
5773.8, -1.214e-08
5775.8, -1.595e-08
5777.8, -9.33e-09
5779.8, -1.311e-08
5781.8, -1.132e-08
5783.8, -7.31e-09
5785.8, -1.105e-08
5787.8, -7.2e-09
5789.8, -8.39e-09
5791.8, -8.15e-09
5793.8, -9e-09
5795.8, -9.79e-09
5797.8, -1.341e-08
5799.8, -1.239e-08
5801.8, -1.257e-08
5803.8, -1.046e-08
5805.8, -1.334e-08
5807.8, -1.31e-08
5809.8, -1.172e-08
5811.8, -7.63e-09
5813.8, -1.139e-08
5815.8, -1.196e-08
5817.8, -1.222e-08
5819.8, -9.39e-09
5821.8, -1.389e-08
5823.8, -1.092e-08
5825.8, -9.83e-09
5827.8, -1.147e-08
5829.8, -9.28e-09
5831.8, -8.55e-09
5833.8, -1.089e-08
5835.8, -1.141e-08
5837.8, -9.94e-09
5839.8, -1.325e-08
5841.8, -1.234e-08
5843.8, -1.261e-08
5845.8, -1.084e-08
5847.8, -5.83e-09
5849.8, -4.7e-09
5851.8, -1.474e-08
5853.8, -8.96e-09
5855.8, -1.109e-08
5857.9, -9.99e-09
5859.9, -1.278e-08
5861.9, -3.61e-09
5863.9, -9.27e-09
5865.9, -6.45e-09
5867.9, -9.45e-09
5869.9, -8.31e-09
5871.9, -1.385e-08
5873.9, -1.289e-08
5875.9, -1.202e-08
5877.9, -1.082e-08
5879.9, -8.03e-09
5881.9, -2.39e-09
5883.9, -4.55e-09
5885.9, -8.45e-09
5887.9, -8.09e-09
5889.9, -9.18e-09
5891.9, -7.2e-09
5893.9, -1.116e-08
5895.9, -1.022e-08
5897.9, -1.09e-08
5899.9, -7.49e-09
5901.9, -4.78e-09
5903.9, -2.36e-09
5905.9, -6.35e-09
5907.9, -6.05e-09
5909.9, -1.024e-08
5911.9, -8.38e-09
5913.9, -6.85e-09
5915.9, -9.31e-09
5917.9, -5.5e-09
5919.9, -4.22e-09
5921.9, -4.99e-09
5923.9, -4.92e-09
5925.9, -4.38e-09
5927.9, -5.73e-09
5929.9, -1.72e-09
5931.9, 9e-10
5933.9, -3.55e-09
5935.9, -8.32e-09
5937.9, -8.04e-09
5939.9, -6.45e-09
5941.9, -1.002e-08
5943.9, -1.191e-08
5945.9, -9.03e-09
5947.9, -6.94e-09
5949.9, -6.41e-09
5951.9, -9.8e-09
5953.9, -1.392e-08
5955.9, -1.417e-08
5958.0, -5.62e-09
5960.0, -7.21e-09
5962.0, -5.39e-09
5964.0, -1.234e-08
5966.0, -9.73e-09
5968.0, -1.154e-08
5970.0, -1.138e-08
5972.0, -8.13e-09
5974.0, -1.335e-08
5976.0, -1.159e-08
5978.0, -6.67e-09
5980.0, -9.55e-09
5982.0, -8.78e-09
5984.0, -1.003e-08
5986.0, -8.5e-09
5988.0, -6.91e-09
5990.0, -7.31e-09
5992.0, -1.052e-08
5994.0, -5.14e-09
5996.0, -9.27e-09
5998.0, -4.55e-09
6000.0, -5.24e-09
6002.0, -1.035e-08
6004.0, -6.48e-09
6006.0, -1.095e-08
6008.0, -3.59e-09
6010.0, -4.91e-09
6012.0, -1.158e-08
6014.0, -8.56e-09
6016.0, -7.3e-09
6018.0, -2.6e-09
6020.0, -7.84e-09
6022.0, -7.19e-09
6024.0, -8.42e-09
6026.0, -5.24e-09
6028.0, -6.15e-09
6030.0, -7.36e-09
6032.0, -9.94e-09
6034.0, -7.9e-09
6036.0, -5.58e-09
6038.0, -1.064e-08
6040.0, -1.042e-08
6042.0, -5.21e-09
6044.0, -1.04e-08
6046.0, -1.284e-08
6048.0, -1.205e-08
6050.0, -8.92e-09
6052.0, -6.97e-09
6054.0, -7.51e-09
6056.0, -6.21e-09
6058.1, -8.68e-09
6060.1, -3.47e-09
6062.1, -8.74e-09
6064.1, -6.62e-09
6066.1, -6.42e-09
6068.1, -9.16e-09
6070.1, -8.73e-09
6072.1, -8.9e-09
6074.1, -7.25e-09
6076.1, -2.22e-09
6078.1, -1.639e-08
6080.1, -1.099e-08
6082.1, -1.094e-08
6084.1, -5.26e-09
6086.1, -1.048e-08
6088.1, -9.79e-09
6090.1, -9.28e-09
6092.1, -7.01e-09
6094.1, -1.132e-08
6096.1, -7.36e-09
6098.1, -7.72e-09
6100.1, -4.81e-09
6102.1, -8.78e-09
6104.1, -6.4e-09
6106.1, -1.173e-08
6108.1, -9.01e-09
6110.1, -7.66e-09
6112.1, -1.273e-08
6114.1, -3.607e-08
6116.1, -4.107e-08
6118.1, -3.539e-08
6120.1, -3.076e-08
6122.1, -3.523e-08
6124.1, -3.643e-08
6126.1, -3.525e-08
6128.1, -3.491e-08
6130.1, -3.101e-08
6132.1, -3.376e-08
6134.1, -3.382e-08
6136.1, -3.627e-08
6138.1, -3.513e-08
6140.1, -3.57e-08
6142.1, -3.49e-08
6144.1, -3.243e-08
6146.1, -3.476e-08
6148.1, -3.176e-08
6150.1, -3.288e-08
6152.1, -3.225e-08
6154.1, -3.71e-08
6156.1, -3.618e-08
6158.2, -3.85e-08
6160.2, -3.642e-08
6162.2, -3.699e-08
6164.2, -3.513e-08
6166.2, -3.283e-08
6168.2, -3.474e-08
6170.2, -3.245e-08
6172.2, -3.252e-08
6174.2, -3.198e-08
6176.2, -3.194e-08
6178.2, -3.18e-08
6180.2, -3.069e-08
6182.2, -3.286e-08
6184.2, -3.209e-08
6186.2, -2.964e-08
6188.2, -3.146e-08
6190.2, -3.198e-08
6192.2, -3.19e-08
6194.2, -2.98e-08
6196.2, -3.213e-08
6198.2, -3.159e-08
6200.2, -3.4e-08
6202.2, -3.292e-08
6204.2, -3.236e-08
6206.2, -3.147e-08
6208.2, -3.201e-08
6210.2, -3.047e-08
6212.2, -2.76e-08
6214.2, -2.716e-08
6216.2, -3.063e-08
6218.2, -3.317e-08
6220.2, -3.372e-08
6222.2, -3.667e-08
6224.2, -3.413e-08
6226.2, -3.784e-08
6228.2, -3.548e-08
6230.2, -3.73e-08
6232.2, -3.419e-08
6234.2, -3.344e-08
6236.2, -3.405e-08
6238.2, -3.302e-08
6240.2, -3.303e-08
6242.2, -3.36e-08
6244.2, -3.413e-08
6246.2, -3.604e-08
6248.2, -3.363e-08
6250.2, -3.087e-08
6252.2, -3.497e-08
6254.2, -3.031e-08
6256.2, -3.268e-08
6258.3, -3.338e-08
6260.3, -3.421e-08
6262.3, -3.027e-08
6264.3, -3.176e-08
6266.3, -3.354e-08
6268.3, -3.243e-08
6270.3, -3.136e-08
6272.3, -3.278e-08
6274.3, -3.209e-08
6276.3, -3.204e-08
6278.3, -3.193e-08
6280.3, -3.276e-08
6282.3, -3.462e-08
6284.3, -3.418e-08
6286.3, -3.139e-08
6288.3, -3.086e-08
6290.3, -2.691e-08
6292.3, -3.189e-08
6294.3, -3.087e-08
6296.3, -3.292e-08
6298.3, -3.557e-08
6300.3, -3.339e-08
6302.3, -3.359e-08
6304.3, -3.162e-08
6306.3, -2.994e-08
6308.3, -3.12e-08
6310.3, -3.102e-08
6312.3, -2.998e-08
6314.3, -3.188e-08
6316.3, -3.601e-08
6318.3, -3.423e-08
6320.3, -3.227e-08
6322.3, -3.352e-08
6324.3, -3.206e-08
6326.3, -2.983e-08
6328.3, -3.616e-08
6330.3, -3.325e-08
6332.3, -3.414e-08
6334.3, -3.39e-08
6336.3, -3.54e-08
6338.3, -3.187e-08
6340.3, -3.162e-08
6342.3, -3.421e-08
6344.3, -3.085e-08
6346.3, -3.167e-08
6348.3, -3.569e-08
6350.3, -3.329e-08
6352.3, -3.525e-08
6354.3, -3.186e-08
6356.3, -2.998e-08
6358.4, -3.298e-08
6360.4, -3.107e-08
6362.4, -3.113e-08
6364.4, -3.218e-08
6366.4, -3.379e-08
6368.4, -3.113e-08
6370.4, -3.402e-08
6372.4, -3.672e-08
6374.4, -3.359e-08
6376.4, -3.753e-08
6378.4, -3.394e-08
6380.4, -3.165e-08
6382.4, -3.355e-08
6384.4, -3.193e-08
6386.4, -3.21e-08
6388.4, -3.31e-08
6390.4, -3.446e-08
6392.4, -3.396e-08
6394.4, -3.514e-08
6396.4, -3.595e-08
6398.4, -3.568e-08
6400.4, -3.488e-08
6402.4, -3.578e-08
6404.4, -3.552e-08
6406.4, -3.438e-08
6408.4, -3.663e-08
6410.4, -3.304e-08
6412.4, -3.111e-08
6414.4, -3.402e-08
6416.4, -3.789e-08
6418.4, -3.753e-08
6420.4, -3.345e-08
6422.4, -3.539e-08
6424.4, -3.488e-08
6426.4, -3.829e-08
6428.4, -3.163e-08
6430.4, -3.448e-08
6432.4, -3.338e-08
6434.4, -3.204e-08
6436.4, -3.175e-08
6438.4, -3.479e-08
6440.4, -3.178e-08
6442.4, -3.23e-08
6444.4, -3.44e-08
6446.4, -3.15e-08
6448.4, -3.527e-08
6450.4, -3.157e-08
6452.4, -3.649e-08
6454.4, -3.633e-08
6456.4, -3.534e-08
6458.5, -3.333e-08
6460.5, -3.245e-08
6462.5, -3.552e-08
6464.5, -3.47e-08
6466.5, -3.383e-08
6468.5, -3.472e-08
6470.5, -3.027e-08
6472.5, -3.127e-08
6474.5, -2.866e-08
6476.5, -3.14e-08
6478.5, -3.268e-08
6480.5, -3.08e-08
6482.5, -3.143e-08
6484.5, -3.378e-08
6486.5, -3.302e-08
6488.5, -3.226e-08
6490.5, -3.346e-08
6492.5, -3.313e-08
6494.5, -3.341e-08
6496.5, -3.115e-08
6498.5, -3.1e-08
6500.5, -3.202e-08
6502.5, -3.015e-08
6504.5, -3.288e-08
6506.5, -3.458e-08
6508.5, -3.111e-08
6510.5, -2.939e-08
6512.5, -2.901e-08
6514.5, -3.381e-08
6516.5, -3.368e-08
6518.5, -3.341e-08
6520.5, -3.328e-08
6522.5, -3.221e-08
6524.5, -3.491e-08
6526.5, -3.435e-08
6528.5, -3.46e-08
6530.5, -3.37e-08
6532.5, -3.631e-08
6534.5, -3.646e-08
6536.5, -3.498e-08
6538.5, -3.635e-08
6540.5, -3.365e-08
6542.5, -3.251e-08
6544.5, -3.238e-08
6546.5, -2.878e-08
6548.5, -3.292e-08
6550.5, -3.124e-08
6552.5, -3.65e-08
6554.5, -3.191e-08
6556.5, -3.483e-08
6558.6, -2.887e-08
6560.6, -3.148e-08
6562.6, -3.491e-08
6564.6, -3.516e-08
6566.6, -3.424e-08
6568.6, -3.418e-08
6570.6, -3.374e-08
6572.6, -3.517e-08
6574.6, -3.009e-08
6576.6, -3.107e-08
6578.6, -3.007e-08
6580.6, -3.166e-08
6582.6, -3.155e-08
6584.6, -3.101e-08
6586.6, -3.189e-08
6588.6, -3.244e-08
6590.6, -3.23e-08
6592.6, -3.756e-08
6594.6, -3.456e-08
6596.6, -3.513e-08
6598.6, -3.326e-08
6600.6, -3.053e-08
6602.6, -3.058e-08
6604.6, -3.164e-08
6606.6, -3.149e-08
6608.6, -2.956e-08
6610.6, -3.263e-08
6612.6, -2.977e-08
6614.6, -3.377e-08
6616.6, -3.318e-08
6618.6, -3.098e-08
6620.6, -3.402e-08
6622.6, -3.227e-08
6624.6, -3.407e-08
6626.6, -3.442e-08
6628.6, -3.293e-08
6630.6, -3.397e-08
6632.6, -3.748e-08
6634.6, -3.098e-08
6636.6, -3.7e-08
6638.6, -3.232e-08
6640.6, -3.429e-08
6642.6, -3.079e-08
6644.6, -3.261e-08
6646.6, -3.199e-08
6648.6, -3.212e-08
6650.6, -3.133e-08
6652.6, -3.559e-08
6654.6, -3.645e-08
6656.6, -3.419e-08
6658.7, -3.443e-08
6660.7, -3.443e-08
6662.7, -3.253e-08
6664.7, -3.508e-08
6666.7, -3.28e-08
6668.7, -3.321e-08
6670.7, -3.47e-08
6672.7, -3.179e-08
6674.7, -3.072e-08
6676.7, -3.104e-08
6678.7, -3.308e-08
6680.7, -3.407e-08
6682.7, -3.306e-08
6684.7, -3.384e-08
6686.7, -3.2e-08
6688.7, -3.217e-08
6690.7, -3.423e-08
6692.7, -3.66e-08
6694.7, -3.713e-08
6696.7, -3.535e-08
6698.7, -3.472e-08
6700.7, -3.561e-08
6702.7, -3.535e-08
6704.7, -3.744e-08
6706.7, -3.356e-08
6708.7, -3.279e-08
6710.7, -3.217e-08
6712.7, -3.083e-08
6714.7, -3.27e-08
6716.7, -3.501e-08
6718.7, -3.446e-08
6720.7, -3.52e-08
6722.7, -3.246e-08
6724.7, -3.497e-08
6726.7, -3.464e-08
6728.7, -3.517e-08
6730.7, -3.676e-08
6732.7, -3.12e-08
6734.7, -3.253e-08
6736.7, -3.248e-08
6738.7, -3.169e-08
6740.7, -2.99e-08
6742.7, -3.088e-08
6744.7, -3.173e-08
6746.7, -3.281e-08
6748.7, -2.875e-08
6750.7, -2.657e-08
6752.7, -3.193e-08
6754.7, -3.239e-08
6756.7, -3.535e-08
6758.8, -3.371e-08
6760.8, -3.225e-08
6762.8, -3.193e-08
6764.8, -3.675e-08
6766.8, -3.315e-08
6768.8, -3.164e-08
6770.8, -3.198e-08
6772.8, -3.101e-08
6774.8, -2.628e-08
6776.8, -3.143e-08
6778.8, -3.326e-08
6780.8, -3.092e-08
6782.8, -3.398e-08
6784.8, -2.946e-08
6786.8, -3.677e-08
6788.8, -3.513e-08
6790.8, -3.333e-08
6792.8, -3.094e-08
6794.8, -3e-08
6796.8, -3.167e-08
6798.8, -3.129e-08
6800.8, -3.009e-08
6802.8, -3.197e-08
6804.8, -3.351e-08
6806.8, -3.341e-08
6808.8, -3.221e-08
6810.8, -3.692e-08
6812.8, -3.585e-08
6814.8, -3.733e-08
6816.8, -3.298e-08
6818.8, -3.594e-08
6820.8, -3.35e-08
6822.8, -3.216e-08
6824.8, -3.222e-08
6826.8, -3.631e-08
6828.8, -3.557e-08
6830.8, -3.619e-08
6832.8, -3.245e-08
6834.8, -3.102e-08
6836.8, -3.251e-08
6838.8, -3.303e-08
6840.8, -3.535e-08
6842.8, -3.568e-08
6844.8, -3.489e-08
6846.8, -3.873e-08
6848.8, -3.592e-08
6850.8, -3.652e-08
6852.8, -3.582e-08
6854.8, -3.672e-08
6856.8, -3.683e-08
6858.9, -3.388e-08
6860.9, -3.356e-08
6862.9, -3.105e-08
6864.9, -3.113e-08
6866.9, -2.939e-08
6868.9, -3.161e-08
6870.9, -3.493e-08
6872.9, -3.38e-08
6874.9, -3.598e-08
6876.9, -3.217e-08
6878.9, -3.361e-08
6880.9, -3.614e-08
6882.9, -3.251e-08
6884.9, -3.348e-08
6886.9, -3.387e-08
6888.9, -3.669e-08
6890.9, -3.622e-08
6892.9, -3.964e-08
6894.9, -3.542e-08
6896.9, -3.576e-08
6898.9, -3.722e-08
6900.9, -4.103e-08
6902.9, -3.956e-08
6904.9, -3.709e-08
6906.9, -3.83e-08
6908.9, -3.762e-08
6910.9, -3.434e-08
6912.9, -3.645e-08
6914.9, -3.433e-08
6916.9, -3.878e-08
6918.9, -3.654e-08
6920.9, -3.578e-08
6922.9, -3.431e-08
6924.9, -3.341e-08
6926.9, -3.653e-08
6928.9, -3.54e-08
6930.9, -3.246e-08
6932.9, -3.479e-08
6934.9, -3.63e-08
6936.9, -3.426e-08
6938.9, -3.748e-08
6940.9, -3.517e-08
6942.9, -3.42e-08
6944.9, -3.325e-08
6946.9, -3.308e-08
6948.9, -3.069e-08
6950.9, -3.298e-08
6952.9, -3.152e-08
6954.9, -3.199e-08
6956.9, -3.379e-08
6959.0, -3.171e-08
6961.0, -3.138e-08
6963.0, -2.842e-08
6965.0, -3.256e-08
6967.0, -3.138e-08
6969.0, -3.205e-08
6971.0, -3.348e-08
6973.0, -3.088e-08
6975.0, -3.348e-08
6977.0, -3.357e-08
6979.0, -3.29e-08
6981.0, -2.954e-08
6983.0, -3.151e-08
6985.0, -3.29e-08
6987.0, -3.244e-08
6989.0, -3.34e-08
6991.0, -3.333e-08
6993.0, -3.244e-08
6995.0, -3.3e-08
6997.0, -3.064e-08
6999.0, -2.945e-08
7001.0, -3.11e-08
7003.0, -2.721e-08
7005.0, -3.234e-08
7007.0, -2.833e-08
7009.0, -2.958e-08
7011.0, -2.924e-08
7013.0, -3.05e-08
7015.0, -2.928e-08
7017.0, -2.948e-08
7019.0, -3.503e-08
7021.0, -2.888e-08
7023.0, -3.458e-08
7025.0, -3.353e-08
7027.0, -3.404e-08
7029.0, -3.35e-08
7031.0, -3.544e-08
7033.0, -3.374e-08
7035.0, -3.315e-08
7037.0, -3.298e-08
7039.0, -3.131e-08
7041.0, -3.121e-08
7043.0, -3.202e-08
7045.0, -3.084e-08
7047.0, -3.132e-08
7049.0, -3.038e-08
7051.0, -3.102e-08
7053.0, -3.168e-08
7055.0, -3.308e-08
7057.0, -2.793e-08
7059.1, -3.44e-08
7061.1, -3.356e-08
7063.1, -3.583e-08
7065.1, -3.383e-08
7067.1, -3.701e-08
7069.1, -3.841e-08
7071.1, -3.125e-08
7073.1, -3.276e-08
7075.1, -3.293e-08
7077.1, -3.429e-08
7079.1, -3.302e-08
7081.1, -3.504e-08
7083.1, -3.546e-08
7085.1, -3.068e-08
7087.1, -3.22e-08
7089.1, -3.046e-08
7091.1, -3.143e-08
7093.1, -3.206e-08
7095.1, -3.228e-08
7097.1, -3.327e-08
7099.1, -3.506e-08
7101.1, -3.344e-08
7103.1, -3.463e-08
7105.1, -2.925e-08
7107.1, -3.14e-08
7109.1, -3.097e-08
7111.1, -3.815e-08
7113.1, -2.86e-08
7115.1, -3.137e-08
7117.1, -3.581e-08
7119.1, -2.984e-08
7121.1, -3.415e-08
7123.1, -3.118e-08
7125.1, -3.289e-08
7127.1, -3.351e-08
7129.1, -3.856e-08
7131.1, -3.539e-08
7133.1, -3.256e-08
7135.1, -3.329e-08
7137.1, -3.344e-08
7139.1, -3.339e-08
7141.1, -3.236e-08
7143.1, -1.826e-08
7145.1, -1.484e-08
7147.1, -1.372e-08
7149.1, -1.437e-08
7151.1, -1.215e-08
7153.1, -1.388e-08
7155.1, -1.295e-08
7157.1, -1.679e-08
7159.2, -9.75e-09
7161.2, -1.234e-08
7163.2, -9.13e-09
7165.2, -6.16e-09
7167.2, -1.246e-08
7169.2, -1.264e-08
7171.2, -1.617e-08
7173.2, -1.475e-08
7175.2, -1.638e-08
7177.2, -1.193e-08
7179.2, -1.609e-08
7181.2, -1.389e-08
7183.2, -1.522e-08
7185.2, -1.127e-08
7187.2, -1.415e-08
7189.2, -1.299e-08
7191.2, -1.495e-08
7193.2, -1.687e-08
7195.2, -1.85e-08
7197.2, -1.426e-08
7199.2, -1.666e-08
7201.2, -1.29e-08
7203.2, -1.191e-08
7205.2, -1.166e-08
7207.2, -1.18e-08
7209.2, -1.631e-08
7211.2, -1.762e-08
7213.2, -1.22e-08
7215.2, -8.54e-09
7217.2, -8.34e-09
7219.2, -1.189e-08
7221.2, -1.224e-08
7223.2, -1.612e-08
7225.2, -1.2e-08
7227.2, -1.838e-08
7229.2, -1.204e-08
7231.2, -9.16e-09
7233.2, -8.19e-09
7235.2, -1.149e-08
7237.2, -1.229e-08
7239.2, -8.31e-09
7241.2, -9.08e-09
7243.2, -1.115e-08
7245.2, -1.116e-08
7247.2, -1.363e-08
7249.2, -6.9e-09
7251.2, -7.48e-09
7253.2, -1.157e-08
7255.2, -7.75e-09
7257.2, -1.324e-08
7259.3, -5.96e-09
7261.3, -8.86e-09
7263.3, -1.094e-08
7265.3, -1.166e-08
7267.3, -1.265e-08
7269.3, -1.43e-08
7271.3, -1.458e-08
7273.3, -6.95e-09
7275.3, -8.07e-09
7277.3, -3.69e-09
7279.3, -8.07e-09
7281.3, -1.075e-08
7283.3, -1.151e-08
7285.3, -1.325e-08
7287.3, -5.74e-09
7289.3, -4.19e-09
7291.3, -1.205e-08
7293.3, -8.83e-09
7295.3, -8.26e-09
7297.3, -8.71e-09
7299.3, -1.152e-08
7301.3, -1.124e-08
7303.3, -1.265e-08
7305.3, -1.059e-08
7307.3, -1.323e-08
7309.3, -1.328e-08
7311.3, -1.196e-08
7313.3, -1.243e-08
7315.3, -1.045e-08
7317.3, -1.333e-08
7319.3, -1.174e-08
7321.3, -1.035e-08
7323.3, -1.466e-08
7325.3, -8.77e-09
7327.3, -1.15e-08
7329.3, -1.717e-08
7331.3, -1.251e-08
7333.3, -1.619e-08
7335.3, -1.137e-08
7337.3, -1.069e-08
7339.3, -1.274e-08
7341.3, -1.079e-08
7343.3, -1.081e-08
7345.3, -1.204e-08
7347.3, -1.188e-08
7349.3, -1.133e-08
7351.3, -6.14e-09
7353.3, -1.221e-08
7355.3, -1.26e-08
7357.3, -1.389e-08
7359.4, -9.52e-09
7361.4, -6.67e-09
7363.4, -8.11e-09
7365.4, -9.92e-09
7367.4, -5.29e-09
7369.4, -7.34e-09
7371.4, -1.413e-08
7373.4, -1.478e-08
7375.4, -1.071e-08
7377.4, -8.83e-09
7379.4, -6.78e-09
7381.4, -7.77e-09
7383.4, -9.02e-09
7385.4, -1.155e-08
7387.4, -8.22e-09
7389.4, -1.379e-08
7391.4, -1.496e-08
7393.4, -1.147e-08
7395.4, -1.107e-08
7397.4, -1.042e-08
7399.4, -9.63e-09
7401.4, -9.43e-09
7403.4, -1.28e-08
7405.4, -6.12e-09
7407.4, -9.54e-09
7409.4, -1.104e-08
7411.4, -1.021e-08
7413.4, -1.002e-08
7415.4, -9.23e-09
7417.4, -1.368e-08
7419.4, -9.23e-09
7421.4, -1.157e-08
7423.4, -9.02e-09
7425.4, -1.272e-08
7427.4, -1.355e-08
7429.4, -8.16e-09
7431.4, -1.308e-08
7433.4, -1.02e-08
7435.4, -1.244e-08
7437.4, -1.208e-08
7439.4, -8.95e-09
7441.4, -1.118e-08
7443.4, -8.4e-09
7445.4, -8.2e-09
7447.4, -1.624e-08
7449.4, -1.382e-08
7451.4, -1.359e-08
7453.4, -1.242e-08
7455.4, -7.75e-09
7457.4, -1.177e-08
7459.5, -1.382e-08
7461.5, -8.59e-09
7463.5, -1.494e-08
7465.5, -5.46e-09
7467.5, -1.033e-08
7469.5, -4.18e-09
7471.5, -4.28e-09
7473.5, -9.86e-09
7475.5, -8.79e-09
7477.5, -1.287e-08
7479.5, -9.16e-09
7481.5, -9.41e-09
7483.5, -1.116e-08
7485.5, -1.387e-08
7487.5, -1.185e-08
7489.5, -8.46e-09
7491.5, -1.082e-08
7493.5, -8.54e-09
7495.5, -6.02e-09
7497.5, -9.71e-09
7499.5, -7.93e-09
7501.5, -8.47e-09
7503.5, -6.2e-09
7505.5, -1.194e-08
7507.5, -1.451e-08
7509.5, -8.21e-09
7511.5, -6.88e-09
7513.5, -8.84e-09
7515.5, -8.38e-09
7517.5, -1.089e-08
7519.5, -8.99e-09
7521.5, -1.275e-08
7523.5, -4.75e-09
7525.5, -1.265e-08
7527.5, -8.91e-09
7529.5, -9.53e-09
7531.5, -1.032e-08
7533.5, -1.238e-08
7535.5, -9.73e-09
7537.5, -1.269e-08
7539.5, -1.025e-08
7541.5, -1.081e-08
7543.5, -8.66e-09
7545.5, -7.18e-09
7547.5, -9.48e-09
7549.5, -8.7e-09
7551.5, -9.15e-09
7553.5, -3.49e-09
7555.5, -1.14e-08
7557.5, -9.17e-09
7559.6, -9.46e-09
7561.6, -1.031e-08
7563.6, -5.82e-09
7565.6, -8.8e-09
7567.6, -9.86e-09
7569.6, -2.87e-09
7571.6, -9.86e-09
7573.6, -8.7e-09
7575.6, -3.18e-09
7577.6, -3.7e-09
7579.6, -8.73e-09
7581.6, -6.32e-09
7583.6, -6.64e-09
7585.6, -9.32e-09
7587.6, -9.37e-09
7589.6, -8.38e-09
7591.6, -6.13e-09
7593.6, -6.65e-09
7595.6, -2.73e-09
7597.6, -5.92e-09
7599.6, -1.185e-08
7601.6, -9.35e-09
7603.6, -1.48e-08
7605.6, -1.095e-08
7607.6, -1.17e-08
7609.6, -1.07e-08
7611.6, -1.062e-08
7613.6, -7.22e-09
7615.6, -9.57e-09
7617.6, -1.089e-08
7619.6, -1.412e-08
7621.6, -7.19e-09
7623.6, -1.245e-08
7625.6, -1.107e-08
7627.6, -1.547e-08
7629.6, -1.23e-08
7631.6, -1.096e-08
7633.6, -1.101e-08
7635.6, -1.127e-08
7637.6, -9.73e-09
7639.6, -1.547e-08
7641.6, -8.68e-09
7643.6, -7.85e-09
7645.6, -7.55e-09
7647.6, -9.19e-09
7649.6, -9.26e-09
7651.6, -8.4e-09
7653.6, -5.64e-09
7655.6, -9.36e-09
7657.6, -6.58e-09
7659.7, -3.85e-09
7661.7, -7.06e-09
7663.7, -5.71e-09
7665.7, -4.84e-09
7667.7, -6.17e-09
7669.7, -4.43e-09
7671.7, -4.88e-09
7673.7, -6.49e-09
7675.7, -9.9e-09
7677.7, -3.06e-09
7679.7, -9.23e-09
7681.7, -9.3e-09
7683.7, -9.13e-09
7685.7, -9.64e-09
7687.7, -7.17e-09
7689.7, -8.12e-09
7691.7, -7.63e-09
7693.7, -1.122e-08
7695.7, -7.93e-09
7697.7, -8.49e-09
7699.7, -6.45e-09
7701.7, -8.93e-09
7703.7, -4.77e-09
7705.7, -7.83e-09
7707.7, -1.219e-08
7709.7, -6.34e-09
7711.7, -8.15e-09
7713.7, -8.91e-09
7715.7, -8.9e-09
7717.7, -7.53e-09
7719.7, -9.07e-09
7721.7, -1.386e-08
7723.7, -1.073e-08
7725.7, -1.417e-08
7727.7, -1.345e-08
7729.7, -1.241e-08
7731.7, -8.09e-09
7733.7, -8.56e-09
7735.7, -1.426e-08
7737.7, -1.456e-08
7739.7, -1.087e-08
7741.7, -1.252e-08
7743.7, -8.51e-09
7745.7, -1.258e-08
7747.7, -1.24e-08
7749.7, -1.185e-08
7751.7, -1.543e-08
7753.7, -1.273e-08
7755.7, -1.32e-08
7757.7, -9.19e-09
7759.8, -6.72e-09
7761.8, -1.207e-08
7763.8, -1e-08
7765.8, -1.741e-08
7767.8, -1.428e-08
7769.8, -1.682e-08
7771.8, -1.593e-08
7773.8, -1.51e-08
7775.8, -1.582e-08
7777.8, -1.271e-08
7779.8, -1.189e-08
7781.8, -1.329e-08
7783.8, -1.05e-08
7785.8, -1.359e-08
7787.8, -1.294e-08
7789.8, -1.176e-08
7791.8, -1.34e-08
7793.8, -5.18e-09
7795.8, -1.584e-08
7797.8, -1.478e-08
7799.8, -1.391e-08
7801.8, -5.97e-09
7803.8, -8.3e-09
7805.8, -6.85e-09
7807.8, -9.15e-09
7809.8, -5.94e-09
7811.8, -8.51e-09
7813.8, -1.442e-08
7815.8, -9.41e-09
7817.8, -1.252e-08
7819.8, -9.53e-09
7821.8, -6.54e-09
7823.8, -3.34e-09
7825.8, -3.23e-09
7827.8, -3.37e-09
7829.8, -6.57e-09
7831.8, -1.119e-08
7833.8, -1.357e-08
7835.8, -8.36e-09
7837.8, -1.018e-08
7839.8, -1.128e-08
7841.8, -1.131e-08
7843.8, -1.03e-08
7845.8, -1.464e-08
7847.8, -9.54e-09
7849.8, -1.238e-08
7851.8, -1.214e-08
7853.8, -9.81e-09
7855.8, -1.451e-08
7857.8, -1.158e-08
7859.9, -1.693e-08
7861.9, -1.644e-08
7863.9, -9.64e-09
7865.9, -8.75e-09
7867.9, -1.265e-08
7869.9, -1e-08
7871.9, -9.36e-09
7873.9, -1.128e-08
7875.9, -1.737e-08
7877.9, -1.119e-08
7879.9, -9.66e-09
7881.9, -1.111e-08
7883.9, -1.314e-08
7885.9, -1.309e-08
7887.9, -1.265e-08
7889.9, -1.323e-08
7891.9, -1.577e-08
7893.9, -1.866e-08
7895.9, -1.407e-08
7897.9, -1.406e-08
7899.9, -1.943e-08
7901.9, -1.461e-08
7903.9, -1.823e-08
7905.9, -1.555e-08
7907.9, -1.516e-08
7909.9, -1.063e-08
7911.9, -1.808e-08
7913.9, -1.851e-08
7915.9, -1.776e-08
7917.9, -1.589e-08
7919.9, -2.046e-08
7921.9, -1.631e-08
7923.9, -2.042e-08
7925.9, -1.426e-08
7927.9, -1.746e-08
7929.9, -1.815e-08
7931.9, -1.8e-08
7933.9, -1.808e-08
7935.9, -1.066e-08
7937.9, -1.167e-08
7939.9, -1.514e-08
7941.9, -2.135e-08
7943.9, -1.453e-08
7945.9, -1.743e-08
7947.9, -1.779e-08
7949.9, -1.872e-08
7951.9, -1.975e-08
7953.9, -1.547e-08
7955.9, -2.075e-08
7957.9, -1.473e-08
7960.0, -8.71e-09
7962.0, -1.05e-08
7964.0, -1.175e-08
7966.0, -9.54e-09
7968.0, -1.178e-08
7970.0, -1.29e-08
7972.0, -1.099e-08
7974.0, -1.313e-08
7976.0, -1.232e-08
7978.0, -1.271e-08
7980.0, -1.2e-08
7982.0, -1.817e-08
7984.0, -1.327e-08
7986.0, -1.211e-08
7988.0, -1.675e-08
7990.0, -1.333e-08
7992.0, -1.852e-08
7994.0, -1.658e-08
7996.0, -1.223e-08
7998.0, -1.809e-08
8000.0, -1.333e-08
8002.0, -1.73e-08
8004.0, -1.175e-08
8006.0, -1.598e-08
8008.0, -1.566e-08
8010.0, -1.266e-08
8012.0, -1.387e-08
8014.0, -1.764e-08
8016.0, -1.239e-08
8018.0, -1.067e-08
8020.0, -1.039e-08
8022.0, -1.408e-08
8024.0, -1.827e-08
8026.0, -1.537e-08
8028.0, -1.668e-08
8030.0, -1.551e-08
8032.0, -1.603e-08
8034.0, -1.948e-08
8036.0, -2.047e-08
8038.0, -2.239e-08
8040.0, -1.625e-08
8042.0, -1.473e-08
8044.0, -1.748e-08
8046.0, -1.287e-08
8048.0, -1.18e-08
8050.0, -1.107e-08
8052.0, -1.34e-08
8054.0, -1.534e-08
8056.0, -1.39e-08
8058.0, -1.724e-08
8060.1, -1.273e-08
8062.1, -1.589e-08
8064.1, -1.53e-08
8066.1, -1.268e-08
8068.1, -1.877e-08
8070.1, -1.995e-08
8072.1, -1.459e-08
8074.1, -1.598e-08
8076.1, -1.316e-08
8078.1, -1.861e-08
8080.1, -1.288e-08
8082.1, -1.839e-08
8084.1, -1.193e-08
8086.1, -1.192e-08
8088.1, -1.673e-08
8090.1, -1.094e-08
8092.1, -1.478e-08
8094.1, -1.446e-08
8096.1, -2.062e-08
8098.1, -1.404e-08
8100.1, -1.798e-08
8102.1, -1.369e-08
8104.1, -1.604e-08
8106.1, -1.375e-08
8108.1, -1.9e-08
8110.1, -1.91e-08
8112.1, -1.303e-08
8114.1, -1.206e-08
8116.1, -1.481e-08
8118.1, -1.342e-08
8120.1, -1.157e-08
8122.1, -1.119e-08
8124.1, -1.203e-08
8126.1, -1.212e-08
8128.1, -1.316e-08
8130.1, -1.421e-08
8132.1, -1.418e-08
8134.1, -1.349e-08
8136.1, -1.344e-08
8138.1, -1.581e-08
8140.1, -1.903e-08
8142.1, -1.657e-08
8144.1, -2.191e-08
8146.1, -3.806e-08
8148.1, -3.345e-08
8150.1, -3.681e-08
8152.1, -3.387e-08
8154.1, -3.616e-08
8156.1, -3.636e-08
8158.1, -3.582e-08
8160.2, -3.469e-08
8162.2, -3.526e-08
8164.2, -3.622e-08
8166.2, -3.883e-08
8168.2, -3.905e-08
8170.2, -3.656e-08
8172.2, -3.614e-08
8174.2, -3.935e-08
8176.2, -3.78e-08
8178.2, -4.149e-08
8180.2, -4.091e-08
8182.2, -4.171e-08
8184.2, -3.936e-08
8186.2, -3.806e-08
8188.2, -4.233e-08
8190.2, -4.003e-08
8192.2, -3.78e-08
8194.2, -3.613e-08
8196.2, -3.617e-08
8198.2, -3.457e-08
8200.2, -3.365e-08
8202.2, -3.477e-08
8204.2, -3.498e-08
8206.2, -3.591e-08
8208.2, -3.602e-08
8210.2, -3.44e-08
8212.2, -3.429e-08
8214.2, -3.527e-08
8216.2, -3.85e-08
8218.2, -3.606e-08
8220.2, -3.818e-08
8222.2, -3.526e-08
8224.2, -3.704e-08
8226.2, -3.807e-08
8228.2, -3.882e-08
8230.2, -3.709e-08
8232.2, -4.125e-08
8234.2, -3.631e-08
8236.2, -3.946e-08
8238.2, -4.054e-08
8240.2, -3.999e-08
8242.2, -3.874e-08
8244.2, -4.02e-08
8246.2, -3.663e-08
8248.2, -3.848e-08
8250.2, -3.652e-08
8252.2, -3.514e-08
8254.2, -3.445e-08
8256.2, -3.744e-08
8258.2, -3.801e-08
8260.3, -3.83e-08
8262.3, -3.49e-08
8264.3, -3.332e-08
8266.3, -3.324e-08
8268.3, -3.744e-08
8270.3, -3.6e-08
8272.3, -3.688e-08
8274.3, -3.282e-08
8276.3, -3.791e-08
8278.3, -3.689e-08
8280.3, -3.567e-08
8282.3, -3.19e-08
8284.3, -3.162e-08
8286.3, -3.397e-08
8288.3, -3.527e-08
8290.3, -3.443e-08
8292.3, -3.84e-08
8294.3, -3.74e-08
8296.3, -3.683e-08
8298.3, -3.476e-08
8300.3, -3.528e-08
8302.3, -3.446e-08
8304.3, -3.402e-08
8306.3, -3.614e-08
8308.3, -3.649e-08
8310.3, -3.671e-08
8312.3, -3.558e-08
8314.3, -3.861e-08
8316.3, -3.895e-08
8318.3, -3.576e-08
8320.3, -3.534e-08
8322.3, -3.334e-08
8324.3, -3.575e-08
8326.3, -3.467e-08
8328.3, -3.82e-08
8330.3, -3.592e-08
8332.3, -3.525e-08
8334.3, -3.533e-08
8336.3, -3.618e-08
8338.3, -3.711e-08
8340.3, -3.551e-08
8342.3, -3.492e-08
8344.3, -3.482e-08
8346.3, -3.216e-08
8348.3, -3.586e-08
8350.3, -3.308e-08
8352.3, -3.119e-08
8354.3, -3.497e-08
8356.3, -3.437e-08
8358.3, -3.435e-08
8360.4, -3.716e-08
8362.4, -3.327e-08
8364.4, -3.649e-08
8366.4, -3.92e-08
8368.4, -3.496e-08
8370.4, -3.899e-08
8372.4, -3.818e-08
8374.4, -3.782e-08
8376.4, -3.809e-08
8378.4, -3.642e-08
8380.4, -3.883e-08
8382.4, -3.728e-08
8384.4, -3.674e-08
8386.4, -3.825e-08
8388.4, -3.712e-08
8390.4, -3.919e-08
8392.4, -3.76e-08
8394.4, -3.709e-08
8396.4, -3.832e-08
8398.4, -3.81e-08
8400.4, -4.245e-08
8402.4, -3.678e-08
8404.4, -4.16e-08
8406.4, -3.938e-08
8408.4, -3.921e-08
8410.4, -3.682e-08
8412.4, -3.765e-08
8414.4, -3.787e-08
8416.4, -3.52e-08
8418.4, -3.718e-08
8420.4, -3.693e-08
8422.4, -3.604e-08
8424.4, -3.428e-08
8426.4, -3.571e-08
8428.4, -3.47e-08
8430.4, -3.587e-08
8432.4, -3.789e-08
8434.4, -3.529e-08
8436.4, -3.444e-08
8438.4, -3.746e-08
8440.4, -4.005e-08
8442.4, -3.602e-08
8444.4, -3.785e-08
8446.4, -3.976e-08
8448.4, -4.011e-08
8450.4, -4.071e-08
8452.4, -3.672e-08
8454.4, -3.738e-08
8456.4, -3.696e-08
8458.4, -3.745e-08
8460.5, -3.754e-08
8462.5, -3.71e-08
8464.5, -3.768e-08
8466.5, -3.842e-08
8468.5, -4.066e-08
8470.5, -4.113e-08
8472.5, -3.66e-08
8474.5, -3.902e-08
8476.5, -3.954e-08
8478.5, -3.673e-08
8480.5, -3.549e-08
8482.5, -3.419e-08
8484.5, -3.483e-08
8486.5, -3.759e-08
8488.5, -3.529e-08
8490.5, -3.352e-08
8492.5, -3.572e-08
8494.5, -3.487e-08
8496.5, -3.687e-08
8498.5, -3.644e-08
8500.5, -3.661e-08
8502.5, -3.851e-08
8504.5, -3.747e-08
8506.5, -3.608e-08
8508.5, -3.587e-08
8510.5, -3.495e-08
8512.5, -3.243e-08
8514.5, -3.276e-08
8516.5, -3.3e-08
8518.5, -3.371e-08
8520.5, -3.458e-08
8522.5, -3.303e-08
8524.5, -3.477e-08
8526.5, -3.485e-08
8528.5, -3.763e-08
8530.5, -4.088e-08
8532.5, -3.529e-08
8534.5, -3.472e-08
8536.5, -3.182e-08
8538.5, -3.826e-08
8540.5, -3.752e-08
8542.5, -4.145e-08
8544.5, -3.649e-08
8546.5, -3.796e-08
8548.5, -3.934e-08
8550.5, -3.624e-08
8552.5, -3.942e-08
8554.5, -3.615e-08
8556.5, -3.573e-08
8558.5, -3.421e-08
8560.6, -3.655e-08
8562.6, -3.8e-08
8564.6, -3.674e-08
8566.6, -3.796e-08
8568.6, -3.518e-08
8570.6, -3.859e-08
8572.6, -4.001e-08
8574.6, -3.773e-08
8576.6, -3.545e-08
8578.6, -3.903e-08
8580.6, -3.512e-08
8582.6, -3.685e-08
8584.6, -3.51e-08
8586.6, -3.771e-08
8588.6, -3.697e-08
8590.6, -3.457e-08
8592.6, -3.701e-08
8594.6, -3.491e-08
8596.6, -3.329e-08
8598.6, -3.567e-08
8600.6, -3.995e-08
8602.6, -4e-08
8604.6, -4.01e-08
8606.6, -3.93e-08
8608.6, -3.689e-08
8610.6, -3.374e-08
8612.6, -3.334e-08
8614.6, -3.344e-08
8616.6, -3.704e-08
8618.6, -3.389e-08
8620.6, -3.555e-08
8622.6, -3.513e-08
8624.6, -3.349e-08
8626.6, -3.476e-08
8628.6, -3.751e-08
8630.6, -3.475e-08
8632.6, -3.339e-08
8634.6, -3.705e-08
8636.6, -3.412e-08
8638.6, -3.57e-08
8640.6, -3.533e-08
8642.6, -3.48e-08
8644.6, -3.533e-08
8646.6, -3.287e-08
8648.6, -3.557e-08
8650.6, -3.536e-08
8652.6, -3.667e-08
8654.6, -3.536e-08
8656.6, -3.69e-08
8658.6, -3.233e-08
8660.7, -3.44e-08
8662.7, -3.686e-08
8664.7, -3.295e-08
8666.7, -3.276e-08
8668.7, -3.27e-08
8670.7, -3.516e-08
8672.7, -3.229e-08
8674.7, -3.496e-08
8676.7, -3.616e-08
8678.7, -3.334e-08
8680.7, -3.42e-08
8682.7, -3.45e-08
8684.7, -3.589e-08
8686.7, -3.567e-08
8688.7, -3.53e-08
8690.7, -3.431e-08
8692.7, -3.43e-08
8694.7, -3.403e-08
8696.7, -3.36e-08
8698.7, -3.404e-08
8700.7, -3.497e-08
8702.7, -3.572e-08
8704.7, -3.488e-08
8706.7, -3.408e-08
8708.7, -3.398e-08
8710.7, -3.48e-08
8712.7, -3.532e-08
8714.7, -3.341e-08
8716.7, -3.069e-08
8718.7, -3.209e-08
8720.7, -3.346e-08
8722.7, -3.266e-08
8724.7, -3.027e-08
8726.7, -3.323e-08
8728.7, -3.357e-08
8730.7, -3.085e-08
8732.7, -3.379e-08
8734.7, -3.405e-08
8736.7, -3.463e-08
8738.7, -3.687e-08
8740.7, -3.212e-08
8742.7, -3.284e-08
8744.7, -3.686e-08
8746.7, -3.773e-08
8748.7, -3.376e-08
8750.7, -3.137e-08
8752.7, -3.469e-08
8754.7, -3.53e-08
8756.7, -3.377e-08
8758.7, -3.825e-08
8760.8, -4.04e-08
8762.8, -3.718e-08
8764.8, -3.734e-08
8766.8, -3.702e-08
8768.8, -3.797e-08
8770.8, -3.717e-08
8772.8, -3.951e-08
8774.8, -3.675e-08
8776.8, -3.818e-08
8778.8, -3.523e-08
8780.8, -3.612e-08
8782.8, -3.536e-08
8784.8, -3.354e-08
8786.8, -3.534e-08
8788.8, -3.395e-08
8790.8, -3.788e-08
8792.8, -3.531e-08
8794.8, -3.261e-08
8796.8, -3.638e-08
8798.8, -3.377e-08
8800.8, -3.056e-08
8802.8, -3.314e-08
8804.8, -3.65e-08
8806.8, -3.666e-08
8808.8, -3.79e-08
8810.8, -3.467e-08
8812.8, -3.539e-08
8814.8, -3.045e-08
8816.8, -3.573e-08
8818.8, -3.385e-08
8820.8, -3.28e-08
8822.8, -3.526e-08
8824.8, -3.166e-08
8826.8, -3.371e-08
8828.8, -3.382e-08
8830.8, -3.181e-08
8832.8, -3.144e-08
8834.8, -3.032e-08
8836.8, -3.133e-08
8838.8, -2.881e-08
8840.8, -3.47e-08
8842.8, -3.243e-08
8844.8, -2.985e-08
8846.8, -3.077e-08
8848.8, -3.338e-08
8850.8, -3.19e-08
8852.8, -2.997e-08
8854.8, -3.403e-08
8856.8, -3.191e-08
8858.8, -3.109e-08
8860.9, -3.358e-08
8862.9, -3.48e-08
8864.9, -3.175e-08
8866.9, -3.438e-08
8868.9, -3.211e-08
8870.9, -3.094e-08
8872.9, -3.536e-08
8874.9, -2.899e-08
8876.9, -3.205e-08
8878.9, -3.571e-08
8880.9, -3.442e-08
8882.9, -3.407e-08
8884.9, -3.458e-08
8886.9, -3.047e-08
8888.9, -3.584e-08
8890.9, -3.429e-08
8892.9, -3.22e-08
8894.9, -3.005e-08
8896.9, -3.098e-08
8898.9, -3.59e-08
8900.9, -3.592e-08
8902.9, -3.196e-08
8904.9, -3.221e-08
8906.9, -3.571e-08
8908.9, -3.411e-08
8910.9, -3.452e-08
8912.9, -3.125e-08
8914.9, -3.201e-08
8916.9, -3.262e-08
8918.9, -3.595e-08
8920.9, -3.277e-08
8922.9, -3.385e-08
8924.9, -3.485e-08
8926.9, -3.432e-08
8928.9, -3.441e-08
8930.9, -3.396e-08
8932.9, -3.399e-08
8934.9, -3.372e-08
8936.9, -3.226e-08
8938.9, -3.21e-08
8940.9, -3.154e-08
8942.9, -3.271e-08
8944.9, -2.789e-08
8946.9, -2.683e-08
8948.9, -3.074e-08
8950.9, -3.133e-08
8952.9, -3.441e-08
8954.9, -3.202e-08
8956.9, -3.416e-08
8958.9, -3.962e-08
8961.0, -3.375e-08
8963.0, -3.663e-08
8965.0, -3.453e-08
8967.0, -3.094e-08
8969.0, -3.526e-08
8971.0, -3.558e-08
8973.0, -3.204e-08
8975.0, -3.286e-08
8977.0, -2.898e-08
8979.0, -3.216e-08
8981.0, -3.345e-08
8983.0, -3.333e-08
8985.0, -3.358e-08
8987.0, -3.323e-08
8989.0, -3.338e-08
8991.0, -3.591e-08
8993.0, -3.244e-08
8995.0, -3.315e-08
8997.0, -3.436e-08
8999.0, -3.605e-08
9001.0, -3.343e-08
9003.0, -3.539e-08
9005.0, -3.439e-08
9007.0, -3.344e-08
9009.0, -3.554e-08
9011.0, -3.433e-08
9013.0, -2.959e-08
9015.0, -3.11e-08
9017.0, -3.023e-08
9019.0, -3.332e-08
9021.0, -3.318e-08
9023.0, -3.29e-08
9025.0, -3.234e-08
9027.0, -3.276e-08
9029.0, -3.4e-08
9031.0, -3.135e-08
9033.0, -3.145e-08
9035.0, -3.346e-08
9037.0, -3.597e-08
9039.0, -3.426e-08
9041.0, -3.533e-08
9043.0, -3.312e-08
9045.0, -3.209e-08
9047.0, -3.484e-08
9049.0, -3.679e-08
9051.0, -2.981e-08
9053.0, -3.49e-08
9055.0, -3.526e-08
9057.0, -3.641e-08
9059.0, -3.293e-08
9061.1, -3.389e-08
9063.1, -3.229e-08
9065.1, -3.191e-08
9067.1, -3.218e-08
9069.1, -3.309e-08
9071.1, -3.077e-08
9073.1, -3.172e-08
9075.1, -3.517e-08
9077.1, -3.168e-08
9079.1, -3.245e-08
9081.1, -3.376e-08
9083.1, -3.033e-08
9085.1, -3.029e-08
9087.1, -3.068e-08
9089.1, -3.091e-08
9091.1, -3.625e-08
9093.1, -3.41e-08
9095.1, -3.272e-08
9097.1, -3.246e-08
9099.1, -3.264e-08
9101.1, -3.258e-08
9103.1, -3.426e-08
9105.1, -3.506e-08
9107.1, -3.829e-08
9109.1, -3.73e-08
9111.1, -3.527e-08
9113.1, -3.877e-08
9115.1, -3.511e-08
9117.1, -3.491e-08
9119.1, -3.596e-08
9121.1, -3.689e-08
9123.1, -3.449e-08
9125.1, -3.361e-08
9127.1, -3.531e-08
9129.1, -3.682e-08
9131.1, -3.614e-08
9133.1, -3.709e-08
9135.1, -3.502e-08
9137.1, -3.669e-08
9139.1, -3.842e-08
9141.1, -3.592e-08
9143.1, -3.199e-08
9145.1, -3.554e-08
9147.1, -3.403e-08
9149.1, -3.794e-08
9151.1, -3.286e-08
9153.1, -3.437e-08
9155.1, -3.416e-08
9157.1, -3.816e-08
9159.1, -3.624e-08
9161.2, -3.614e-08
9163.2, -3.555e-08
9165.2, -3.515e-08
9167.2, -3.495e-08
9169.2, -3.791e-08
9171.2, -3.136e-08
9173.2, -3.338e-08
9175.2, -1.348e-08
9177.2, -1.434e-08
9179.2, -1.115e-08
9181.2, -1.432e-08
9183.2, -1.411e-08
9185.2, -1.126e-08
9187.2, -1.425e-08
9189.2, -1.759e-08
9191.2, -1.041e-08
9193.2, -9.45e-09
9195.2, -1.464e-08
9197.2, -1.344e-08
9199.2, -9.45e-09
9201.2, -1.359e-08
9203.2, -1.531e-08
9205.2, -1.54e-08
9207.2, -1.671e-08
9209.2, -1.387e-08
9211.2, -1.337e-08
9213.2, -1.28e-08
9215.2, -1.568e-08
9217.2, -1.477e-08
9219.2, -8.92e-09
9221.2, -1.953e-08
9223.2, -1.532e-08
9225.2, -1.323e-08
9227.2, -1.767e-08
9229.2, -2.156e-08
9231.2, -1.695e-08
9233.2, -1.179e-08
9235.2, -8.32e-09
9237.2, -1.41e-08
9239.2, -1.556e-08
9241.2, -1.492e-08
9243.2, -1.321e-08
9245.2, -9.9e-09
9247.2, -1.633e-08
9249.2, -1.958e-08
9251.2, -1.443e-08
9253.2, -1.075e-08
9255.2, -1.722e-08
9257.2, -1.159e-08
9259.2, -1.43e-08
9261.3, -1.83e-08
9263.3, -2.145e-08
9265.3, -1.081e-08
9267.3, -1.549e-08
9269.3, -1.985e-08
9271.3, -1.656e-08
9273.3, -1.483e-08
9275.3, -1.507e-08
9277.3, -1.032e-08
9279.3, -1.515e-08
9281.3, -1.41e-08
9283.3, -1.295e-08
9285.3, -1.444e-08
9287.3, -1.749e-08
9289.3, -1.521e-08
9291.3, -1.515e-08
9293.3, -1.66e-08
9295.3, -1.548e-08
9297.3, -1.243e-08
9299.3, -1.324e-08
9301.3, -1.191e-08
9303.3, -1.574e-08
9305.3, -1.728e-08
9307.3, -1.708e-08
9309.3, -1.494e-08
9311.3, -1.173e-08
9313.3, -1.268e-08
9315.3, -1.193e-08
9317.3, -1.272e-08
9319.3, -1.156e-08
9321.3, -1.431e-08
9323.3, -1.115e-08
9325.3, -1.345e-08
9327.3, -1.406e-08
9329.3, -1.744e-08
9331.3, -1.4e-08
9333.3, -1.107e-08
9335.3, -1.324e-08
9337.3, -1.124e-08
9339.3, -1.227e-08
9341.3, -1.245e-08
9343.3, -1.73e-08
9345.3, -1.408e-08
9347.3, -7.92e-09
9349.3, -1.52e-08
9351.3, -1.609e-08
9353.3, -1.42e-08
9355.3, -1.198e-08
9357.3, -9.46e-09
9359.3, -1.372e-08
9361.4, -1.281e-08
9363.4, -1.394e-08
9365.4, -9.28e-09
9367.4, -1.54e-08
9369.4, -1.901e-08
9371.4, -1.553e-08
9373.4, -1.294e-08
9375.4, -1.7e-08
9377.4, -2.229e-08
9379.4, -1.966e-08
9381.4, -1.968e-08
9383.4, -2.295e-08
9385.4, -1.654e-08
9387.4, -1.631e-08
9389.4, -1.586e-08
9391.4, -1.653e-08
9393.4, -1.551e-08
9395.4, -9.26e-09
9397.4, -1.155e-08
9399.4, -6.93e-09
9401.4, -8.04e-09
9403.4, -1.431e-08
9405.4, -6.83e-09
9407.4, -1.083e-08
9409.4, -7.23e-09
9411.4, -1.337e-08
9413.4, -3.05e-09
9415.4, -1.263e-08
9417.4, -1.012e-08
9419.4, -7.6e-09
9421.4, -9.7e-09
9423.4, -1.343e-08
9425.4, -5.99e-09
9427.4, -1.131e-08
9429.4, -1.459e-08
9431.4, -1.579e-08
9433.4, -9.82e-09
9435.4, -8.36e-09
9437.4, -6.64e-09
9439.4, -5.48e-09
9441.4, -1.207e-08
9443.4, -1.398e-08
9445.4, -1.116e-08
9447.4, -5.25e-09
9449.4, -6.99e-09
9451.4, -8.75e-09
9453.4, -1.139e-08
9455.4, -1.13e-08
9457.4, -1.212e-08
9459.4, -7.57e-09
9461.5, -1.158e-08
9463.5, -8.25e-09
9465.5, -1.039e-08
9467.5, -9.65e-09
9469.5, -1.254e-08
9471.5, -1.113e-08
9473.5, -3.04e-09
9475.5, -5.07e-09
9477.5, -4.65e-09
9479.5, -1.178e-08
9481.5, -8.2e-09
9483.5, -8.35e-09
9485.5, -5.96e-09
9487.5, -9.3e-09
9489.5, -1.22e-08
9491.5, -1.526e-08
9493.5, -1.436e-08
9495.5, -7.89e-09
9497.5, -1.495e-08
9499.5, -1.478e-08
9501.5, -1.574e-08
9503.5, -1.235e-08
9505.5, -1.162e-08
9507.5, -1.217e-08
9509.5, -1.084e-08
9511.5, -1.104e-08
9513.5, -1.011e-08
9515.5, -1.287e-08
9517.5, -8.71e-09
9519.5, -9.74e-09
9521.5, -8.13e-09
9523.5, -7.21e-09
9525.5, -3.46e-09
9527.5, -1.014e-08
9529.5, -1.171e-08
9531.5, -8.37e-09
9533.5, -5.99e-09
9535.5, -1.087e-08
9537.5, -8.61e-09
9539.5, -7.58e-09
9541.5, -5.84e-09
9543.5, -1.301e-08
9545.5, -7.16e-09
9547.5, -5.78e-09
9549.5, -7.06e-09
9551.5, -3.77e-09
9553.5, -4.85e-09
9555.5, -5.55e-09
9557.5, -6.79e-09
9559.5, -9.92e-09
9561.6, -5.47e-09
9563.6, -5.99e-09
9565.6, -7.86e-09
9567.6, -9.54e-09
9569.6, -6.62e-09
9571.6, -1.134e-08
9573.6, -6.8e-09
9575.6, -6.97e-09
9577.6, -1.004e-08
9579.6, -8.74e-09
9581.6, -2.84e-09
9583.6, -6.93e-09
9585.6, -9.18e-09
9587.6, -7.77e-09
9589.6, -8.97e-09
9591.6, -7.32e-09
9593.6, -1.004e-08
9595.6, -6.26e-09
9597.6, -7.55e-09
9599.6, -4.44e-09
9601.6, -1.226e-08
9603.6, -1.12e-09
9605.6, -4.52e-09
9607.6, -6.69e-09
9609.6, -6.06e-09
9611.6, -7.25e-09
9613.6, -5.95e-09
9615.6, -1.134e-08
9617.6, -1.12e-08
9619.6, -1.353e-08
9621.6, -1.227e-08
9623.6, -1.111e-08
9625.6, -9.06e-09
9627.6, -8.35e-09
9629.6, -7.08e-09
9631.6, -6.2e-09
9633.6, -4.5e-09
9635.6, -8.06e-09
9637.6, -8.56e-09
9639.6, -8.46e-09
9641.6, -5.25e-09
9643.6, -8.24e-09
9645.6, -6.25e-09
9647.6, -7e-09
9649.6, -9.11e-09
9651.6, -5.18e-09
9653.6, -9.13e-09
9655.6, -6.13e-09
9657.6, -1.493e-08
9659.6, -9.94e-09
9661.7, -1.236e-08
9663.7, -5.21e-09
9665.7, -7.52e-09
9667.7, -4.34e-09
9669.7, -1.011e-08
9671.7, -1.469e-08
9673.7, -1.124e-08
9675.7, -8.72e-09
9677.7, -1.078e-08
9679.7, -1.058e-08
9681.7, -7.54e-09
9683.7, -4.38e-09
9685.7, -6.93e-09
9687.7, -1.242e-08
9689.7, -8.12e-09
9691.7, -1.531e-08
9693.7, -1.002e-08
9695.7, -8.85e-09
9697.7, -1.415e-08
9699.7, -1.229e-08
9701.7, -1.488e-08
9703.7, -8.05e-09
9705.7, -9.27e-09
9707.7, -1.526e-08
9709.7, -1.556e-08
9711.7, -1.421e-08
9713.7, -1.373e-08
9715.7, -1.298e-08
9717.7, -1.332e-08
9719.7, -7.72e-09
9721.7, -1.196e-08
9723.7, -1.293e-08
9725.7, -9.08e-09
9727.7, -1.209e-08
9729.7, -1.231e-08
9731.7, -1.409e-08
9733.7, -1.17e-08
9735.7, -1.34e-08
9737.7, -1.182e-08
9739.7, -9.49e-09
9741.7, -1.249e-08
9743.7, -1.414e-08
9745.7, -1.435e-08
9747.7, -7.67e-09
9749.7, -1.075e-08
9751.7, -9.9e-09
9753.7, -1.238e-08
9755.7, -1.398e-08
9757.7, -7.93e-09
9759.7, -8.84e-09
9761.8, -8.57e-09
9763.8, -5.93e-09
9765.8, -3.28e-09
9767.8, -9.78e-09
9769.8, -4.62e-09
9771.8, -8.48e-09
9773.8, -7.54e-09
9775.8, -7.34e-09
9777.8, -7.6e-09
9779.8, -6.53e-09
9781.8, -7.29e-09
9783.8, -1.065e-08
9785.8, -9.43e-09
9787.8, -5.11e-09
9789.8, -6e-09
9791.8, -1.254e-08
9793.8, -8.97e-09
9795.8, -1.184e-08
9797.8, -1.621e-08
9799.8, -9.41e-09
9801.8, -1.63e-08
9803.8, -7.93e-09
9805.8, -1.419e-08
9807.8, -4.38e-09
9809.8, -1.043e-08
9811.8, -1.03e-08
9813.8, -1.4e-08
9815.8, -8.11e-09
9817.8, -6.48e-09
9819.8, -9.81e-09
9821.8, -9.62e-09
9823.8, -1.05e-08
9825.8, -1.043e-08
9827.8, -3.4e-09
9829.8, -5.64e-09
9831.8, -4.63e-09
9833.8, -1.24e-08
9835.8, -7.68e-09
9837.8, -1.045e-08
9839.8, -1.576e-08
9841.8, -1.141e-08
9843.8, -1.208e-08
9845.8, -7.31e-09
9847.8, -1.159e-08
9849.8, -1.314e-08
9851.8, -1.156e-08
9853.8, -1.159e-08
9855.8, -4.37e-09
9857.8, -8.86e-09
9859.8, -1.372e-08
9861.9, -9.05e-09
9863.9, -1.072e-08
9865.9, -1.121e-08
9867.9, -1.408e-08
9869.9, -8.63e-09
9871.9, -7.95e-09
9873.9, -9.53e-09
9875.9, -1.074e-08
9877.9, -1.116e-08
9879.9, -1.128e-08
9881.9, -1.214e-08
9883.9, -7.64e-09
9885.9, -5.79e-09
9887.9, -5.85e-09
9889.9, -7.8e-09
9891.9, -5.47e-09
9893.9, -1.015e-08
9895.9, -6.62e-09
9897.9, -1.289e-08
9899.9, -1.489e-08
9901.9, -9.09e-09
9903.9, -1.416e-08
9905.9, -9.65e-09
9907.9, -9.05e-09
9909.9, -1.22e-08
9911.9, -1.156e-08
9913.9, -7.81e-09
9915.9, -9.14e-09
9917.9, -8.38e-09
9919.9, -1.242e-08
9921.9, -9.85e-09
9923.9, -8.26e-09
9925.9, -1.018e-08
9927.9, -9.63e-09
9929.9, -1.125e-08
9931.9, -7.02e-09
9933.9, -9.93e-09
9935.9, -7.8e-09
9937.9, -7.35e-09
9939.9, -1.099e-08
9941.9, -1.12e-08
9943.9, -8.95e-09
9945.9, -1.94e-09
9947.9, -1.231e-08
9949.9, -9.53e-09
9951.9, -5.25e-09
9953.9, -8.41e-09
9955.9, -7.21e-09
9957.9, -3.66e-09
9959.9, -6.99e-09
9962.0, -9.49e-09
9964.0, -1.047e-08
9966.0, -8.48e-09
9968.0, -9.52e-09
9970.0, -6.09e-09
9972.0, -4.11e-09
9974.0, -7.94e-09
9976.0, -8.82e-09
9978.0, -7.89e-09
9980.0, -2.7e-09
9982.0, -1.085e-08
9984.0, -7.34e-09
9986.0, -1.1e-09
9988.0, -5.87e-09
9990.0, -3.04e-09
9992.0, -5.87e-09
9994.0, -2.71e-09
9996.0, -3.51e-09
9998.0, -7.55e-09
10000.0, -5.98e-09
10002.0, -8.23e-09
10004.0, -4.58e-09
10006.0, -4.4e-09
10008.0, -5.19e-09
10010.0, -1.071e-08
10012.0, -9.04e-09
10014.0, -9.39e-09
10016.0, -4.34e-09
10018.0, -1.053e-08
10020.0, -8.98e-09
10022.0, -8.39e-09
10024.0, -5.56e-09
10026.0, -5.7e-09
10028.0, -9.79e-09
10030.0, -9.54e-09
10032.0, -1.044e-08
10034.0, -7.67e-09
10036.0, -6.56e-09
10038.0, -3.93e-09
10040.0, -4.46e-09
10042.0, -7.1e-09
10044.0, -7.22e-09
10046.0, -9.5e-09
10048.0, -1.003e-08
10050.0, -1.052e-08
10052.0, -1.468e-08
10054.0, -7.82e-09
10056.0, -9.41e-09
10058.0, -7.25e-09
10060.0, -4.28e-09
10062.0, -9.1e-09
10064.0, -4.47e-09
10066.0, -5.67e-09
10068.0, -6.61e-09
10070.0, -7.13e-09
10072.0, -1.069e-08
10074.0, -1.557e-08
10076.0, -7.71e-09
10078.0, -9.8e-09
10080.0, -7.56e-09
10082.0, -6.97e-09
10084.0, -1.127e-08
10086.0, -1.14e-08
10088.0, -9.92e-09
10090.0, -1.084e-08
10092.0, -6.35e-09
10094.0, -7.8e-09
10096.0, -8.34e-09
10098.0, -4.84e-09
10100.0, -6.74e-09
10102.0, -9.69e-09
10104.0, -9.25e-09
10106.0, -9.74e-09
10108.0, -9.31e-09
10110.0, -8.54e-09
10112.0, -9.28e-09
10114.0, -8.88e-09
10116.0, -9.43e-09
10118.0, -1.576e-08
10120.0, -1.057e-08
10122.0, -8.47e-09
10124.0, -9.9e-09
10126.0, -5.63e-09
10128.0, -1.071e-08
10130.0, -1.039e-08
10132.0, -8.62e-09
10134.0, -5.86e-09
10136.0, -5.4e-09
10138.0, -8.96e-09
10140.0, -1.135e-08
10142.0, -7.99e-09
10144.0, -9.78e-09
10146.0, -7.9e-09
10148.0, -1.045e-08
10150.0, -1.516e-08
10152.0, -1.441e-08
10154.0, -1.368e-08
10156.0, -1.22e-08
10158.0, -1.168e-08
10160.0, -1.218e-08
10162.0, -9.61e-09
10164.0, -5.88e-09
10166.0, -1.277e-08
10168.0, -5.56e-09
10170.0, -8.8e-09
10172.0, -1.396e-08
10174.0, -6.33e-09
10176.0, -3.357e-08
10178.0, -3.146e-08
10180.0, -3.097e-08
10182.0, -3.095e-08
10184.0, -3.087e-08
10186.0, -3.184e-08
10188.0, -2.948e-08
10190.0, -3.27e-08
10192.0, -3.028e-08
10194.0, -2.861e-08
10196.0, -2.946e-08
10198.0, -3.18e-08
10200.0, -3.197e-08
10202.0, -2.759e-08
10204.0, -2.991e-08
10206.0, -2.851e-08
10208.0, -3.423e-08
10210.0, -3.267e-08
10212.0, -3.207e-08
10214.0, -3.277e-08
10216.0, -3.236e-08
10218.0, -3.114e-08
10220.0, -3.062e-08
10222.0, -3.147e-08
10224.0, -2.553e-08
10226.0, -2.855e-08
10228.0, -2.962e-08
10230.0, -3.112e-08
10232.0, -2.862e-08
10234.0, -3.29e-08
10236.0, -3.113e-08
10238.0, -2.976e-08
10240.0, -2.848e-08
10242.0, -2.793e-08
10244.0, -3.214e-08
10246.0, -3.433e-08
10248.0, -3.107e-08
10250.0, -2.962e-08
10252.0, -3.162e-08
10254.0, -2.911e-08
10256.0, -2.83e-08
10258.0, -3.064e-08
10260.0, -3.156e-08
10262.0, -2.987e-08
10264.0, -3.026e-08
10266.0, -2.931e-08
10268.0, -2.754e-08
10270.0, -2.924e-08
10272.0, -2.865e-08
10274.0, -2.893e-08
10276.0, -2.985e-08
10278.0, -3.058e-08
10280.0, -2.913e-08
10282.0, -3.008e-08
10284.0, -3.383e-08
10286.0, -2.827e-08
10288.0, -3.167e-08
10290.0, -3.437e-08
10292.0, -3.072e-08
10294.0, -3.047e-08
10296.0, -3.184e-08
10298.0, -3.145e-08
10300.0, -3.135e-08
10302.0, -2.85e-08
10304.0, -3.078e-08
10306.0, -3.368e-08
10308.0, -3.198e-08
10310.0, -2.858e-08
10312.0, -3.037e-08
10314.0, -3.148e-08
10316.0, -3.177e-08
10318.0, -2.962e-08
10320.0, -2.656e-08
10322.0, -2.699e-08
10324.0, -2.757e-08
10326.0, -2.702e-08
10328.0, -2.871e-08
10330.0, -2.936e-08
10332.0, -2.9e-08
10334.0, -2.637e-08
10336.0, -3.142e-08
10338.0, -2.856e-08
10340.0, -3.042e-08
10342.0, -3.137e-08
10344.0, -2.952e-08
10346.0, -2.835e-08
10348.0, -2.944e-08
10350.0, -3.22e-08
10352.0, -3.334e-08
10354.0, -3.51e-08
10356.0, -2.93e-08
10358.0, -3.289e-08
10360.0, -3.016e-08
10362.0, -2.985e-08
10364.0, -3.247e-08
10366.0, -3.139e-08
10368.0, -3.048e-08
10370.0, -3.154e-08
10372.0, -3.144e-08
10374.0, -3.068e-08
10376.0, -3.037e-08
10378.0, -3.365e-08
10380.0, -3.166e-08
10382.0, -3.175e-08
10384.0, -3.201e-08
10386.0, -3.085e-08
10388.0, -3.539e-08
10390.0, -3.065e-08
10392.0, -3.109e-08
10394.0, -3.108e-08
10396.0, -3.273e-08
10398.0, -3.02e-08
10400.0, -2.91e-08
10402.0, -3.523e-08
10404.0, -3.417e-08
10406.0, -3.328e-08
10408.0, -3.246e-08
10410.0, -3.207e-08
10412.0, -3.26e-08
10414.0, -3.425e-08
10416.0, -3.238e-08
10418.0, -3.069e-08
10420.0, -2.834e-08
10422.0, -2.994e-08
10424.0, -3.574e-08
10426.0, -3.071e-08
10428.0, -3.223e-08
10430.0, -2.974e-08
10432.0, -3.419e-08
10434.0, -3.205e-08
10436.0, -3.241e-08
10438.0, -2.942e-08
10440.0, -3.294e-08
10442.0, -3.089e-08
10444.0, -3.487e-08
10446.0, -3.198e-08
10448.0, -3.078e-08
10450.0, -3.251e-08
10452.0, -3.31e-08
10454.0, -3.189e-08
10456.0, -3.319e-08
10458.0, -3.533e-08
10460.0, -3.419e-08
10462.0, -3.853e-08
10464.0, -3.918e-08
10466.0, -3.776e-08
10468.0, -3.528e-08
10470.0, -3.526e-08
10472.0, -3.377e-08
10474.0, -3.514e-08
10476.0, -3.737e-08
10478.0, -3.438e-08
10480.0, -3.526e-08
10482.0, -3.58e-08
10484.0, -3.758e-08
10486.0, -3.821e-08
10488.0, -3.398e-08
10490.0, -3.572e-08
10492.0, -3.371e-08
10494.0, -3.509e-08
10496.0, -3.527e-08
10498.0, -3.759e-08
10500.0, -3.748e-08
10502.0, -3.502e-08
10504.0, -3.536e-08
10506.0, -3.504e-08
10508.0, -3.386e-08
10510.0, -3.559e-08
10513.0, -3.487e-08
10515.0, -3.339e-08
10517.0, -3.423e-08
10519.0, -3.307e-08
10521.0, -3.261e-08
10523.0, -3.455e-08
10525.0, -3.655e-08
10527.0, -3.484e-08
10529.0, -3.573e-08
10531.0, -3.607e-08
10533.0, -3.797e-08
10535.0, -3.444e-08
10537.0, -3.294e-08
10539.0, -3.238e-08
10541.0, -3.506e-08
10543.0, -3.425e-08
10545.0, -3.416e-08
10547.0, -3.134e-08
10549.0, -3.256e-08
10551.0, -3.29e-08
10553.0, -3.494e-08
10555.0, -3.474e-08
10557.0, -3.126e-08
10559.0, -3.146e-08
10561.0, -3.476e-08
10563.0, -3.395e-08
10565.0, -3.548e-08
10567.0, -3.729e-08
10569.0, -3.362e-08
10571.0, -3.249e-08
10573.0, -3.175e-08
10575.0, -3.582e-08
10577.0, -2.924e-08
10579.0, -3.037e-08
10581.0, -2.819e-08
10583.0, -3.456e-08
10585.0, -2.984e-08
10587.0, -3.136e-08
10589.0, -3.55e-08
10591.0, -3.082e-08
10593.0, -3.028e-08
10595.0, -3.243e-08
10597.0, -3.435e-08
10599.0, -3.57e-08
10601.0, -3.471e-08
10603.0, -3.49e-08
10605.0, -3.393e-08
10607.0, -3.668e-08
10609.0, -3.587e-08
10611.0, -3.313e-08
10613.0, -3.782e-08
10615.0, -3.659e-08
10617.0, -3.462e-08
10619.0, -3.246e-08
10621.0, -3.651e-08
10623.0, -3.849e-08
10625.0, -3.396e-08
10627.0, -3.483e-08
10629.0, -3.305e-08
10631.0, -3.374e-08
10633.0, -3.552e-08
10635.0, -3.698e-08
10637.0, -3.438e-08
10639.0, -3.289e-08
10641.0, -3.355e-08
10643.0, -3.774e-08
10645.0, -3.411e-08
10647.0, -2.929e-08
10649.0, -2.916e-08
10651.0, -3.274e-08
10653.0, -3.775e-08
10655.0, -3.181e-08
10657.0, -3.104e-08
10659.0, -2.925e-08
10661.0, -3.142e-08
10663.0, -3.541e-08
10665.0, -3.517e-08
10667.0, -3.41e-08
10669.0, -3.174e-08
10671.0, -3.335e-08
10673.0, -3.272e-08
10675.0, -3.398e-08
10677.0, -3.512e-08
10679.0, -3.766e-08
10681.0, -3.601e-08
10683.0, -3.62e-08
10685.0, -3.223e-08
10687.0, -3.064e-08
10689.0, -3.9e-08
10691.0, -3.536e-08
10693.0, -3.17e-08
10695.0, -3.011e-08
10697.0, -2.967e-08
10699.0, -3.323e-08
10701.0, -3.343e-08
10703.0, -3.736e-08
10705.0, -3.221e-08
10707.0, -2.999e-08
10709.0, -3.526e-08
10711.0, -3.29e-08
10713.0, -3.439e-08
10715.0, -3.367e-08
10717.0, -3.485e-08
10719.0, -3.377e-08
10721.0, -3.24e-08
10723.0, -3.578e-08
10725.0, -3.584e-08
10727.0, -3.327e-08
10729.0, -3.156e-08
10731.0, -2.967e-08
10733.0, -3.466e-08
10735.0, -3.123e-08
10737.0, -3.536e-08
10739.0, -3.126e-08
10741.0, -3.301e-08
10743.0, -3.636e-08
10745.0, -3.781e-08
10747.0, -3.723e-08
10749.0, -3.327e-08
10751.0, -3.72e-08
10753.0, -3.361e-08
10755.0, -3.363e-08
10757.0, -3.221e-08
10759.0, -3.292e-08
10761.0, -3.635e-08
10763.0, -3.691e-08
10765.0, -3.383e-08
10767.0, -3.316e-08
10769.0, -3.174e-08
10771.0, -3.18e-08
10773.0, -3.4e-08
10775.0, -3.429e-08
10777.0, -3.474e-08
10779.0, -2.9e-08
10781.0, -3.121e-08
10783.0, -3.532e-08
10785.0, -3.289e-08
10787.0, -3.474e-08
10789.0, -3.244e-08
10791.0, -3.345e-08
10793.0, -3.326e-08
10795.0, -3.441e-08
10797.0, -3.472e-08
10799.0, -3.593e-08
10801.0, -3.396e-08
10803.0, -3.488e-08
10805.0, -3.312e-08
10807.0, -3.416e-08
10809.0, -3.349e-08
10811.0, -3.253e-08
10813.0, -3.393e-08
10815.0, -3.331e-08
10817.0, -3.451e-08
10819.0, -3.282e-08
10821.0, -3.159e-08
10823.0, -3.584e-08
10825.0, -3.554e-08
10827.0, -3.203e-08
10829.0, -3.874e-08
10831.0, -3.75e-08
10833.0, -3.493e-08
10835.0, -3.597e-08
10837.0, -3.377e-08
10839.0, -3.285e-08
10841.0, -3.261e-08
10843.0, -3.228e-08
10845.0, -3.473e-08
10847.0, -3.44e-08
10849.0, -3.064e-08
10851.0, -3.672e-08
10853.0, -3.459e-08
10855.0, -3.428e-08
10857.0, -3.44e-08
10859.0, -3.262e-08
10861.0, -3.332e-08
10863.0, -3.374e-08
10865.0, -3.488e-08
10867.0, -3.25e-08
10869.0, -3.259e-08
10871.0, -3.5e-08
10873.0, -3.463e-08
10875.0, -3.794e-08
10877.0, -3.221e-08
10879.0, -3.404e-08
10881.0, -3.443e-08
10883.0, -3.651e-08
10885.0, -3.554e-08
10887.0, -3.399e-08
10889.0, -3.519e-08
10891.0, -3.208e-08
10893.0, -3.302e-08
10895.0, -3.479e-08
10897.0, -3.133e-08
10899.0, -3.542e-08
10901.0, -3.51e-08
10903.0, -3.206e-08
10905.0, -3.698e-08
10907.0, -3.332e-08
10909.0, -3.18e-08
10911.0, -3.825e-08
10913.0, -3.772e-08
10915.0, -3.821e-08
10917.0, -3.39e-08
10919.0, -3.339e-08
10921.0, -3.075e-08
10923.0, -3.258e-08
10925.0, -3.302e-08
10927.0, -3.548e-08
10929.0, -3.65e-08
10931.0, -3.28e-08
10933.0, -2.985e-08
10935.0, -3.352e-08
10937.0, -2.842e-08
10939.0, -3.034e-08
10941.0, -3.131e-08
10943.0, -3.191e-08
10945.0, -3.059e-08
10947.0, -3.152e-08
10949.0, -2.97e-08
10951.0, -2.92e-08
10953.0, -3.254e-08
10955.0, -2.541e-08
10957.0, -2.997e-08
10959.0, -2.933e-08
10961.0, -2.726e-08
10963.0, -2.715e-08
10965.0, -3.124e-08
10967.0, -3.008e-08
10969.0, -3.146e-08
10971.0, -3.332e-08
10973.0, -3.088e-08
10975.0, -3.229e-08
10977.0, -3.101e-08
10979.0, -2.663e-08
10981.0, -2.708e-08
10983.0, -3.251e-08
10985.0, -2.608e-08
10987.0, -3.023e-08
10989.0, -3.5e-08
10991.0, -3.094e-08
10993.0, -3.281e-08
10995.0, -2.969e-08
10997.0, -3.097e-08
10999.0, -3.196e-08
11001.0, -3.306e-08
11003.0, -3.609e-08
11005.0, -3.224e-08
11007.0, -3.599e-08
11009.0, -3.531e-08
