Time sep (ms?), Current (A)
0.0, -4.227e-08
2.002, -4.485e-08
4.004, -4.198e-08
6.006, -4.153e-08
8.008, -4.089e-08
10.01, -4.001e-08
12.012, -4.18e-08
14.014, -4.429e-08
16.016, -4.172e-08
18.018, -4.115e-08
20.02, -3.911e-08
22.022, -4.106e-08
24.024, -4.132e-08
26.026, -4.235e-08
28.028, -4.139e-08
30.03, -4.585e-08
32.032, -4.1e-08
34.034, -4.088e-08
36.036, -4.049e-08
38.038, -3.922e-08
40.04, -3.866e-08
42.042, -4.291e-08
44.044, -4.032e-08
46.046, -3.987e-08
48.048, -3.989e-08
50.05, -4.511e-08
52.052, -4.822e-08
54.054, -4.384e-08
56.056, -3.936e-08
58.058, -4.209e-08
60.06, -4.255e-08
62.062, -4.567e-08
64.064, -4.276e-08
66.066, -4.205e-08
68.068, -3.842e-08
70.07, -3.793e-08
72.072, -4.103e-08
74.074, -3.995e-08
76.076, -4.198e-08
78.078, -4.006e-08
80.08, -4.05e-08
82.082, -4.059e-08
84.084, -4.014e-08
86.086, -4.21e-08
88.088, -4.408e-08
90.09, -4.453e-08
92.092, -4.477e-08
94.094, -4.335e-08
96.096, -4.236e-08
98.098, -4.291e-08
100.1, -4.161e-08
102.1, -3.965e-08
104.1, -4.136e-08
106.11, -3.79e-08
108.11, -3.831e-08
110.11, -3.757e-08
112.11, -4.037e-08
114.11, -3.832e-08
116.12, -3.957e-08
118.12, -4.122e-08
120.12, -3.871e-08
122.12, -4.031e-08
124.12, -3.887e-08
126.13, -3.712e-08
128.13, -3.826e-08
130.13, -3.684e-08
132.13, -3.769e-08
134.13, -3.864e-08
136.14, -3.569e-08
138.14, -3.848e-08
140.14, -3.752e-08
142.14, -3.784e-08
144.14, -3.977e-08
146.15, -3.676e-08
148.15, -3.934e-08
150.15, -4.004e-08
152.15, -4.186e-08
154.15, -4.061e-08
156.16, -4.128e-08
158.16, -3.652e-08
160.16, -3.785e-08
162.16, -4.023e-08
164.16, -4.111e-08
166.17, -4.052e-08
168.17, -3.931e-08
170.17, -3.745e-08
172.17, -3.862e-08
174.17, -3.854e-08
176.18, -4.098e-08
178.18, -3.63e-08
180.18, -4.184e-08
182.18, -3.868e-08
184.18, -3.565e-08
186.19, -3.686e-08
188.19, -3.628e-08
190.19, -3.465e-08
192.19, -3.468e-08
194.19, -3.916e-08
196.2, -3.82e-08
198.2, -3.648e-08
200.2, -3.464e-08
202.2, -3.364e-08
204.2, -3.672e-08
206.21, -3.469e-08
208.21, -3.524e-08
210.21, -3.566e-08
212.21, -3.754e-08
214.21, -3.552e-08
216.22, -3.574e-08
218.22, -3.727e-08
220.22, -3.533e-08
222.22, -3.881e-08
224.22, -3.96e-08
226.23, -3.49e-08
228.23, -3.369e-08
230.23, -3.352e-08
232.23, -3.791e-08
234.23, -3.664e-08
236.24, -3.802e-08
238.24, -3.974e-08
240.24, -3.656e-08
242.24, -3.857e-08
244.24, -3.726e-08
246.25, -3.721e-08
248.25, -3.894e-08
250.25, -3.632e-08
252.25, -4.129e-08
254.25, -3.621e-08
256.26, -3.805e-08
258.26, -3.69e-08
260.26, -3.848e-08
262.26, -3.802e-08
264.26, -3.807e-08
266.27, -3.626e-08
268.27, -3.763e-08
270.27, -3.529e-08
272.27, -3.539e-08
274.27, -3.998e-08
276.28, -3.835e-08
278.28, -3.539e-08
280.28, -3.684e-08
282.28, -3.909e-08
284.28, -3.758e-08
286.29, -3.816e-08
288.29, -3.712e-08
290.29, -3.422e-08
292.29, -3.741e-08
294.29, -3.785e-08
296.3, -3.721e-08
298.3, -3.707e-08
300.3, -3.38e-08
302.3, -3.518e-08
304.3, -3.726e-08
306.31, -3.669e-08
308.31, -3.863e-08
310.31, -3.825e-08
312.31, -3.441e-08
314.31, -3.731e-08
316.32, -3.929e-08
318.32, -3.793e-08
320.32, -3.803e-08
322.32, -3.714e-08
324.32, -3.937e-08
326.33, -3.568e-08
328.33, -3.669e-08
330.33, -3.611e-08
332.33, -3.638e-08
334.33, -3.936e-08
336.34, -4.007e-08
338.34, -3.871e-08
340.34, -3.912e-08
342.34, -4.034e-08
344.34, -3.618e-08
346.35, -3.472e-08
348.35, -3.312e-08
350.35, -3.423e-08
352.35, -3.558e-08
354.35, -3.712e-08
356.36, -3.417e-08
358.36, -3.722e-08
360.36, -3.897e-08
362.36, -3.869e-08
364.36, -3.819e-08
366.37, -3.637e-08
368.37, -3.474e-08
370.37, -3.586e-08
372.37, -3.295e-08
374.37, -3.21e-08
376.38, -3.074e-08
378.38, -3.768e-08
380.38, -3.434e-08
382.38, -3.542e-08
384.38, -3.337e-08
386.39, -3.358e-08
388.39, -3.488e-08
390.39, -3.679e-08
392.39, -3.637e-08
394.39, -3.328e-08
396.4, -3.651e-08
398.4, -3.48e-08
400.4, -3.595e-08
402.4, -3.41e-08
404.4, -3.452e-08
406.41, -3.939e-08
408.41, -4.038e-08
410.41, -3.869e-08
412.41, -3.279e-08
414.41, -3.495e-08
416.42, -3.382e-08
418.42, -3.281e-08
420.42, -3.123e-08
422.42, -3.725e-08
424.42, -3.389e-08
426.43, -3.849e-08
428.43, -3.697e-08
430.43, -3.656e-08
432.43, -3.558e-08
434.43, -3.77e-08
436.44, -3.689e-08
438.44, -3.905e-08
440.44, -4.063e-08
442.44, -3.796e-08
444.44, -3.335e-08
446.45, -3.916e-08
448.45, -3.552e-08
450.45, -3.623e-08
452.45, -3.755e-08
454.45, -3.694e-08
456.46, -3.717e-08
458.46, -3.697e-08
460.46, -3.82e-08
462.46, -3.921e-08
464.46, -3.738e-08
466.47, -3.825e-08
468.47, -3.489e-08
470.47, -3.875e-08
472.47, -3.833e-08
474.47, -3.862e-08
476.48, -3.592e-08
478.48, -3.616e-08
480.48, -3.714e-08
482.48, -3.577e-08
484.48, -3.756e-08
486.49, -3.94e-08
488.49, -4.054e-08
490.49, -3.857e-08
492.49, -4.093e-08
494.49, -3.651e-08
496.5, -3.663e-08
498.5, -4.116e-08
500.5, -3.791e-08
502.5, -3.851e-08
504.5, -4.059e-08
506.51, -3.764e-08
508.51, -3.857e-08
510.51, -3.902e-08
512.51, -3.768e-08
514.51, -3.911e-08
516.52, -3.547e-08
518.52, -3.93e-08
520.52, -3.701e-08
522.52, -3.637e-08
524.52, -3.239e-08
526.53, -3.404e-08
528.53, -3.37e-08
530.53, -3.475e-08
532.53, -3.671e-08
534.53, -3.706e-08
536.54, -3.639e-08
538.54, -3.496e-08
540.54, -3.723e-08
542.54, -3.593e-08
544.54, -3.03e-08
546.55, -3.321e-08
548.55, -3.21e-08
550.55, -3.313e-08
552.55, -3.174e-08
554.55, -2.677e-08
556.56, -2.809e-08
558.56, -2.961e-08
560.56, -3.219e-08
562.56, -3.028e-08
564.56, -2.902e-08
566.57, -3.263e-08
568.57, -3.424e-08
570.57, -3.353e-08
572.57, -3.006e-08
574.57, -3.329e-08
576.58, -3.346e-08
578.58, -3.302e-08
580.58, -3.552e-08
582.58, -3.176e-08
584.58, -3.573e-08
586.59, -3.395e-08
588.59, -3.086e-08
590.59, -3.24e-08
592.59, -3.58e-08
594.59, -3.572e-08
596.6, -3.34e-08
598.6, -3.561e-08
600.6, -3.323e-08
602.6, -3.473e-08
604.6, -3.493e-08
606.61, -3.602e-08
608.61, -3.446e-08
610.61, -3.338e-08
612.61, -3.497e-08
614.61, -3.337e-08
616.62, -3.492e-08
618.62, -3.423e-08
620.62, -3.199e-08
622.62, -3.34e-08
624.62, -3.501e-08
626.63, -3.843e-08
628.63, -3.242e-08
630.63, -3.505e-08
632.63, -3.554e-08
634.63, -3.337e-08
636.64, -3.403e-08
638.64, -3.453e-08
640.64, -3.842e-08
642.64, -3.522e-08
644.64, -3.412e-08
646.65, -3.189e-08
648.65, -3.552e-08
650.65, -3.637e-08
652.65, -3.509e-08
654.65, -3.846e-08
656.66, -3.399e-08
658.66, -3.452e-08
660.66, -3.468e-08
662.66, -3.399e-08
664.66, -3.417e-08
666.67, -3.811e-08
668.67, -3.79e-08
670.67, -3.58e-08
672.67, -3.748e-08
674.67, -3.796e-08
676.68, -3.839e-08
678.68, -3.697e-08
680.68, -3.343e-08
682.68, -4.174e-08
684.68, -4.042e-08
686.69, -3.765e-08
688.69, -3.985e-08
690.69, -3.908e-08
692.69, -3.988e-08
694.69, -4.043e-08
696.7, -3.816e-08
698.7, -3.513e-08
700.7, -3.376e-08
702.7, -3.628e-08
704.7, -3.405e-08
706.71, -3.553e-08
708.71, -3.638e-08
710.71, -3.28e-08
712.71, -3.775e-08
714.71, -3.559e-08
716.72, -3.941e-08
718.72, -3.653e-08
720.72, -3.738e-08
722.72, -3.747e-08
724.72, -3.489e-08
726.73, -4.099e-08
728.73, -3.492e-08
730.73, -4.15e-08
732.73, -3.828e-08
734.73, -3.495e-08
736.74, -4.016e-08
738.74, -3.823e-08
740.74, -3.752e-08
742.74, -4.138e-08
744.74, -3.981e-08
746.75, -3.962e-08
748.75, -4.07e-08
750.75, -4.07e-08
752.75, -4.057e-08
754.75, -3.937e-08
756.76, -3.957e-08
758.76, -3.881e-08
760.76, -3.981e-08
762.76, -3.693e-08
764.76, -3.856e-08
766.77, -4.154e-08
768.77, -3.667e-08
770.77, -3.423e-08
772.77, -3.815e-08
774.77, -3.755e-08
776.78, -3.813e-08
778.78, -3.752e-08
780.78, -3.985e-08
782.78, -3.912e-08
784.78, -3.652e-08
786.79, -3.938e-08
788.79, -4.073e-08
790.79, -4.082e-08
792.79, -3.898e-08
794.79, -4.065e-08
796.8, -3.826e-08
798.8, -4.016e-08
800.8, -4.157e-08
802.8, -4.157e-08
804.8, -3.962e-08
806.81, -3.861e-08
808.81, -3.726e-08
810.81, -4.103e-08
812.81, -3.975e-08
814.81, -4.267e-08
816.82, -4.354e-08
818.82, -3.995e-08
820.82, -4.123e-08
822.82, -4.523e-08
824.82, -4.086e-08
826.83, -4.359e-08
828.83, -3.904e-08
830.83, -4.318e-08
832.83, -4.049e-08
834.83, -4.058e-08
836.84, -3.809e-08
838.84, -3.843e-08
840.84, -3.619e-08
842.84, -4.173e-08
844.84, -4.046e-08
846.85, -3.924e-08
848.85, -3.943e-08
850.85, -4.118e-08
852.85, -4.044e-08
854.85, -4.27e-08
856.86, -4.274e-08
858.86, -3.853e-08
860.86, -3.575e-08
862.86, -3.561e-08
864.86, -3.709e-08
866.87, -3.636e-08
868.87, -3.782e-08
870.87, -3.712e-08
872.87, -3.696e-08
874.87, -3.797e-08
876.88, -4.103e-08
878.88, -4.241e-08
880.88, -3.872e-08
882.88, -3.942e-08
884.88, -4.012e-08
886.89, -3.721e-08
888.89, -3.976e-08
890.89, -4.247e-08
892.89, -4.445e-08
894.89, -4.046e-08
896.9, -3.719e-08
898.9, -3.852e-08
900.9, -3.921e-08
902.9, -3.965e-08
904.9, -3.858e-08
906.91, -3.871e-08
908.91, -3.548e-08
910.91, -3.878e-08
912.91, -4.164e-08
914.91, -4.109e-08
916.92, -3.633e-08
918.92, -3.47e-08
920.92, -3.753e-08
922.92, -3.894e-08
924.92, -3.715e-08
926.93, -3.598e-08
928.93, -3.865e-08
930.93, -3.311e-08
932.93, -3.904e-08
934.93, -3.883e-08
936.94, -3.907e-08
938.94, -3.693e-08
940.94, -3.868e-08
942.94, -3.754e-08
944.94, -3.563e-08
946.95, -3.788e-08
948.95, -3.753e-08
950.95, -3.785e-08
952.95, -3.611e-08
954.95, -3.931e-08
956.96, -3.729e-08
958.96, -3.66e-08
960.96, -3.851e-08
962.96, -3.427e-08
964.96, -3.485e-08
966.97, -3.229e-08
968.97, -3.837e-08
970.97, -3.489e-08
972.97, -3.669e-08
974.97, -3.636e-08
976.98, -3.839e-08
978.98, -3.79e-08
980.98, -3.865e-08
982.98, -3.887e-08
984.98, -3.663e-08
986.99, -3.545e-08
988.99, -3.852e-08
990.99, -3.797e-08
992.99, -3.912e-08
994.99, -3.549e-08
997.0, -3.718e-08
999.0, -3.531e-08
1001.0, -3.585e-08
1003.0, -3.658e-08
1005.0, -3.676e-08
1007.0, -3.969e-08
1009.0, -3.666e-08
1011.0, -3.81e-08
1013.0, -3.514e-08
1015.0, -3.748e-08
1017.0, -3.485e-08
1019.0, -3.684e-08
1021.0, -3.621e-08
1023.0, -3.891e-08
1025.0, -3.526e-08
1027.0, -4.169e-08
1029.0, -4.052e-08
1031.0, -4.223e-08
1033.0, -4.015e-08
1035.0, -3.798e-08
1037.0, -3.92e-08
1039.0, -4.011e-08
1041.0, -4.244e-08
1043.0, -4.19e-08
1045.0, -4.12e-08
1047.0, -4.218e-08
1049.0, -4.433e-08
1051.0, -4.199e-08
1053.1, -4.764e-08
1055.1, -4.45e-08
1057.1, -4.822e-08
1059.1, -4.444e-08
1061.1, -4.482e-08
1063.1, -4.539e-08
1065.1, -4.086e-08
1067.1, -4.12e-08
1069.1, -4.47e-08
1071.1, -4.613e-08
1073.1, -4.409e-08
1075.1, -4.452e-08
1077.1, -4.312e-08
1079.1, -4.354e-08
1081.1, -4.51e-08
1083.1, -4.478e-08
1085.1, -4.422e-08
1087.1, -4.364e-08
1089.1, -4.526e-08
1091.1, -4.722e-08
1093.1, -4.367e-08
1095.1, -4.656e-08
1097.1, -4.531e-08
1099.1, -4.367e-08
1101.1, -4.23e-08
1103.1, -4.199e-08
1105.1, -4.434e-08
1107.1, -3.742e-08
1109.1, -4.141e-08
1111.1, -3.954e-08
1113.1, -4.322e-08
1115.1, -4.642e-08
1117.1, -4.21e-08
1119.1, -4.265e-08
1121.1, -4.239e-08
1123.1, -4.019e-08
1125.1, -4.229e-08
1127.1, -4.049e-08
1129.1, -4.129e-08
1131.1, -4.348e-08
1133.1, -4.306e-08
1135.1, -4.242e-08
1137.1, -4.386e-08
1139.1, -3.956e-08
1141.1, -4.362e-08
1143.1, -4.265e-08
1145.1, -4.677e-08
1147.1, -4.09e-08
1149.1, -4.37e-08
1151.1, -4.229e-08
1153.2, -4.116e-08
1155.2, -3.946e-08
1157.2, -4.172e-08
1159.2, -3.782e-08
1161.2, -4.173e-08
1163.2, -3.994e-08
1165.2, -3.947e-08
1167.2, -4.229e-08
1169.2, -3.492e-08
1171.2, -3.696e-08
1173.2, -4.24e-08
1175.2, -4.386e-08
1177.2, -3.937e-08
1179.2, -4.204e-08
1181.2, -4.304e-08
1183.2, -4.115e-08
1185.2, -4.018e-08
1187.2, -4.383e-08
1189.2, -4.395e-08
1191.2, -4.133e-08
1193.2, -4.167e-08
1195.2, -4.405e-08
1197.2, -4.428e-08
1199.2, -4.462e-08
1201.2, -4.021e-08
1203.2, -4.092e-08
1205.2, -4.28e-08
1207.2, -3.939e-08
1209.2, -3.753e-08
1211.2, -4.385e-08
1213.2, -4.15e-08
1215.2, -3.942e-08
1217.2, -3.95e-08
1219.2, -4.014e-08
1221.2, -4.367e-08
1223.2, -4.166e-08
1225.2, -4.054e-08
1227.2, -3.924e-08
1229.2, -4.047e-08
1231.2, -4.058e-08
1233.2, -3.8e-08
1235.2, -4.1e-08
1237.2, -3.823e-08
1239.2, -3.832e-08
1241.2, -3.854e-08
1243.2, -3.75e-08
1245.2, -4.234e-08
1247.2, -3.821e-08
1249.2, -3.954e-08
1251.2, -3.862e-08
1253.3, -3.872e-08
1255.3, -3.959e-08
1257.3, -3.586e-08
1259.3, -3.759e-08
1261.3, -3.521e-08
1263.3, -3.979e-08
1265.3, -3.783e-08
1267.3, -3.839e-08
1269.3, -4.197e-08
1271.3, -4.092e-08
1273.3, -4.117e-08
1275.3, -3.977e-08
1277.3, -4.061e-08
1279.3, -4.249e-08
1281.3, -4.174e-08
1283.3, -4.066e-08
1285.3, -3.916e-08
1287.3, -3.736e-08
1289.3, -4.236e-08
1291.3, -4.012e-08
1293.3, -3.865e-08
1295.3, -3.846e-08
1297.3, -3.718e-08
1299.3, -3.883e-08
1301.3, -3.599e-08
1303.3, -3.839e-08
1305.3, -3.687e-08
1307.3, -3.191e-08
1309.3, -3.293e-08
1311.3, -3.316e-08
1313.3, -3.755e-08
1315.3, -3.772e-08
1317.3, -3.306e-08
1319.3, -3.602e-08
1321.3, -3.786e-08
1323.3, -3.875e-08
1325.3, -3.8e-08
1327.3, -3.962e-08
1329.3, -4.071e-08
1331.3, -3.877e-08
1333.3, -4.246e-08
1335.3, -4.134e-08
1337.3, -4.063e-08
1339.3, -3.811e-08
1341.3, -4.339e-08
1343.3, -4.159e-08
1345.3, -3.909e-08
1347.3, -4.07e-08
1349.3, -3.982e-08
1351.3, -3.878e-08
1353.4, -4.025e-08
1355.4, -4.058e-08
1357.4, -3.802e-08
1359.4, -4.094e-08
1361.4, -4.059e-08
1363.4, -4.259e-08
1365.4, -4.039e-08
1367.4, -4.221e-08
1369.4, -3.752e-08
1371.4, -3.953e-08
1373.4, -4.244e-08
1375.4, -3.779e-08
1377.4, -4.091e-08
1379.4, -3.903e-08
1381.4, -4.527e-08
1383.4, -4e-08
1385.4, -4.177e-08
1387.4, -3.811e-08
1389.4, -3.638e-08
1391.4, -3.723e-08
1393.4, -4.23e-08
1395.4, -3.355e-08
1397.4, -3.467e-08
1399.4, -3.733e-08
1401.4, -3.728e-08
1403.4, -3.712e-08
1405.4, -4.178e-08
1407.4, -3.782e-08
1409.4, -4.273e-08
1411.4, -4.049e-08
1413.4, -4.17e-08
1415.4, -3.803e-08
1417.4, -3.554e-08
1419.4, -3.823e-08
1421.4, -3.785e-08
1423.4, -3.521e-08
1425.4, -3.515e-08
1427.4, -3.385e-08
1429.4, -3.411e-08
1431.4, -3.637e-08
1433.4, -3.647e-08
1435.4, -3.765e-08
1437.4, -3.982e-08
1439.4, -3.664e-08
1441.4, -3.986e-08
1443.4, -3.882e-08
1445.4, -3.875e-08
1447.4, -4.108e-08
1449.4, -3.795e-08
1451.4, -3.855e-08
1453.5, -3.708e-08
1455.5, -3.833e-08
1457.5, -4.093e-08
1459.5, -3.878e-08
1461.5, -3.828e-08
1463.5, -4.051e-08
1465.5, -3.587e-08
1467.5, -3.626e-08
1469.5, -3.739e-08
1471.5, -3.905e-08
1473.5, -3.846e-08
1475.5, -3.653e-08
1477.5, -3.696e-08
1479.5, -3.747e-08
1481.5, -3.719e-08
1483.5, -3.827e-08
1485.5, -4.053e-08
1487.5, -3.789e-08
1489.5, -3.863e-08
1491.5, -4.279e-08
1493.5, -4.226e-08
1495.5, -4.006e-08
1497.5, -3.781e-08
1499.5, -3.946e-08
1501.5, -3.918e-08
1503.5, -3.786e-08
1505.5, -4.032e-08
1507.5, -3.804e-08
1509.5, -3.924e-08
1511.5, -3.616e-08
1513.5, -3.995e-08
1515.5, -4.071e-08
1517.5, -3.814e-08
1519.5, -3.78e-08
1521.5, -3.783e-08
1523.5, -4.05e-08
1525.5, -4.161e-08
1527.5, -3.914e-08
1529.5, -3.692e-08
1531.5, -4.061e-08
1533.5, -3.788e-08
1535.5, -4e-08
1537.5, -3.803e-08
1539.5, -3.575e-08
1541.5, -3.896e-08
1543.5, -3.741e-08
1545.5, -4.122e-08
1547.5, -4.307e-08
1549.5, -4.173e-08
1551.5, -4.269e-08
1553.6, -3.763e-08
1555.6, -4.114e-08
1557.6, -4.119e-08
1559.6, -3.961e-08
1561.6, -4.144e-08
1563.6, -3.597e-08
1565.6, -4.172e-08
1567.6, -3.916e-08
1569.6, -3.909e-08
1571.6, -4.036e-08
1573.6, -3.821e-08
1575.6, -3.995e-08
1577.6, -3.989e-08
1579.6, -4.038e-08
1581.6, -4.209e-08
1583.6, -4.069e-08
1585.6, -4.119e-08
1587.6, -4.296e-08
1589.6, -3.992e-08
1591.6, -3.982e-08
1593.6, -3.766e-08
1595.6, -3.981e-08
1597.6, -3.903e-08
1599.6, -4.081e-08
1601.6, -3.902e-08
1603.6, -4.334e-08
1605.6, -4.279e-08
1607.6, -3.922e-08
1609.6, -3.818e-08
1611.6, -4.316e-08
1613.6, -4.119e-08
1615.6, -3.989e-08
1617.6, -3.534e-08
1619.6, -3.759e-08
1621.6, -4.034e-08
1623.6, -4.05e-08
1625.6, -4.073e-08
1627.6, -4.198e-08
1629.6, -3.938e-08
1631.6, -3.92e-08
1633.6, -4.382e-08
1635.6, -4.195e-08
1637.6, -3.797e-08
1639.6, -3.816e-08
1641.6, -4.247e-08
1643.6, -4.065e-08
1645.6, -3.793e-08
1647.6, -3.804e-08
1649.6, -4.038e-08
1651.6, -3.974e-08
1653.7, -4.014e-08
1655.7, -3.687e-08
1657.7, -3.72e-08
1659.7, -3.568e-08
1661.7, -3.857e-08
1663.7, -3.5e-08
1665.7, -3.943e-08
1667.7, -3.822e-08
1669.7, -3.715e-08
1671.7, -3.71e-08
1673.7, -3.853e-08
1675.7, -3.896e-08
1677.7, -3.798e-08
1679.7, -4.166e-08
1681.7, -3.919e-08
1683.7, -3.917e-08
1685.7, -4.038e-08
1687.7, -3.815e-08
1689.7, -3.875e-08
1691.7, -4.091e-08
1693.7, -4.161e-08
1695.7, -3.823e-08
1697.7, -4.212e-08
1699.7, -4.216e-08
1701.7, -3.887e-08
1703.7, -4.191e-08
1705.7, -3.784e-08
1707.7, -3.813e-08
1709.7, -3.812e-08
1711.7, -3.694e-08
1713.7, -3.435e-08
1715.7, -3.768e-08
1717.7, -3.944e-08
1719.7, -3.803e-08
1721.7, -3.746e-08
1723.7, -3.572e-08
1725.7, -3.713e-08
1727.7, -3.649e-08
1729.7, -3.594e-08
1731.7, -3.595e-08
1733.7, -4.209e-08
1735.7, -3.826e-08
1737.7, -3.763e-08
1739.7, -3.746e-08
1741.7, -3.551e-08
1743.7, -3.795e-08
1745.7, -3.372e-08
1747.7, -3.561e-08
1749.7, -3.625e-08
1751.7, -3.806e-08
1753.8, -3.644e-08
1755.8, -3.549e-08
1757.8, -3.815e-08
1759.8, -3.669e-08
1761.8, -3.671e-08
1763.8, 2.4882e-06
1765.8, 5.0316e-06
1767.8, 4.9916e-06
1769.8, 5.0065e-06
1771.8, 5.1373e-06
1773.8, 4.9118e-06
1775.8, 5.0689e-06
1777.8, 5.0273e-06
1779.8, 5.0579e-06
1781.8, 4.9947e-06
1783.8, 5.0283e-06
1785.8, 5.034e-06
1787.8, 4.9526e-06
1789.8, 4.9343e-06
1791.8, 4.9769e-06
1793.8, 4.9893e-06
1795.8, 5.11e-06
1797.8, 4.9886e-06
1799.8, 5.0194e-06
1801.8, 4.8993e-06
1803.8, 4.9779e-06
1805.8, 5.0247e-06
1807.8, 5.0313e-06
1809.8, 4.9995e-06
1811.8, 4.9697e-06
1813.8, 5.0215e-06
1815.8, 5.1173e-06
1817.8, 5.0761e-06
1819.8, 5.0653e-06
1821.8, 5.1001e-06
1823.8, 5.1473e-06
1825.8, 5.0919e-06
1827.8, 4.92e-06
1829.8, 5.1955e-06
1831.8, 5.0671e-06
1833.8, 4.9963e-06
1835.8, 5.0607e-06
1837.8, 5.1442e-06
1839.8, 4.9725e-06
1841.8, 5.0676e-06
1843.8, 5.0191e-06
1845.8, 5.0992e-06
1847.8, 5.0202e-06
1849.8, 5.052e-06
1851.8, 5.1413e-06
1853.9, 5.1385e-06
1855.9, 5.1258e-06
1857.9, 5.0211e-06
1859.9, 5.0573e-06
1861.9, 4.9833e-06
1863.9, 4.9953e-06
1865.9, 5.0072e-06
1867.9, 5.0824e-06
1869.9, 5.0184e-06
1871.9, 5.1562e-06
1873.9, 5.116e-06
1875.9, 5.0739e-06
1877.9, 5.0862e-06
1879.9, 4.9047e-06
1881.9, 5.2531e-06
1883.9, 5.0874e-06
1885.9, 5.1591e-06
1887.9, 5.0478e-06
1889.9, 5.094e-06
1891.9, 5.1357e-06
1893.9, 5.0911e-06
1895.9, 5.0522e-06
1897.9, 5.1994e-06
1899.9, 5.0575e-06
1901.9, 5.108e-06
1903.9, 4.9953e-06
1905.9, 5.0121e-06
1907.9, 5.0914e-06
1909.9, 5.0995e-06
1911.9, 5.1591e-06
1913.9, 5.0278e-06
1915.9, 5.0148e-06
1917.9, 5.1348e-06
1919.9, 5.1484e-06
1921.9, 5.0959e-06
1923.9, 5.013e-06
1925.9, 5.112e-06
1927.9, 4.9941e-06
1929.9, 5.1438e-06
1931.9, 5.042e-06
1933.9, 5.1396e-06
1935.9, 5.1449e-06
1937.9, 5.2017e-06
1939.9, 5.1958e-06
1941.9, 5.194e-06
1943.9, 5.2038e-06
1945.9, 5.1991e-06
1947.9, 5.0895e-06
1949.9, 5.1455e-06
1951.9, 5.1118e-06
1954.0, 5.09e-06
1956.0, 5.105e-06
1958.0, 4.9574e-06
1960.0, 5.0794e-06
1962.0, 5.0648e-06
1964.0, 5.0723e-06
1966.0, 5.1042e-06
1968.0, 5.0779e-06
1970.0, 5.0442e-06
1972.0, 5.2345e-06
1974.0, 5.1921e-06
1976.0, 5.0793e-06
1978.0, 5.089e-06
1980.0, 5.1482e-06
1982.0, 5.1514e-06
1984.0, 5.0734e-06
1986.0, 5.228e-06
1988.0, 5.0705e-06
1990.0, 5.1062e-06
1992.0, 5.1278e-06
1994.0, 4.9556e-06
1996.0, 5.0577e-06
1998.0, 5.1594e-06
2000.0, 5.1073e-06
2002.0, 5.255e-06
2004.0, 5.2215e-06
2006.0, 5.1262e-06
2008.0, 5.1648e-06
2010.0, 5.2392e-06
2012.0, 5.1199e-06
2014.0, 5.1848e-06
2016.0, 5.1669e-06
2018.0, 5.2194e-06
2020.0, 5.1843e-06
2022.0, 5.1976e-06
2024.0, 5.0797e-06
2026.0, 5.1624e-06
2028.0, 5.0716e-06
2030.0, 5.101e-06
2032.0, 5.1513e-06
2034.0, 5.0743e-06
2036.0, 5.1482e-06
2038.0, 5.2253e-06
2040.0, 5.2081e-06
2042.0, 5.2232e-06
2044.0, 5.1673e-06
2046.0, 5.1736e-06
2048.0, 5.136e-06
2050.0, 5.2467e-06
2052.0, 5.2967e-06
2054.1, 5.0506e-06
2056.1, 5.2589e-06
2058.1, 5.179e-06
2060.1, 5.1961e-06
2062.1, 5.2243e-06
2064.1, 5.1174e-06
2066.1, 5.1781e-06
2068.1, 5.2929e-06
2070.1, 5.1388e-06
2072.1, 5.2553e-06
2074.1, 5.0955e-06
2076.1, 5.1594e-06
2078.1, 5.2818e-06
2080.1, 5.2686e-06
2082.1, 5.1523e-06
2084.1, 5.1519e-06
2086.1, 5.1594e-06
2088.1, 5.1894e-06
2090.1, 5.0946e-06
2092.1, 5.2149e-06
2094.1, 5.1504e-06
2096.1, 5.0369e-06
2098.1, 5.1196e-06
2100.1, 5.1943e-06
2102.1, 5.2027e-06
2104.1, 5.0628e-06
2106.1, 5.188e-06
2108.1, 5.133e-06
2110.1, 5.1644e-06
2112.1, 5.0933e-06
2114.1, 5.2095e-06
2116.1, 5.1932e-06
2118.1, 5.1309e-06
2120.1, 5.1775e-06
2122.1, 5.2491e-06
2124.1, 5.3054e-06
2126.1, 5.2393e-06
2128.1, 5.1922e-06
2130.1, 5.1948e-06
2132.1, 5.1771e-06
2134.1, 5.0939e-06
2136.1, 5.0193e-06
2138.1, 5.0675e-06
2140.1, 5.1096e-06
2142.1, 5.1746e-06
2144.1, 5.2071e-06
2146.1, 5.1114e-06
2148.1, 5.2036e-06
2150.1, 5.1907e-06
2152.1, 5.1769e-06
2154.2, 5.0298e-06
2156.2, 5.1136e-06
2158.2, 5.0819e-06
2160.2, 5.2727e-06
2162.2, 5.1276e-06
2164.2, 5.1366e-06
2166.2, 5.2827e-06
2168.2, 5.1377e-06
2170.2, 5.2171e-06
2172.2, 5.0659e-06
2174.2, 5.1698e-06
2176.2, 5.1664e-06
2178.2, 5.0192e-06
2180.2, 5.2068e-06
2182.2, 5.2487e-06
2184.2, 5.1076e-06
2186.2, 5.205e-06
2188.2, 5.2173e-06
2190.2, 5.1082e-06
2192.2, 5.2093e-06
2194.2, 5.1233e-06
2196.2, 5.1438e-06
2198.2, 5.2182e-06
2200.2, 5.0212e-06
2202.2, 5.2449e-06
2204.2, 5.2055e-06
2206.2, 5.1268e-06
2208.2, 5.1198e-06
2210.2, 5.1704e-06
2212.2, 5.0854e-06
2214.2, 5.246e-06
2216.2, 5.0559e-06
2218.2, 5.1893e-06
2220.2, 5.1993e-06
2222.2, 5.1744e-06
2224.2, 5.0352e-06
2226.2, 5.1277e-06
2228.2, 5.2764e-06
2230.2, 5.1218e-06
2232.2, 5.1507e-06
2234.2, 5.0731e-06
2236.2, 5.2756e-06
2238.2, 5.1922e-06
2240.2, 5.1891e-06
2242.2, 5.1244e-06
2244.2, 5.0718e-06
2246.2, 5.1424e-06
2248.2, 5.2755e-06
2250.2, 5.2266e-06
2252.2, 5.1775e-06
2254.3, 5.1886e-06
2256.3, 5.0815e-06
2258.3, 5.1967e-06
2260.3, 5.153e-06
2262.3, 5.1247e-06
2264.3, 5.1936e-06
2266.3, 5.1659e-06
2268.3, 5.154e-06
2270.3, 5.1004e-06
2272.3, 5.1907e-06
2274.3, 5.1143e-06
2276.3, 5.1424e-06
2278.3, 5.1793e-06
2280.3, 5.1729e-06
2282.3, 5.1981e-06
2284.3, 5.1698e-06
2286.3, 5.1769e-06
2288.3, 5.0954e-06
2290.3, 5.2812e-06
2292.3, 5.2253e-06
2294.3, 5.2453e-06
2296.3, 5.1271e-06
2298.3, 5.1259e-06
2300.3, 5.1463e-06
2302.3, 5.1994e-06
2304.3, 5.2065e-06
2306.3, 5.2055e-06
2308.3, 5.0612e-06
2310.3, 5.1902e-06
2312.3, 5.1962e-06
2314.3, 5.205e-06
2316.3, 5.1635e-06
2318.3, 5.2016e-06
2320.3, 5.1976e-06
2322.3, 5.1415e-06
2324.3, 5.333e-06
2326.3, 5.236e-06
2328.3, 5.1716e-06
2330.3, 5.1804e-06
2332.3, 5.0627e-06
2334.3, 5.2964e-06
2336.3, 5.0411e-06
2338.3, 5.2001e-06
2340.3, 5.223e-06
2342.3, 5.1667e-06
2344.3, 5.0773e-06
2346.3, 5.1516e-06
2348.3, 5.1211e-06
2350.3, 5.1184e-06
2352.3, 5.2006e-06
2354.4, 5.1199e-06
2356.4, 5.2012e-06
2358.4, 5.1824e-06
2360.4, 5.3406e-06
2362.4, 5.1536e-06
2364.4, 5.1476e-06
2366.4, 5.1595e-06
2368.4, 5.1821e-06
2370.4, 5.1737e-06
2372.4, 5.207e-06
2374.4, 5.2202e-06
2376.4, 5.1936e-06
2378.4, 5.142e-06
2380.4, 5.2279e-06
2382.4, 5.3136e-06
2384.4, 5.1597e-06
2386.4, 5.1187e-06
2388.4, 5.1572e-06
2390.4, 5.1087e-06
2392.4, 5.1903e-06
2394.4, 5.2458e-06
2396.4, 5.0652e-06
2398.4, 5.2332e-06
2400.4, 5.1388e-06
2402.4, 5.2187e-06
2404.4, 5.0056e-06
2406.4, 5.1805e-06
2408.4, 5.1703e-06
2410.4, 5.1706e-06
2412.4, 5.2905e-06
2414.4, 5.2339e-06
2416.4, 5.2192e-06
2418.4, 5.1987e-06
2420.4, 5.2492e-06
2422.4, 5.2853e-06
2424.4, 5.2534e-06
2426.4, 5.1492e-06
2428.4, 5.095e-06
2430.4, 5.151e-06
2432.4, 5.2216e-06
2434.4, 5.1936e-06
2436.4, 5.1992e-06
2438.4, 5.1992e-06
2440.4, 5.1045e-06
2442.4, 5.1597e-06
2444.4, 5.2098e-06
2446.4, 5.1664e-06
2448.4, 5.1341e-06
2450.4, 5.1853e-06
2452.4, 5.1785e-06
2454.5, 5.1135e-06
2456.5, 5.0994e-06
2458.5, 5.2058e-06
2460.5, 5.24e-06
2462.5, 5.2068e-06
2464.5, 5.1848e-06
2466.5, 5.2171e-06
2468.5, 5.2824e-06
2470.5, 5.1939e-06
2472.5, 5.178e-06
2474.5, 5.1131e-06
2476.5, 5.2129e-06
2478.5, 5.2566e-06
2480.5, 5.044e-06
2482.5, 5.1707e-06
2484.5, 5.3224e-06
2486.5, 5.1778e-06
2488.5, 5.2792e-06
2490.5, 5.1999e-06
2492.5, 5.1677e-06
2494.5, 5.0907e-06
2496.5, 5.2333e-06
2498.5, 5.0484e-06
2500.5, 5.1097e-06
2502.5, 5.2506e-06
2504.5, 5.241e-06
2506.5, 5.2456e-06
2508.5, 5.2401e-06
2510.5, 5.2305e-06
2512.5, 5.2278e-06
2514.5, 5.113e-06
2516.5, 5.0992e-06
2518.5, 5.0731e-06
2520.5, 5.1243e-06
2522.5, 5.2009e-06
2524.5, 5.172e-06
2526.5, 5.1866e-06
2528.5, 5.0947e-06
2530.5, 5.2384e-06
2532.5, 5.2026e-06
2534.5, 5.1894e-06
2536.5, 5.227e-06
2538.5, 5.1677e-06
2540.5, 5.2815e-06
2542.5, 5.1938e-06
2544.5, 5.1465e-06
2546.5, 5.2873e-06
2548.5, 5.1329e-06
2550.5, 5.1011e-06
2552.5, 5.209e-06
2554.6, 5.1741e-06
2556.6, 5.2117e-06
2558.6, 5.2098e-06
2560.6, 5.2106e-06
2562.6, 5.2106e-06
2564.6, 5.2144e-06
2566.6, 5.32e-06
2568.6, 5.239e-06
2570.6, 5.3105e-06
2572.6, 5.2573e-06
2574.6, 5.1375e-06
2576.6, 5.2786e-06
2578.6, 5.1735e-06
2580.6, 5.2695e-06
2582.6, 5.1917e-06
2584.6, 5.2553e-06
2586.6, 5.1927e-06
2588.6, 5.196e-06
2590.6, 5.1991e-06
2592.6, 5.1962e-06
2594.6, 5.1722e-06
2596.6, 5.128e-06
2598.6, 5.1958e-06
2600.6, 5.304e-06
2602.6, 5.175e-06
2604.6, 5.2472e-06
2606.6, 5.1743e-06
2608.6, 5.2676e-06
2610.6, 5.1422e-06
2612.6, 5.1325e-06
2614.6, 5.1201e-06
2616.6, 5.1997e-06
2618.6, 5.1857e-06
2620.6, 5.3406e-06
2622.6, 5.1811e-06
2624.6, 5.2133e-06
2626.6, 5.2477e-06
2628.6, 5.2462e-06
2630.6, 5.218e-06
2632.6, 5.1768e-06
2634.6, 5.2021e-06
2636.6, 5.2418e-06
2638.6, 5.2865e-06
2640.6, 5.1509e-06
2642.6, 5.2202e-06
2644.6, 5.1231e-06
2646.6, 5.17e-06
2648.6, 5.1555e-06
2650.6, 5.18e-06
2652.6, 5.1632e-06
2654.7, 5.174e-06
2656.7, 5.1217e-06
2658.7, 5.0893e-06
2660.7, 5.2093e-06
2662.7, 5.239e-06
2664.7, 5.2983e-06
2666.7, 5.1413e-06
2668.7, 5.1687e-06
2670.7, 5.1452e-06
2672.7, 5.1387e-06
2674.7, 5.1054e-06
2676.7, 5.1163e-06
2678.7, 5.3028e-06
2680.7, 5.3225e-06
2682.7, 5.1862e-06
2684.7, 5.23e-06
2686.7, 5.1461e-06
2688.7, 5.1961e-06
2690.7, 5.2433e-06
2692.7, 5.2828e-06
2694.7, 5.2018e-06
2696.7, 5.244e-06
2698.7, 5.2067e-06
2700.7, 5.1567e-06
2702.7, 5.1319e-06
2704.7, 5.124e-06
2706.7, 5.3139e-06
2708.7, 5.1932e-06
2710.7, 5.2269e-06
2712.7, 5.151e-06
2714.7, 5.1845e-06
2716.7, 5.1083e-06
2718.7, 5.2379e-06
2720.7, 5.2088e-06
2722.7, 5.1973e-06
2724.7, 5.2023e-06
2726.7, 5.174e-06
2728.7, 5.1009e-06
2730.7, 5.2372e-06
2732.7, 5.1343e-06
2734.7, 5.3763e-06
2736.7, 5.1707e-06
2738.7, 5.1017e-06
2740.7, 5.1853e-06
2742.7, 5.1835e-06
2744.7, 5.3227e-06
2746.7, 5.1424e-06
2748.7, 5.192e-06
2750.7, 5.2097e-06
2752.7, 5.317e-06
2754.8, 5.2414e-06
2756.8, 5.2433e-06
2758.8, 5.1562e-06
2760.8, 5.3401e-06
2762.8, 5.1796e-06
2764.8, 2.6431e-06
2766.8, -2.557e-08
2768.8, -3.214e-08
2770.8, -3.085e-08
2772.8, -3.325e-08
2774.8, -3.026e-08
2776.8, -3.088e-08
2778.8, -2.854e-08
2780.8, -2.866e-08
2782.8, -3.05e-08
2784.8, -2.574e-08
2786.8, -3.38e-08
2788.8, -3.046e-08
2790.8, -3.296e-08
2792.8, -3.023e-08
2794.8, -2.808e-08
2796.8, -3.095e-08
2798.8, -3.464e-08
2800.8, -3.237e-08
2802.8, -3.458e-08
2804.8, -3.65e-08
2806.8, -3.57e-08
2808.8, -3.132e-08
2810.8, -3.338e-08
2812.8, -3.223e-08
2814.8, -3.249e-08
2816.8, -3.016e-08
2818.8, -3.366e-08
2820.8, -3.006e-08
2822.8, -3.249e-08
2824.8, -3.41e-08
2826.8, -3.565e-08
2828.8, -3.099e-08
2830.8, -3.207e-08
2832.8, -3.464e-08
2834.8, -3.508e-08
2836.8, -3.348e-08
2838.8, -3.692e-08
2840.8, -3.302e-08
2842.8, -3.604e-08
2844.8, -3.268e-08
2846.8, -3.032e-08
2848.8, -2.711e-08
2850.8, -3.407e-08
2852.8, -3.483e-08
2854.9, -3.516e-08
2856.9, -3.071e-08
2858.9, -3.01e-08
2860.9, -2.82e-08
2862.9, -3.148e-08
2864.9, -2.998e-08
2866.9, -2.761e-08
2868.9, -3.298e-08
2870.9, -3.185e-08
2872.9, -3.388e-08
2874.9, -3.177e-08
2876.9, -3.513e-08
2878.9, -3.24e-08
2880.9, -3.663e-08
2882.9, -3.406e-08
2884.9, -3.16e-08
2886.9, -3.483e-08
2888.9, -3.087e-08
2890.9, -3.216e-08
2892.9, -3.121e-08
2894.9, -3.415e-08
2896.9, -3.402e-08
2898.9, -3.602e-08
2900.9, -3.668e-08
2902.9, -3.558e-08
2904.9, -3.748e-08
2906.9, -3.984e-08
2908.9, -3.479e-08
2910.9, -3.03e-08
2912.9, -3.345e-08
2914.9, -3.516e-08
2916.9, -3.705e-08
2918.9, -3.313e-08
2920.9, -3.508e-08
2922.9, -3.555e-08
2924.9, -3.371e-08
2926.9, -3.907e-08
2928.9, -3.226e-08
2930.9, -3.048e-08
2932.9, -3.404e-08
2934.9, -3.561e-08
2936.9, -3.496e-08
2938.9, -3.621e-08
2940.9, -2.98e-08
2942.9, -3.447e-08
2944.9, -3.184e-08
2946.9, -3.398e-08
2948.9, -3.353e-08
2950.9, -2.969e-08
2952.9, -3.706e-08
2955.0, -3.276e-08
2957.0, -3.42e-08
2959.0, -3.383e-08
2961.0, -3.192e-08
2963.0, -3.236e-08
2965.0, -3.132e-08
2967.0, -3.146e-08
2969.0, -3.794e-08
2971.0, -3.523e-08
2973.0, -3.675e-08
2975.0, -3.966e-08
2977.0, -3.505e-08
2979.0, -3.376e-08
2981.0, -3.438e-08
2983.0, -3.507e-08
2985.0, -4.06e-08
2987.0, -3.765e-08
2989.0, -3.497e-08
2991.0, -3.412e-08
2993.0, -3.892e-08
2995.0, -3.705e-08
2997.0, -3.507e-08
2999.0, -3.256e-08
3001.0, -3.663e-08
3003.0, -3.703e-08
3005.0, -3.761e-08
3007.0, -3.428e-08
3009.0, -3.63e-08
3011.0, -3.524e-08
3013.0, -3.684e-08
3015.0, -3.602e-08
3017.0, -3.956e-08
3019.0, -3.691e-08
3021.0, -3.779e-08
3023.0, -3.829e-08
3025.0, -3.879e-08
3027.0, -3.686e-08
3029.0, -3.347e-08
3031.0, -3.979e-08
3033.0, -3.687e-08
3035.0, -3.735e-08
3037.0, -3.912e-08
3039.0, -3.873e-08
3041.0, -3.381e-08
3043.0, -3.544e-08
3045.0, -3.906e-08
3047.0, -3.369e-08
3049.0, -3.655e-08
3051.0, -3.793e-08
3053.0, -3.588e-08
3055.1, -3.714e-08
3057.1, -3.226e-08
3059.1, -3.449e-08
3061.1, -3.455e-08
3063.1, -3.026e-08
3065.1, -3.496e-08
3067.1, -3.498e-08
3069.1, -3.381e-08
3071.1, -3.59e-08
3073.1, -3.363e-08
3075.1, -3.947e-08
3077.1, -3.493e-08
3079.1, -3.334e-08
3081.1, -3.265e-08
3083.1, -3.022e-08
3085.1, -3.035e-08
3087.1, -3.211e-08
3089.1, -2.989e-08
3091.1, -3e-08
3093.1, -3.39e-08
3095.1, -3.336e-08
3097.1, -2.931e-08
3099.1, -3.498e-08
3101.1, -3.306e-08
3103.1, -3.465e-08
3105.1, -3.294e-08
3107.1, -3.328e-08
3109.1, -3.371e-08
3111.1, -3.014e-08
3113.1, -3.043e-08
3115.1, -3.252e-08
3117.1, -3.571e-08
3119.1, -3.526e-08
3121.1, -3.346e-08
3123.1, -3.332e-08
3125.1, -3.538e-08
3127.1, -3.543e-08
3129.1, -3.199e-08
3131.1, -3.233e-08
3133.1, -3.277e-08
3135.1, -3.042e-08
3137.1, -3.151e-08
3139.1, -3.277e-08
3141.1, -3.493e-08
3143.1, -3.751e-08
3145.1, -3.624e-08
3147.1, -3.325e-08
3149.1, -3.074e-08
3151.1, -3.253e-08
3153.1, -3.442e-08
3155.2, -3.461e-08
3157.2, -3.349e-08
3159.2, -3.477e-08
3161.2, -3.351e-08
3163.2, -3.148e-08
3165.2, -3.76e-08
3167.2, -3.425e-08
3169.2, -3.721e-08
3171.2, -3.829e-08
3173.2, -3.9e-08
3175.2, -3.571e-08
3177.2, -3.543e-08
3179.2, -3.291e-08
3181.2, -3.614e-08
3183.2, -3.503e-08
3185.2, -3.489e-08
3187.2, -3.499e-08
3189.2, -3.746e-08
3191.2, -3.381e-08
3193.2, -3.523e-08
3195.2, -3.711e-08
3197.2, -3.085e-08
3199.2, -3.359e-08
3201.2, -3.096e-08
3203.2, -3.337e-08
3205.2, -2.908e-08
3207.2, -3.192e-08
3209.2, -3.232e-08
3211.2, -3.093e-08
3213.2, -3.288e-08
3215.2, -3.259e-08
3217.2, -3.176e-08
3219.2, -3.155e-08
3221.2, -3.123e-08
3223.2, -3.325e-08
3225.2, -2.975e-08
3227.2, -3.244e-08
3229.2, -3.143e-08
3231.2, -3.455e-08
3233.2, -3.615e-08
3235.2, -3.094e-08
3237.2, -3.401e-08
3239.2, -3.268e-08
3241.2, -3.076e-08
3243.2, -3.218e-08
3245.2, -3.301e-08
3247.2, -3.206e-08
3249.2, -3.299e-08
3251.2, -3.389e-08
3253.2, -2.981e-08
3255.3, -3.334e-08
3257.3, -3.098e-08
3259.3, -3.295e-08
3261.3, -3.283e-08
3263.3, -2.786e-08
3265.3, -3.162e-08
3267.3, -2.995e-08
3269.3, -3.295e-08
3271.3, -3.172e-08
3273.3, -3.045e-08
3275.3, -3.261e-08
3277.3, -3.333e-08
3279.3, -3.162e-08
3281.3, -3.222e-08
3283.3, -2.675e-08
3285.3, -3.029e-08
3287.3, -3.127e-08
3289.3, -3.319e-08
3291.3, -3.384e-08
3293.3, -3.412e-08
3295.3, -3.352e-08
3297.3, -3.028e-08
3299.3, -3.189e-08
3301.3, -2.951e-08
3303.3, -3.317e-08
3305.3, -3.226e-08
3307.3, -2.944e-08
3309.3, -3.356e-08
3311.3, -3.141e-08
3313.3, -3.224e-08
3315.3, -3.643e-08
3317.3, -3.618e-08
3319.3, -3.555e-08
3321.3, -3.409e-08
3323.3, -3.283e-08
3325.3, -3.447e-08
3327.3, -3.439e-08
3329.3, -3.286e-08
3331.3, -3.198e-08
3333.3, -3.573e-08
3335.3, -3.48e-08
3337.3, -3.586e-08
3339.3, -2.958e-08
3341.3, -3.464e-08
3343.3, -3.144e-08
3345.3, -3.539e-08
3347.3, -3.246e-08
3349.3, -3.277e-08
3351.3, -3.417e-08
3353.3, -3.026e-08
3355.4, -3.078e-08
3357.4, -2.964e-08
3359.4, -3.181e-08
3361.4, -3.169e-08
3363.4, -3.204e-08
3365.4, -3.23e-08
3367.4, -3.435e-08
3369.4, -2.871e-08
3371.4, -3.128e-08
3373.4, -2.801e-08
3375.4, -3.09e-08
3377.4, -3.308e-08
3379.4, -3.319e-08
3381.4, -2.995e-08
3383.4, -3.161e-08
3385.4, -3.53e-08
3387.4, -3.372e-08
3389.4, -3.179e-08
3391.4, -3.311e-08
3393.4, -3.345e-08
3395.4, -3.437e-08
3397.4, -3.449e-08
3399.4, -3.473e-08
3401.4, -3.23e-08
3403.4, -3.329e-08
3405.4, -3.497e-08
3407.4, -3.448e-08
3409.4, -3.225e-08
3411.4, -3.154e-08
3413.4, -3.695e-08
3415.4, -3.161e-08
3417.4, -3.478e-08
3419.4, -2.853e-08
3421.4, -3.278e-08
3423.4, -3.318e-08
3425.4, -3.395e-08
3427.4, -3.217e-08
3429.4, -3.381e-08
3431.4, -3.413e-08
3433.4, -2.894e-08
3435.4, -3.546e-08
3437.4, -3.271e-08
3439.4, -3.497e-08
3441.4, -3.174e-08
3443.4, -3.776e-08
3445.4, -3.331e-08
3447.4, -3.223e-08
3449.4, -2.994e-08
3451.4, -3.176e-08
3453.4, -3.292e-08
3455.5, -2.93e-08
3457.5, -3.153e-08
3459.5, -3.041e-08
3461.5, -3.055e-08
3463.5, -3.441e-08
3465.5, -3.465e-08
3467.5, -3.797e-08
3469.5, -3.127e-08
3471.5, -2.972e-08
3473.5, -3.472e-08
3475.5, -3.269e-08
3477.5, -3.437e-08
3479.5, -3.223e-08
3481.5, -3.298e-08
3483.5, -3.453e-08
3485.5, -3.406e-08
3487.5, -3.541e-08
3489.5, -3.855e-08
3491.5, -3.525e-08
3493.5, -3.437e-08
3495.5, -3.692e-08
3497.5, -3.549e-08
3499.5, -3.46e-08
3501.5, -3.371e-08
3503.5, -3.392e-08
3505.5, -3.261e-08
3507.5, -3.404e-08
3509.5, -3.499e-08
3511.5, -3.658e-08
3513.5, -3.384e-08
3515.5, -3.478e-08
3517.5, -3.312e-08
3519.5, -3.306e-08
3521.5, -3.393e-08
3523.5, -3.483e-08
3525.5, -3.058e-08
3527.5, -3.248e-08
3529.5, -3.492e-08
3531.5, -3.261e-08
3533.5, -3.124e-08
3535.5, -3.36e-08
3537.5, -3.111e-08
3539.5, -3.004e-08
3541.5, -2.94e-08
3543.5, -3.706e-08
3545.5, -3.356e-08
3547.5, -3.85e-08
3549.5, -3.542e-08
3551.5, -3.469e-08
3553.5, -3.504e-08
3555.6, -3.455e-08
3557.6, -3.459e-08
3559.6, -3.472e-08
3561.6, -3.372e-08
3563.6, -3.452e-08
3565.6, -3.473e-08
3567.6, -3.369e-08
3569.6, -3.697e-08
3571.6, -3.339e-08
3573.6, -3.563e-08
3575.6, -3.622e-08
3577.6, -3.69e-08
3579.6, -3.579e-08
3581.6, -3.323e-08
3583.6, -3.74e-08
3585.6, -3.453e-08
3587.6, -3.325e-08
3589.6, -3.176e-08
3591.6, -3.268e-08
3593.6, -3.485e-08
3595.6, -3.612e-08
3597.6, -3.838e-08
3599.6, -3.65e-08
3601.6, -3.586e-08
3603.6, -3.143e-08
3605.6, -2.848e-08
3607.6, -3.291e-08
3609.6, -3.529e-08
3611.6, -3.276e-08
3613.6, -3.241e-08
3615.6, -3.471e-08
3617.6, -3.473e-08
3619.6, -3.129e-08
3621.6, -3.349e-08
3623.6, -3.439e-08
3625.6, -3.323e-08
3627.6, -3.267e-08
3629.6, -3.392e-08
3631.6, -3.558e-08
3633.6, -3.164e-08
3635.6, -3.484e-08
3637.6, -4.004e-08
3639.6, -3.461e-08
3641.6, -3.284e-08
3643.6, -3.468e-08
3645.6, -3.576e-08
3647.6, -3.499e-08
3649.6, -3.17e-08
3651.6, -3.287e-08
3653.6, -3.599e-08
3655.7, -3.707e-08
3657.7, -3.409e-08
3659.7, -3.323e-08
3661.7, -3.672e-08
3663.7, -3.696e-08
3665.7, -3.655e-08
3667.7, -3.683e-08
3669.7, -3.648e-08
3671.7, -4.101e-08
3673.7, -3.571e-08
3675.7, -3.781e-08
3677.7, -4.029e-08
3679.7, -3.494e-08
3681.7, -3.686e-08
3683.7, -4.051e-08
3685.7, -3.934e-08
3687.7, -4.116e-08
3689.7, -3.447e-08
3691.7, -3.535e-08
3693.7, -3.393e-08
3695.7, -3.381e-08
3697.7, -3.468e-08
3699.7, -3.656e-08
3701.7, -3.668e-08
3703.7, -3.216e-08
3705.7, -3.118e-08
3707.7, -3.206e-08
3709.7, -3.12e-08
3711.7, -3.715e-08
3713.7, -3.405e-08
3715.7, -3.402e-08
3717.7, -3.085e-08
3719.7, -3.519e-08
3721.7, -3.3e-08
3723.7, -3.51e-08
3725.7, -3.237e-08
3727.7, -3.422e-08
3729.7, -3.165e-08
3731.7, -3.128e-08
3733.7, -3.386e-08
3735.7, -3.684e-08
3737.7, -3.443e-08
3739.7, -3.322e-08
3741.7, -3.004e-08
3743.7, -3.279e-08
3745.7, -3.613e-08
3747.7, -3.013e-08
3749.7, -3.405e-08
3751.7, -3.38e-08
3753.7, -3.532e-08
3755.8, -3.356e-08
3757.8, -3.401e-08
3759.8, -3.134e-08
3761.8, -2.995e-08
3763.8, -2.989e-08
3765.8, -3.017e-08
3767.8, -3.277e-08
3769.8, -3.298e-08
3771.8, -3.232e-08
3773.8, -3.374e-08
3775.8, -3.208e-08
3777.8, -3.305e-08
3779.8, -3.154e-08
3781.8, -3.155e-08
3783.8, -2.938e-08
3785.8, -3.028e-08
3787.8, -2.866e-08
3789.8, -3.143e-08
3791.8, -2.739e-08
3793.8, -2.84e-08
3795.8, -3.175e-08
3797.8, -3.105e-08
3799.8, -3.025e-08
3801.8, -2.981e-08
3803.8, -3.087e-08
3805.8, -3.208e-08
3807.8, -2.586e-08
3809.8, -3.427e-08
3811.8, -2.94e-08
3813.8, -3.214e-08
3815.8, -3.611e-08
3817.8, -3.792e-08
3819.8, -3.559e-08
3821.8, -3.337e-08
3823.8, -3.818e-08
3825.8, -3.17e-08
3827.8, -3.251e-08
3829.8, -3.371e-08
3831.8, -3.568e-08
3833.8, -3.572e-08
3835.8, -3.406e-08
3837.8, -3.612e-08
3839.8, -3.534e-08
3841.8, -3.673e-08
3843.8, -3.386e-08
3845.8, -3.503e-08
3847.8, -3.36e-08
3849.8, -3.35e-08
3851.8, -3.778e-08
3853.8, -3.661e-08
3855.9, -3.29e-08
3857.9, -3.448e-08
3859.9, -3.436e-08
3861.9, -3.568e-08
3863.9, -3.724e-08
3865.9, -3.477e-08
3867.9, -3.511e-08
3869.9, -3.465e-08
3871.9, -3.074e-08
3873.9, 5.0704e-06
3875.9, 5.1637e-06
3877.9, 5.0109e-06
3879.9, 5.1353e-06
3881.9, 5.0204e-06
3883.9, 5.1382e-06
3885.9, 5.085e-06
3887.9, 5.0344e-06
3889.9, 5.0919e-06
3891.9, 4.9195e-06
3893.9, 5.0934e-06
3895.9, 5.0676e-06
3897.9, 5.0279e-06
3899.9, 5.0104e-06
3901.9, 4.8785e-06
3903.9, 5.0271e-06
3905.9, 5.0536e-06
3907.9, 5.009e-06
3909.9, 5.163e-06
3911.9, 5.1666e-06
3913.9, 5.0912e-06
3915.9, 5.0194e-06
3917.9, 5.0921e-06
3919.9, 5.0295e-06
3921.9, 5.0397e-06
3923.9, 5.0876e-06
3925.9, 5.0454e-06
3927.9, 5.0599e-06
3929.9, 5.1053e-06
3931.9, 5.105e-06
3933.9, 5.0918e-06
3935.9, 5.0357e-06
3937.9, 4.9998e-06
3939.9, 5.0874e-06
3941.9, 5.2263e-06
3943.9, 5.0332e-06
3945.9, 4.9599e-06
3947.9, 5.0175e-06
3949.9, 5.0298e-06
3951.9, 5.0003e-06
3953.9, 5.1061e-06
3956.0, 4.9896e-06
3958.0, 5.2024e-06
3960.0, 5.1759e-06
3962.0, 5.1119e-06
3964.0, 5.1246e-06
3966.0, 5.1378e-06
3968.0, 4.9888e-06
3970.0, 5.121e-06
3972.0, 5.0413e-06
3974.0, 5.0987e-06
3976.0, 5.0906e-06
3978.0, 5.1654e-06
3980.0, 4.9763e-06
3982.0, 4.9755e-06
3984.0, 5.0246e-06
3986.0, 5.1038e-06
3988.0, 5.1422e-06
3990.0, 4.9852e-06
3992.0, 5.1862e-06
3994.0, 5.0706e-06
3996.0, 5.0603e-06
3998.0, 5.0949e-06
4000.0, 5.083e-06
4002.0, 5.1562e-06
4004.0, 5.0393e-06
4006.0, 5.0834e-06
4008.0, 5.0998e-06
4010.0, 5.1329e-06
4012.0, 5.0886e-06
4014.0, 5.1638e-06
4016.0, 5.1885e-06
4018.0, 5.0581e-06
4020.0, 5.1243e-06
4022.0, 5.2959e-06
4024.0, 5.0651e-06
4026.0, 5.1284e-06
4028.0, 5.1242e-06
4030.0, 5.0748e-06
4032.0, 5.2204e-06
4034.0, 5.2292e-06
4036.0, 5.0478e-06
4038.0, 5.1755e-06
4040.0, 5.1624e-06
4042.0, 5.1029e-06
4044.0, 5.1657e-06
4046.0, 5.0848e-06
4048.0, 5.1126e-06
4050.0, 5.1192e-06
4052.0, 5.0635e-06
4054.0, 5.1281e-06
4056.1, 5.0854e-06
4058.1, 5.1988e-06
4060.1, 5.1105e-06
4062.1, 5.1243e-06
4064.1, 5.1128e-06
4066.1, 5.0919e-06
4068.1, 5.0058e-06
4070.1, 5.2145e-06
4072.1, 5.1887e-06
4074.1, 5.1954e-06
4076.1, 5.107e-06
4078.1, 5.1384e-06
4080.1, 5.1325e-06
4082.1, 5.1458e-06
4084.1, 5.0621e-06
4086.1, 5.1461e-06
4088.1, 5.132e-06
4090.1, 5.1502e-06
4092.1, 5.0648e-06
4094.1, 5.1927e-06
4096.1, 5.0434e-06
4098.1, 5.053e-06
4100.1, 5.1306e-06
4102.1, 5.0038e-06
4104.1, 5.1899e-06
4106.1, 5.0704e-06
4108.1, 5.1394e-06
4110.1, 5.1005e-06
4112.1, 5.1101e-06
4114.1, 5.2406e-06
4116.1, 5.1688e-06
4118.1, 5.2299e-06
4120.1, 5.1704e-06
4122.1, 5.1758e-06
4124.1, 5.0777e-06
4126.1, 5.2241e-06
4128.1, 5.057e-06
4130.1, 5.1513e-06
4132.1, 5.1032e-06
4134.1, 5.0505e-06
4136.1, 5.1713e-06
4138.1, 5.2192e-06
4140.1, 5.2354e-06
4142.1, 5.2398e-06
4144.1, 5.1333e-06
4146.1, 5.0938e-06
4148.1, 5.0975e-06
4150.1, 5.1655e-06
4152.1, 5.1368e-06
4154.1, 5.1874e-06
4156.2, 5.1435e-06
4158.2, 5.1328e-06
4160.2, 5.1058e-06
4162.2, 5.2256e-06
4164.2, 5.1771e-06
4166.2, 5.2193e-06
4168.2, 5.0872e-06
4170.2, 5.0719e-06
4172.2, 5.2166e-06
4174.2, 5.1302e-06
4176.2, 5.1092e-06
4178.2, 5.1074e-06
4180.2, 5.1509e-06
4182.2, 5.0806e-06
4184.2, 5.1857e-06
4186.2, 5.1585e-06
4188.2, 5.1489e-06
4190.2, 5.2155e-06
4192.2, 5.2246e-06
4194.2, 5.071e-06
4196.2, 5.1023e-06
4198.2, 5.2807e-06
4200.2, 5.2322e-06
4202.2, 5.1401e-06
4204.2, 5.0988e-06
4206.2, 5.1662e-06
4208.2, 5.0988e-06
4210.2, 5.1549e-06
4212.2, 5.2347e-06
4214.2, 5.1164e-06
4216.2, 5.1864e-06
4218.2, 5.2529e-06
4220.2, 5.1849e-06
4222.2, 5.2247e-06
4224.2, 5.0726e-06
4226.2, 4.9825e-06
4228.2, 5.1078e-06
4230.2, 5.0833e-06
4232.2, 5.262e-06
4234.2, 5.1742e-06
4236.2, 5.1516e-06
4238.2, 5.2307e-06
4240.2, 5.1517e-06
4242.2, 5.1672e-06
4244.2, 5.2514e-06
4246.2, 5.115e-06
4248.2, 5.1127e-06
4250.2, 5.1774e-06
4252.2, 5.0729e-06
4254.2, 5.1526e-06
4256.3, 5.2417e-06
4258.3, 5.1026e-06
4260.3, 5.2084e-06
4262.3, 5.188e-06
4264.3, 5.0795e-06
4266.3, 5.1952e-06
4268.3, 5.3132e-06
4270.3, 5.1796e-06
4272.3, 5.2218e-06
4274.3, 5.1281e-06
4276.3, 5.191e-06
4278.3, 5.1982e-06
4280.3, 5.0823e-06
4282.3, 5.1716e-06
4284.3, 5.2663e-06
4286.3, 5.0506e-06
4288.3, 5.1497e-06
4290.3, 5.2116e-06
4292.3, 5.135e-06
4294.3, 5.1864e-06
4296.3, 5.1833e-06
4298.3, 5.2098e-06
4300.3, 5.218e-06
4302.3, 5.1175e-06
4304.3, 5.0683e-06
4306.3, 5.1989e-06
4308.3, 5.1668e-06
4310.3, 5.236e-06
4312.3, 5.1601e-06
4314.3, 5.2537e-06
4316.3, 5.2231e-06
4318.3, 5.0944e-06
4320.3, 5.0716e-06
4322.3, 5.1518e-06
4324.3, 5.0205e-06
4326.3, 5.1805e-06
4328.3, 5.2107e-06
4330.3, 5.2958e-06
4332.3, 5.2489e-06
4334.3, 5.0729e-06
4336.3, 5.3334e-06
4338.3, 5.2044e-06
4340.3, 5.155e-06
4342.3, 5.1488e-06
4344.3, 5.2958e-06
4346.3, 5.2449e-06
4348.3, 5.0926e-06
4350.3, 5.1972e-06
4352.3, 5.1478e-06
4354.3, 5.1282e-06
4356.4, 5.1059e-06
4358.4, 5.2084e-06
4360.4, 5.1565e-06
4362.4, 5.1609e-06
4364.4, 5.1473e-06
4366.4, 5.2576e-06
4368.4, 5.2e-06
4370.4, 5.248e-06
4372.4, 5.2465e-06
4374.4, 5.2915e-06
4376.4, 5.1073e-06
4378.4, 5.1685e-06
4380.4, 5.2199e-06
4382.4, 5.2511e-06
4384.4, 5.2726e-06
4386.4, 5.0993e-06
4388.4, 5.212e-06
4390.4, 5.131e-06
4392.4, 5.142e-06
4394.4, 5.1663e-06
4396.4, 5.2274e-06
4398.4, 5.1515e-06
4400.4, 5.1208e-06
4402.4, 5.2218e-06
4404.4, 5.0653e-06
4406.4, 5.2461e-06
4408.4, 5.2571e-06
4410.4, 5.049e-06
4412.4, 5.1215e-06
4414.4, 5.2059e-06
4416.4, 5.0871e-06
4418.4, 5.2472e-06
4420.4, 5.1728e-06
4422.4, 5.1072e-06
4424.4, 5.1236e-06
4426.4, 5.2659e-06
4428.4, 5.0782e-06
4430.4, 5.1498e-06
4432.4, 5.2256e-06
4434.4, 5.1678e-06
4436.4, 5.1919e-06
4438.4, 5.1255e-06
4440.4, 5.1379e-06
4442.4, 5.0685e-06
4444.4, 5.1734e-06
4446.4, 5.2453e-06
4448.4, 5.2298e-06
4450.4, 5.1479e-06
4452.4, 5.2317e-06
4454.4, 5.3496e-06
4456.5, 5.0867e-06
4458.5, 5.1587e-06
4460.5, 5.1617e-06
4462.5, 5.1285e-06
4464.5, 5.1449e-06
4466.5, 5.3283e-06
4468.5, 5.2243e-06
4470.5, 5.2492e-06
4472.5, 5.2222e-06
4474.5, 5.277e-06
4476.5, 5.1146e-06
4478.5, 5.1619e-06
4480.5, 5.2535e-06
4482.5, 5.2157e-06
4484.5, 5.2481e-06
4486.5, 5.2117e-06
4488.5, 5.1921e-06
4490.5, 5.1435e-06
4492.5, 5.2604e-06
4494.5, 5.1502e-06
4496.5, 5.2109e-06
4498.5, 5.3211e-06
4500.5, 5.2381e-06
4502.5, 5.2628e-06
4504.5, 5.2236e-06
4506.5, 5.2071e-06
4508.5, 5.1107e-06
4510.5, 5.1403e-06
4512.5, 5.1752e-06
4514.5, 5.2742e-06
4516.5, 5.2507e-06
4518.5, 5.1639e-06
4520.5, 5.1684e-06
4522.5, 5.1738e-06
4524.5, 5.2581e-06
4526.5, 5.0582e-06
4528.5, 5.1664e-06
4530.5, 5.1448e-06
4532.5, 5.2059e-06
4534.5, 5.2188e-06
4536.5, 5.2813e-06
4538.5, 5.2435e-06
4540.5, 5.1682e-06
4542.5, 5.1029e-06
4544.5, 5.2276e-06
4546.5, 5.1838e-06
4548.5, 5.0908e-06
4550.5, 5.1581e-06
4552.5, 5.2059e-06
4554.5, 5.079e-06
4556.6, 5.2525e-06
4558.6, 5.2912e-06
4560.6, 5.1373e-06
4562.6, 5.1583e-06
4564.6, 5.1292e-06
4566.6, 5.1925e-06
4568.6, 5.2015e-06
4570.6, 5.1423e-06
4572.6, 5.1177e-06
4574.6, 5.1607e-06
4576.6, 5.2192e-06
4578.6, 5.0797e-06
4580.6, 5.1733e-06
4582.6, 5.144e-06
4584.6, 5.18e-06
4586.6, 5.1252e-06
4588.6, 5.1211e-06
4590.6, 5.1911e-06
4592.6, 5.2597e-06
4594.6, 5.2082e-06
4596.6, 5.3053e-06
4598.6, 5.223e-06
4600.6, 5.1999e-06
4602.6, 5.1779e-06
4604.6, 5.2107e-06
4606.6, 5.1405e-06
4608.6, 5.2744e-06
4610.6, 5.1537e-06
4612.6, 5.207e-06
4614.6, 5.0852e-06
4616.6, 5.1994e-06
4618.6, 5.1876e-06
4620.6, 5.1327e-06
4622.6, 5.1676e-06
4624.6, 5.2021e-06
4626.6, 5.183e-06
4628.6, 5.2721e-06
4630.6, 5.2941e-06
4632.6, 5.1817e-06
4634.6, 5.1781e-06
4636.6, 5.1928e-06
4638.6, 5.1531e-06
4640.6, 5.2029e-06
4642.6, 5.1414e-06
4644.6, 5.2005e-06
4646.6, 5.2116e-06
4648.6, 5.232e-06
4650.6, 5.2642e-06
4652.6, 5.3296e-06
4654.6, 5.1286e-06
4656.7, 5.1354e-06
4658.7, 5.1771e-06
4660.7, 5.1731e-06
4662.7, 5.1644e-06
4664.7, 5.1983e-06
4666.7, 5.2172e-06
4668.7, 5.2295e-06
4670.7, 5.188e-06
4672.7, 5.2619e-06
4674.7, 5.1509e-06
4676.7, 5.0841e-06
4678.7, 5.2573e-06
4680.7, 5.2359e-06
4682.7, 5.1646e-06
4684.7, 5.2901e-06
4686.7, 5.1703e-06
4688.7, 5.0806e-06
4690.7, 5.1668e-06
4692.7, 5.3299e-06
4694.7, 5.0956e-06
4696.7, 5.138e-06
4698.7, 5.2282e-06
4700.7, 5.1687e-06
4702.7, 5.2039e-06
4704.7, 5.1434e-06
4706.7, 5.1551e-06
4708.7, 5.0827e-06
4710.7, 5.1798e-06
4712.7, 5.1972e-06
4714.7, 5.0736e-06
4716.7, 5.1864e-06
4718.7, 5.2465e-06
4720.7, 5.1488e-06
4722.7, 5.2364e-06
4724.7, 5.1648e-06
4726.7, 5.1693e-06
4728.7, 5.1471e-06
4730.7, 5.2116e-06
4732.7, 5.1933e-06
4734.7, 5.1672e-06
4736.7, 5.2072e-06
4738.7, 5.1562e-06
4740.7, 5.1755e-06
4742.7, 5.1714e-06
4744.7, 5.2758e-06
4746.7, 5.1473e-06
4748.7, 5.2274e-06
4750.7, 5.2187e-06
4752.7, 5.2905e-06
4754.7, 5.194e-06
4756.8, 5.1396e-06
4758.8, 5.2571e-06
4760.8, 5.3107e-06
4762.8, 5.245e-06
4764.8, 5.2024e-06
4766.8, 5.1343e-06
4768.8, 5.1821e-06
4770.8, 5.2507e-06
4772.8, 5.0959e-06
4774.8, 5.2385e-06
4776.8, 5.2237e-06
4778.8, 5.2325e-06
4780.8, 5.1963e-06
4782.8, 5.2814e-06
4784.8, 5.2016e-06
4786.8, 5.2397e-06
4788.8, 5.2019e-06
4790.8, 5.1973e-06
4792.8, 5.1995e-06
4794.8, 5.1839e-06
4796.8, 5.1846e-06
4798.8, 5.2607e-06
4800.8, 5.1742e-06
4802.8, 5.1623e-06
4804.8, 5.1975e-06
4806.8, 5.1648e-06
4808.8, 5.2526e-06
4810.8, 5.1291e-06
4812.8, 5.2869e-06
4814.8, 5.3035e-06
4816.8, 5.1749e-06
4818.8, 5.2231e-06
4820.8, 5.1847e-06
4822.8, 5.2547e-06
4824.8, 5.1772e-06
4826.8, 5.2445e-06
4828.8, 5.2114e-06
4830.8, 5.2903e-06
4832.8, 5.2981e-06
4834.8, 5.1194e-06
4836.8, 5.1749e-06
4838.8, 5.187e-06
4840.8, 5.1804e-06
4842.8, 5.1821e-06
4844.8, 5.2792e-06
4846.8, 5.2195e-06
4848.8, 5.2435e-06
4850.8, 5.2558e-06
4852.8, 5.1121e-06
4854.8, 5.1895e-06
4856.9, 5.1841e-06
4858.9, 5.2162e-06
4860.9, 5.0819e-06
4862.9, 5.2376e-06
4864.9, 5.2809e-06
4866.9, 5.1902e-06
4868.9, 5.3177e-06
4870.9, 5.1962e-06
4872.9, 5.221e-06
4874.9, -2.095e-08
4876.9, -3.319e-08
4878.9, -3.162e-08
4880.9, -3.055e-08
4882.9, -3.184e-08
4884.9, -3.517e-08
4886.9, -3.287e-08
4888.9, -3.486e-08
4890.9, -3.116e-08
4892.9, -3.044e-08
4894.9, -3.261e-08
4896.9, -3.121e-08
4898.9, -2.775e-08
4900.9, -2.865e-08
4902.9, -2.851e-08
4904.9, -3.231e-08
4906.9, -3.236e-08
4908.9, -3.017e-08
4910.9, -3.435e-08
4912.9, -3.375e-08
4914.9, -3.066e-08
4916.9, -2.971e-08
4918.9, -3.393e-08
4920.9, -3.195e-08
4922.9, -3.318e-08
4924.9, -3.242e-08
4926.9, -3.185e-08
4928.9, -3.078e-08
4930.9, -3.32e-08
4932.9, -3.595e-08
4934.9, -3.128e-08
4936.9, -3.436e-08
4938.9, -3.609e-08
4940.9, -3.298e-08
4942.9, -3.385e-08
4944.9, -3.38e-08
4946.9, -3.482e-08
4948.9, -3.528e-08
4950.9, -3.509e-08
4952.9, -3.507e-08
4954.9, -3.69e-08
4957.0, -3.724e-08
4959.0, -3.826e-08
4961.0, -3.37e-08
4963.0, -3.253e-08
4965.0, -3.345e-08
4967.0, -3.51e-08
4969.0, -3.489e-08
4971.0, -3.489e-08
4973.0, -3.141e-08
4975.0, -3.501e-08
4977.0, -3.327e-08
4979.0, -3.343e-08
4981.0, -3.709e-08
4983.0, -3.563e-08
4985.0, -3.301e-08
4987.0, -3.222e-08
4989.0, -3.192e-08
4991.0, -3.106e-08
4993.0, -3.44e-08
4995.0, -3.346e-08
4997.0, -3.334e-08
4999.0, -3.356e-08
5001.0, -3.513e-08
5003.0, -3.214e-08
5005.0, -3.213e-08
5007.0, -3.264e-08
5009.0, -3.449e-08
5011.0, -3.247e-08
5013.0, -3.594e-08
5015.0, -3.36e-08
5017.0, -3.521e-08
5019.0, -3.172e-08
5021.0, -3.247e-08
5023.0, -3.091e-08
5025.0, -3.141e-08
5027.0, -3.37e-08
5029.0, -3.237e-08
5031.0, -3.488e-08
5033.0, -3.498e-08
5035.0, -3.181e-08
5037.0, -3.48e-08
5039.0, -3.57e-08
5041.0, -3.641e-08
5043.0, -3.532e-08
5045.0, -3.518e-08
5047.0, -3.392e-08
5049.0, -3.312e-08
5051.0, -3.187e-08
5053.0, -3.46e-08
5055.0, -3.622e-08
5057.1, -3.803e-08
5059.1, -3.911e-08
5061.1, -3.274e-08
5063.1, -3.745e-08
5065.1, -3.625e-08
5067.1, -3.544e-08
5069.1, -3.341e-08
5071.1, -3.287e-08
5073.1, -3.227e-08
5075.1, -3.332e-08
5077.1, -3.383e-08
5079.1, -3.69e-08
5081.1, -3.424e-08
5083.1, -3.606e-08
5085.1, -3.296e-08
5087.1, -3.213e-08
5089.1, -2.989e-08
5091.1, -3.423e-08
5093.1, -3.418e-08
5095.1, -3.479e-08
5097.1, -3.599e-08
5099.1, -3.236e-08
5101.1, -3.52e-08
5103.1, -3.307e-08
5105.1, -3.414e-08
5107.1, -3.833e-08
5109.1, -3.374e-08
5111.1, -3.438e-08
5113.1, -3.281e-08
5115.1, -3.065e-08
5117.1, -3.056e-08
5119.1, -3.229e-08
5121.1, -3.083e-08
5123.1, -3.148e-08
5125.1, -3.333e-08
5127.1, -3.23e-08
5129.1, -3.231e-08
5131.1, -3.064e-08
5133.1, -3.056e-08
5135.1, -2.972e-08
5137.1, -3e-08
5139.1, -3.009e-08
5141.1, -2.822e-08
5143.1, -2.977e-08
5145.1, -3.159e-08
5147.1, -2.935e-08
5149.1, -3.071e-08
5151.1, -2.859e-08
5153.1, -3.056e-08
5155.1, -2.84e-08
5157.2, -3.066e-08
5159.2, -3.413e-08
5161.2, -3.331e-08
5163.2, -2.87e-08
5165.2, -2.934e-08
5167.2, -3.391e-08
5169.2, -3.12e-08
5171.2, -3.645e-08
5173.2, -3.215e-08
5175.2, -3.398e-08
5177.2, -2.934e-08
5179.2, -3.285e-08
5181.2, -3.149e-08
5183.2, -3.07e-08
5185.2, -2.858e-08
5187.2, -3.009e-08
5189.2, -3.149e-08
5191.2, -2.75e-08
5193.2, -3.007e-08
5195.2, -3.265e-08
5197.2, -3.09e-08
5199.2, -3.581e-08
5201.2, -3.49e-08
5203.2, -3.483e-08
5205.2, -3.464e-08
5207.2, -3.74e-08
5209.2, -2.97e-08
5211.2, -3.043e-08
5213.2, -3.329e-08
5215.2, -3.147e-08
5217.2, -3.097e-08
5219.2, -3.024e-08
5221.2, -3.336e-08
5223.2, -3.107e-08
5225.2, -3.403e-08
5227.2, -3.376e-08
5229.2, -3.299e-08
5231.2, -3.051e-08
5233.2, -2.834e-08
5235.2, -2.894e-08
5237.2, -3.051e-08
5239.2, -3.276e-08
5241.2, -3.31e-08
5243.2, -2.566e-08
5245.2, -3.067e-08
5247.2, -2.889e-08
5249.2, -2.804e-08
5251.2, -3.084e-08
5253.2, -3.245e-08
5255.2, -2.853e-08
5257.3, -3.246e-08
5259.3, -3.04e-08
5261.3, -3.121e-08
5263.3, -3.08e-08
5265.3, -3.148e-08
5267.3, -3.233e-08
5269.3, -3.045e-08
5271.3, -3.09e-08
5273.3, -2.86e-08
5275.3, -3.416e-08
5277.3, -3.017e-08
5279.3, -3.001e-08
5281.3, -3.368e-08
5283.3, -2.9e-08
5285.3, -3.119e-08
5287.3, -3.113e-08
5289.3, -3.117e-08
5291.3, -3.195e-08
5293.3, -3.508e-08
5295.3, -3.516e-08
5297.3, -3.563e-08
5299.3, -3.449e-08
5301.3, -3.56e-08
5303.3, -3.569e-08
5305.3, -2.803e-08
5307.3, -3.37e-08
5309.3, -3.101e-08
5311.3, -2.932e-08
5313.3, -3.124e-08
5315.3, -3.189e-08
5317.3, -3.189e-08
5319.3, -3.44e-08
5321.3, -3.478e-08
5323.3, -3.192e-08
5325.3, -3.602e-08
5327.3, -3.427e-08
5329.3, -3.126e-08
5331.3, -3.278e-08
5333.3, -3.664e-08
5335.3, -3.395e-08
5337.3, -3.292e-08
5339.3, -3.619e-08
5341.3, -3.206e-08
5343.3, -2.978e-08
5345.3, -2.976e-08
5347.3, -2.913e-08
5349.3, -2.925e-08
5351.3, -3.609e-08
5353.3, -3.735e-08
5355.3, -3.383e-08
5357.4, -3.337e-08
5359.4, -3.54e-08
5361.4, -3.079e-08
5363.4, -3.183e-08
5365.4, -3.306e-08
5367.4, -3.192e-08
5369.4, -3.261e-08
5371.4, -3.174e-08
5373.4, -3.281e-08
5375.4, -3.179e-08
5377.4, -3.019e-08
5379.4, -3.212e-08
5381.4, -3.132e-08
5383.4, -3.407e-08
5385.4, -3.64e-08
5387.4, -3.344e-08
5389.4, -3.241e-08
5391.4, -3.466e-08
5393.4, -3.314e-08
5395.4, -3.263e-08
5397.4, -3.435e-08
5399.4, -3.513e-08
5401.4, -3.463e-08
5403.4, -3.467e-08
5405.4, -3.381e-08
5407.4, -3.523e-08
5409.4, -3.573e-08
5411.4, -3.411e-08
5413.4, -3.727e-08
5415.4, -3.635e-08
5417.4, -3.865e-08
5419.4, -3.952e-08
5421.4, -3.765e-08
5423.4, -3.747e-08
5425.4, -3.601e-08
5427.4, -3.782e-08
5429.4, -3.569e-08
5431.4, -3.269e-08
5433.4, -3.687e-08
5435.4, -3.521e-08
5437.4, -3.553e-08
5439.4, -4.043e-08
5441.4, -3.633e-08
5443.4, -3.787e-08
5445.4, -3.6e-08
5447.4, -3.657e-08
5449.4, -3.4e-08
5451.4, -3.422e-08
5453.4, -3.369e-08
5455.4, -3.916e-08
5457.5, -3.718e-08
5459.5, -3.872e-08
5461.5, -3.571e-08
5463.5, -3.758e-08
5465.5, -3.938e-08
5467.5, -3.81e-08
5469.5, -3.722e-08
5471.5, -3.525e-08
5473.5, -3.714e-08
5475.5, -3.726e-08
5477.5, -4.014e-08
5479.5, -3.784e-08
5481.5, -3.678e-08
5483.5, -3.754e-08
5485.5, -3.637e-08
5487.5, -3.624e-08
5489.5, -3.421e-08
5491.5, -3.467e-08
5493.5, -3.809e-08
5495.5, -3.278e-08
5497.5, -3.493e-08
5499.5, -3.29e-08
5501.5, -3.784e-08
5503.5, -3.503e-08
5505.5, -3.601e-08
5507.5, -3.431e-08
5509.5, -3.445e-08
5511.5, -3.448e-08
5513.5, -3.222e-08
5515.5, -3.737e-08
5517.5, -3.623e-08
5519.5, -3.536e-08
5521.5, -3.758e-08
5523.5, -3.484e-08
5525.5, -3.66e-08
5527.5, -3.666e-08
5529.5, -3.499e-08
5531.5, -3.609e-08
5533.5, -3.657e-08
5535.5, -3.37e-08
5537.5, -3.124e-08
5539.5, -3.479e-08
5541.5, -3.178e-08
5543.5, -3.272e-08
5545.5, -3.557e-08
5547.5, -3.807e-08
5549.5, -3.543e-08
5551.5, -3.456e-08
5553.5, -3.477e-08
5555.5, -3.791e-08
5557.6, -3.853e-08
5559.6, -3.501e-08
5561.6, -3.54e-08
5563.6, -3.766e-08
5565.6, -3.312e-08
5567.6, -3.631e-08
5569.6, -3.609e-08
5571.6, -3.582e-08
5573.6, -2.984e-08
5575.6, -3.062e-08
5577.6, -3.222e-08
5579.6, -3.028e-08
5581.6, -3.146e-08
5583.6, -3.365e-08
5585.6, -3.389e-08
5587.6, -3.373e-08
5589.6, -3.342e-08
5591.6, -3.179e-08
5593.6, -3.733e-08
5595.6, -3.516e-08
5597.6, -3.757e-08
5599.6, -3.686e-08
5601.6, -3.431e-08
5603.6, -3.64e-08
5605.6, -3.625e-08
5607.6, -4.062e-08
5609.6, -3.47e-08
5611.6, -3.598e-08
5613.6, -3.387e-08
5615.6, -3.386e-08
5617.6, -3.328e-08
5619.6, -3.582e-08
5621.6, -3.129e-08
5623.6, -3.707e-08
5625.6, -3.703e-08
5627.6, -3.726e-08
5629.6, -3.965e-08
5631.6, -3.704e-08
5633.6, -3.51e-08
5635.6, -3.684e-08
5637.6, -3.777e-08
5639.6, -3.71e-08
5641.6, -3.633e-08
5643.6, -3.419e-08
5645.6, -3.456e-08
5647.6, -3.571e-08
5649.6, -3.283e-08
5651.6, -3.204e-08
5653.6, -3.208e-08
5655.6, -3.01e-08
5657.7, -3.268e-08
5659.7, -3.128e-08
5661.7, -3.189e-08
5663.7, -3.107e-08
5665.7, -3.625e-08
5667.7, -3.626e-08
5669.7, -3.494e-08
5671.7, -3.37e-08
5673.7, -3.184e-08
5675.7, -3.339e-08
5677.7, -3.993e-08
5679.7, -3.7e-08
5681.7, -3.654e-08
5683.7, -3.469e-08
5685.7, -3.795e-08
5687.7, -3.58e-08
5689.7, -2.996e-08
5691.7, -3.736e-08
5693.7, -3.429e-08
5695.7, -3.751e-08
5697.7, -3.717e-08
5699.7, -3.833e-08
5701.7, -3.821e-08
5703.7, -3.897e-08
5705.7, -3.831e-08
5707.7, -3.665e-08
5709.7, -3.421e-08
5711.7, -3.781e-08
5713.7, -3.689e-08
5715.7, -3.967e-08
5717.7, -3.611e-08
5719.7, -3.709e-08
5721.7, -3.53e-08
5723.7, -3.569e-08
5725.7, -3.658e-08
5727.7, -3.472e-08
5729.7, -3.778e-08
5731.7, -3.1e-08
5733.7, -3.638e-08
5735.7, -3.602e-08
5737.7, -4.001e-08
5739.7, -3.226e-08
5741.7, -3.046e-08
5743.7, -3.176e-08
5745.7, -3.488e-08
5747.7, -3.669e-08
5749.7, -3.86e-08
5751.7, -3.077e-08
5753.7, -3.27e-08
5755.7, -3.541e-08
5757.8, -3.733e-08
5759.8, -3.573e-08
5761.8, -3.746e-08
5763.8, -3.49e-08
5765.8, -3.855e-08
5767.8, -3.699e-08
5769.8, -3.518e-08
5771.8, -3.772e-08
5773.8, -3.663e-08
5775.8, -3.48e-08
5777.8, -3.717e-08
5779.8, -3.915e-08
5781.8, -3.715e-08
5783.8, -3.223e-08
5785.8, -3.188e-08
5787.8, -3.255e-08
5789.8, -3.575e-08
5791.8, -3.267e-08
5793.8, -3.17e-08
5795.8, -3.167e-08
5797.8, -3.371e-08
5799.8, -3.626e-08
5801.8, -3.858e-08
5803.8, -3.62e-08
5805.8, -4.036e-08
5807.8, -3.83e-08
5809.8, -3.736e-08
5811.8, -3.505e-08
5813.8, -3.297e-08
5815.8, -3.017e-08
5817.8, -3.352e-08
5819.8, -3.249e-08
5821.8, -2.953e-08
5823.8, -3.074e-08
5825.8, -3.088e-08
5827.8, -3.274e-08
5829.8, -3.469e-08
5831.8, -3.407e-08
5833.8, -3.19e-08
5835.8, -3.217e-08
5837.8, -3.58e-08
5839.8, -3.306e-08
5841.8, -3.405e-08
5843.8, -3.133e-08
5845.8, -3.281e-08
5847.8, -3.127e-08
5849.8, -3.052e-08
5851.8, -3.226e-08
5853.8, -3.205e-08
5855.8, -3.292e-08
5857.9, -3.178e-08
5859.9, -3.668e-08
5861.9, -3.407e-08
5863.9, -3.464e-08
5865.9, -3.376e-08
5867.9, -3.306e-08
5869.9, -3.352e-08
5871.9, -3.425e-08
5873.9, -3.564e-08
5875.9, -3.536e-08
5877.9, -3.625e-08
5879.9, -3.764e-08
5881.9, -3.823e-08
5883.9, -3.657e-08
5885.9, -3.313e-08
5887.9, -3.298e-08
5889.9, -3.282e-08
5891.9, -3.63e-08
5893.9, -3.603e-08
5895.9, -3.503e-08
5897.9, -3.549e-08
5899.9, -3.441e-08
5901.9, -3.246e-08
5903.9, -3.268e-08
5905.9, -3.434e-08
5907.9, -3.16e-08
5909.9, -3.313e-08
5911.9, -3.146e-08
5913.9, -3.597e-08
5915.9, -3.592e-08
5917.9, -3.599e-08
5919.9, -3.336e-08
5921.9, -3.226e-08
5923.9, -3.445e-08
5925.9, -3.417e-08
5927.9, -3.184e-08
5929.9, -3.385e-08
5931.9, -3.521e-08
5933.9, -3.414e-08
5935.9, -3.621e-08
5937.9, -3.298e-08
5939.9, -3.517e-08
5941.9, -3.623e-08
5943.9, 2.6118e-06
5945.9, 4.9541e-06
5947.9, 5.0478e-06
5949.9, 4.9793e-06
5951.9, 4.9687e-06
5953.9, 5.0281e-06
5955.9, 5.0579e-06
5958.0, 5.1801e-06
5960.0, 4.942e-06
5962.0, 5.0454e-06
5964.0, 5.1647e-06
5966.0, 4.9957e-06
5968.0, 5.0004e-06
5970.0, 5.0831e-06
5972.0, 5.0324e-06
5974.0, 5.0861e-06
5976.0, 5.1808e-06
5978.0, 5.0727e-06
5980.0, 5.1326e-06
5982.0, 4.9724e-06
5984.0, 5.1228e-06
5986.0, 5.0866e-06
5988.0, 4.9386e-06
5990.0, 4.9839e-06
5992.0, 5.1828e-06
5994.0, 5.0795e-06
5996.0, 5.0897e-06
5998.0, 4.9327e-06
6000.0, 5.0485e-06
6002.0, 5.1237e-06
6004.0, 5.1304e-06
6006.0, 4.9881e-06
6008.0, 5.1033e-06
6010.0, 5.1027e-06
6012.0, 5.0276e-06
6014.0, 5.1469e-06
6016.0, 5.242e-06
6018.0, 5.0343e-06
6020.0, 5.0177e-06
6022.0, 5.067e-06
6024.0, 5.0812e-06
6026.0, 5.032e-06
6028.0, 4.9991e-06
6030.0, 4.9807e-06
6032.0, 5.0883e-06
6034.0, 5.2038e-06
6036.0, 5.0969e-06
6038.0, 5.0411e-06
6040.0, 5.1446e-06
6042.0, 5.0225e-06
6044.0, 5.0204e-06
6046.0, 5.0638e-06
6048.0, 5.0365e-06
6050.0, 5.1473e-06
6052.0, 5.1017e-06
6054.0, 5.0964e-06
6056.0, 5.0466e-06
6058.1, 5.0904e-06
6060.1, 5.1257e-06
6062.1, 5.0192e-06
6064.1, 5.0935e-06
6066.1, 5.0461e-06
6068.1, 4.9931e-06
6070.1, 5.1034e-06
6072.1, 5.0611e-06
6074.1, 5.1863e-06
6076.1, 5.0478e-06
6078.1, 5.0864e-06
6080.1, 5.155e-06
6082.1, 5.0903e-06
6084.1, 5.0009e-06
6086.1, 5.0548e-06
6088.1, 5.1802e-06
6090.1, 5.0883e-06
6092.1, 5.1052e-06
6094.1, 5.0521e-06
6096.1, 5.0009e-06
6098.1, 5.1164e-06
6100.1, 5.0708e-06
6102.1, 5.0708e-06
6104.1, 5.1061e-06
6106.1, 5.1364e-06
6108.1, 5.0975e-06
6110.1, 5.049e-06
6112.1, 5.0841e-06
6114.1, 5.1194e-06
6116.1, 5.0716e-06
6118.1, 5.1313e-06
6120.1, 5.1738e-06
6122.1, 5.012e-06
6124.1, 5.0671e-06
6126.1, 5.0705e-06
6128.1, 5.0578e-06
6130.1, 5.0202e-06
6132.1, 5.0091e-06
6134.1, 5.1888e-06
6136.1, 5.0883e-06
6138.1, 5.1023e-06
6140.1, 5.0816e-06
6142.1, 5.1355e-06
6144.1, 5.1436e-06
6146.1, 5.2669e-06
6148.1, 5.1392e-06
6150.1, 5.0237e-06
6152.1, 5.0025e-06
6154.1, 5.1167e-06
6156.1, 5.1365e-06
6158.2, 5.1647e-06
6160.2, 5.0493e-06
6162.2, 4.9352e-06
6164.2, 5.1296e-06
6166.2, 5.2806e-06
6168.2, 5.0812e-06
6170.2, 5.0575e-06
6172.2, 5.0607e-06
6174.2, 5.2237e-06
6176.2, 5.1537e-06
6178.2, 5.074e-06
6180.2, 5.072e-06
6182.2, 5.1159e-06
6184.2, 5.0299e-06
6186.2, 5.148e-06
6188.2, 5.0758e-06
6190.2, 5.0948e-06
6192.2, 5.208e-06
6194.2, 5.1554e-06
6196.2, 5.223e-06
6198.2, 5.2081e-06
6200.2, 5.0643e-06
6202.2, 5.1497e-06
6204.2, 5.1501e-06
6206.2, 5.0779e-06
6208.2, 4.9863e-06
6210.2, 5.0491e-06
6212.2, 5.0361e-06
6214.2, 5.0885e-06
6216.2, 5.1854e-06
6218.2, 5.0816e-06
6220.2, 5.1395e-06
6222.2, 5.0868e-06
6224.2, 5.0136e-06
6226.2, 5.0379e-06
6228.2, 5.163e-06
6230.2, 5.0881e-06
6232.2, 5.1816e-06
6234.2, 5.161e-06
6236.2, 5.1119e-06
6238.2, 5.0635e-06
6240.2, 5.2074e-06
6242.2, 5.1511e-06
6244.2, 5.0979e-06
6246.2, 5.166e-06
6248.2, 5.1038e-06
6250.2, 5.0695e-06
6252.2, 5.1783e-06
6254.2, 5.1552e-06
6256.2, 4.9998e-06
6258.3, 5.2413e-06
6260.3, 5.1035e-06
6262.3, 4.9613e-06
6264.3, 5.1676e-06
6266.3, 5.1273e-06
6268.3, 4.9999e-06
6270.3, 4.9533e-06
6272.3, 5.1658e-06
6274.3, 5.1325e-06
6276.3, 5.2171e-06
6278.3, 5.2665e-06
6280.3, 5.1683e-06
6282.3, 5.0787e-06
6284.3, 5.1425e-06
6286.3, 5.0558e-06
6288.3, 5.2596e-06
6290.3, 5.1167e-06
6292.3, 5.2069e-06
6294.3, 4.9951e-06
6296.3, 5.0929e-06
6298.3, 5.1826e-06
6300.3, 5.1751e-06
6302.3, 4.9341e-06
6304.3, 4.9874e-06
6306.3, 5.0881e-06
6308.3, 5.0997e-06
6310.3, 5.1268e-06
6312.3, 5.236e-06
6314.3, 5.1664e-06
6316.3, 5.0723e-06
6318.3, 5.1186e-06
6320.3, 5.1524e-06
6322.3, 5.0857e-06
6324.3, 5.0448e-06
6326.3, 5.0334e-06
6328.3, 5.1398e-06
6330.3, 5.1761e-06
6332.3, 5.1387e-06
6334.3, 5.138e-06
6336.3, 5.1351e-06
6338.3, 5.1349e-06
6340.3, 5.2064e-06
6342.3, 5.1043e-06
6344.3, 5.1232e-06
6346.3, 5.1609e-06
6348.3, 5.0722e-06
6350.3, 5.1125e-06
6352.3, 5.2575e-06
6354.3, 5.0346e-06
6356.3, 5.0625e-06
6358.4, 5.0704e-06
6360.4, 5.0712e-06
6362.4, 5.0716e-06
6364.4, 5.2e-06
6366.4, 5.0441e-06
6368.4, 5.1862e-06
6370.4, 5.1171e-06
6372.4, 5.0437e-06
6374.4, 5.0621e-06
6376.4, 5.1382e-06
6378.4, 5.1126e-06
6380.4, 5.0823e-06
6382.4, 4.9985e-06
6384.4, 5.1668e-06
6386.4, 5.1363e-06
6388.4, 5.0383e-06
6390.4, 5.0783e-06
6392.4, 5.1173e-06
6394.4, 5.1286e-06
6396.4, 5.1499e-06
6398.4, 5.0674e-06
6400.4, 5.0646e-06
6402.4, 5.1486e-06
6404.4, 5.0803e-06
6406.4, 5.1216e-06
6408.4, 5.1451e-06
6410.4, 5.24e-06
6412.4, 5.1406e-06
6414.4, 5.1052e-06
6416.4, 5.1016e-06
6418.4, 5.1075e-06
6420.4, 5.1082e-06
6422.4, 5.1362e-06
6424.4, 5.0882e-06
6426.4, 5.0441e-06
6428.4, 5.1595e-06
6430.4, 5.1589e-06
6432.4, 5.0698e-06
6434.4, 5.2109e-06
6436.4, 5.1391e-06
6438.4, 5.2067e-06
6440.4, 5.0656e-06
6442.4, 5.0435e-06
6444.4, 5.1692e-06
6446.4, 5.1661e-06
6448.4, 4.9903e-06
6450.4, 5.1757e-06
6452.4, 5.0901e-06
6454.4, 5.1134e-06
6456.4, 5.1697e-06
6458.5, 5.1077e-06
6460.5, 5.0291e-06
6462.5, 5.1129e-06
6464.5, 5.0676e-06
6466.5, 5.1098e-06
6468.5, 5.126e-06
6470.5, 5.0459e-06
6472.5, 5.075e-06
6474.5, 4.9728e-06
6476.5, 5.0369e-06
6478.5, 5.1469e-06
6480.5, 5.0307e-06
6482.5, 5.2113e-06
6484.5, 4.9865e-06
6486.5, 5.0558e-06
6488.5, 5.0385e-06
6490.5, 5.073e-06
6492.5, 5.0804e-06
6494.5, 5.0579e-06
6496.5, 5.0239e-06
6498.5, 5.1097e-06
6500.5, 5.1095e-06
6502.5, 5.2263e-06
6504.5, 5.0744e-06
6506.5, 5.2038e-06
6508.5, 5.0861e-06
6510.5, 5.1781e-06
6512.5, 5.1368e-06
6514.5, 5.026e-06
6516.5, 5.061e-06
6518.5, 5.0585e-06
6520.5, 5.0224e-06
6522.5, 5.077e-06
6524.5, 5.1078e-06
6526.5, 5.0795e-06
6528.5, 5.1214e-06
6530.5, 5.1282e-06
6532.5, 5.1141e-06
6534.5, 5.0643e-06
6536.5, 5.2462e-06
6538.5, 5.1035e-06
6540.5, 4.9768e-06
6542.5, 5.078e-06
6544.5, 4.998e-06
6546.5, 5.096e-06
6548.5, 5.1138e-06
6550.5, 5.0631e-06
6552.5, 4.9932e-06
6554.5, 5.0625e-06
6556.5, 5.0889e-06
6558.6, 5.0847e-06
6560.6, 5.0577e-06
6562.6, 5.0889e-06
6564.6, 5.0966e-06
6566.6, 5.0188e-06
6568.6, 4.9402e-06
6570.6, 5.0568e-06
6572.6, 5.1068e-06
6574.6, 5.1442e-06
6576.6, 4.9964e-06
6578.6, 5.0439e-06
6580.6, 5.1034e-06
6582.6, 5.1979e-06
6584.6, 5.0627e-06
6586.6, 5.155e-06
6588.6, 5.1257e-06
6590.6, 5.0624e-06
6592.6, 5.0179e-06
6594.6, 4.9798e-06
6596.6, 5.0457e-06
6598.6, 5.0938e-06
6600.6, 5.0238e-06
6602.6, 5.0641e-06
6604.6, 5.1412e-06
6606.6, 4.9422e-06
6608.6, 5.072e-06
6610.6, 5.1081e-06
6612.6, 4.9966e-06
6614.6, 5.0906e-06
6616.6, 5.0547e-06
6618.6, 4.994e-06
6620.6, 5.0213e-06
6622.6, 4.9937e-06
6624.6, 5.0285e-06
6626.6, 5.1059e-06
6628.6, 5.0417e-06
6630.6, 5.077e-06
6632.6, 5.101e-06
6634.6, 5.0731e-06
6636.6, 5.1266e-06
6638.6, 5.1329e-06
6640.6, 5.09e-06
6642.6, 5.0978e-06
6644.6, 5.0562e-06
6646.6, 5.1047e-06
6648.6, 5.0277e-06
6650.6, 5.1156e-06
6652.6, 4.9864e-06
6654.6, 5.0659e-06
6656.6, 4.9822e-06
6658.7, 4.9344e-06
6660.7, 5.1139e-06
6662.7, 5.0336e-06
6664.7, 5.0748e-06
6666.7, 5.0356e-06
6668.7, 5.0322e-06
6670.7, 5.0205e-06
6672.7, 5.0859e-06
6674.7, 5.0584e-06
6676.7, 5.0284e-06
6678.7, 5.0633e-06
6680.7, 4.971e-06
6682.7, 4.9649e-06
6684.7, 5.0855e-06
6686.7, 5.1716e-06
6688.7, 5.0982e-06
6690.7, 4.999e-06
6692.7, 5.0309e-06
6694.7, 5.0915e-06
6696.7, 5.0418e-06
6698.7, 5.0421e-06
6700.7, 4.9727e-06
6702.7, 5.0271e-06
6704.7, 4.9016e-06
6706.7, 5.1144e-06
6708.7, 5.1055e-06
6710.7, 5.1105e-06
6712.7, 4.979e-06
6714.7, 5.0672e-06
6716.7, 5.0871e-06
6718.7, 5.0008e-06
6720.7, 5.0333e-06
6722.7, 5.1344e-06
6724.7, 4.9611e-06
6726.7, 5.0704e-06
6728.7, 5.0619e-06
6730.7, 5.011e-06
6732.7, 5.044e-06
6734.7, 5.0174e-06
6736.7, 5.0419e-06
6738.7, 4.9485e-06
6740.7, 5.1325e-06
6742.7, 5.0858e-06
6744.7, 5.038e-06
6746.7, 5.0735e-06
6748.7, 5.0391e-06
6750.7, 5.0339e-06
6752.7, 5.1372e-06
6754.7, 5.0709e-06
6756.7, 4.9905e-06
6758.8, 5.0163e-06
6760.8, 5.0887e-06
6762.8, 5.0147e-06
6764.8, 5.1006e-06
6766.8, 5.095e-06
6768.8, 5.0557e-06
6770.8, 5.1183e-06
6772.8, 5.0563e-06
6774.8, 5.028e-06
6776.8, 5.0567e-06
6778.8, 5.0509e-06
6780.8, 5.0546e-06
6782.8, 5.0548e-06
6784.8, 4.9127e-06
6786.8, 5.0666e-06
6788.8, 5.0726e-06
6790.8, 5.0575e-06
6792.8, 4.9843e-06
6794.8, 5.057e-06
6796.8, 5.0813e-06
6798.8, 5.0277e-06
6800.8, 5.1114e-06
6802.8, 5.0918e-06
6804.8, 5.0781e-06
6806.8, 5.0112e-06
6808.8, 5.0654e-06
6810.8, 5.1478e-06
6812.8, 5.0734e-06
6814.8, 5.0758e-06
6816.8, 5.0799e-06
6818.8, 4.9667e-06
6820.8, 5.0133e-06
6822.8, 5.0435e-06
6824.8, 5.0804e-06
6826.8, 5.0126e-06
6828.8, 5.0422e-06
6830.8, 5.0556e-06
6832.8, 4.9908e-06
6834.8, 4.8939e-06
6836.8, 5.0084e-06
6838.8, 5.0104e-06
6840.8, 5.1068e-06
6842.8, 5.1887e-06
6844.8, 5.1095e-06
6846.8, 5.0644e-06
6848.8, 5.0393e-06
6850.8, 5.0466e-06
6852.8, 4.9812e-06
6854.8, 4.9379e-06
6856.8, 5.0188e-06
6858.9, 5.0552e-06
6860.9, 5.1626e-06
6862.9, 5.0741e-06
6864.9, 5.0613e-06
6866.9, 5.0038e-06
6868.9, 5.1036e-06
6870.9, 5.0724e-06
6872.9, 5.0249e-06
6874.9, 5.0128e-06
6876.9, 4.9635e-06
6878.9, 5.0187e-06
6880.9, 5.0688e-06
6882.9, 5.0449e-06
6884.9, 5.1354e-06
6886.9, 5.0595e-06
6888.9, 5.018e-06
6890.9, 4.9026e-06
6892.9, 4.9777e-06
6894.9, 5.0848e-06
6896.9, 5.1099e-06
6898.9, 5.1843e-06
6900.9, 4.9748e-06
6902.9, 4.9859e-06
6904.9, 5.0314e-06
6906.9, 5.077e-06
6908.9, 4.9942e-06
6910.9, 4.8787e-06
6912.9, 5.0719e-06
6914.9, 5.0514e-06
6916.9, 5.0493e-06
6918.9, 5.0366e-06
6920.9, 5.0353e-06
6922.9, 5.013e-06
6924.9, 5.0993e-06
6926.9, 5.0263e-06
6928.9, 5.0029e-06
6930.9, 5.0066e-06
6932.9, 5.0676e-06
6934.9, 5.1396e-06
6936.9, 5.0023e-06
6938.9, 5.0415e-06
6940.9, 5.0118e-06
6942.9, 4.9821e-06
6944.9, 1.9104e-06
6946.9, -3.443e-08
6948.9, -3.086e-08
6950.9, -3.594e-08
6952.9, -3.094e-08
6954.9, -3.553e-08
6956.9, -3.598e-08
6959.0, -3.542e-08
6961.0, -3.684e-08
6963.0, -3.644e-08
6965.0, -3.671e-08
6967.0, -3.473e-08
6969.0, -3.41e-08
6971.0, -3.825e-08
6973.0, -3.394e-08
6975.0, -3.783e-08
6977.0, -3.83e-08
6979.0, -3.948e-08
6981.0, -3.658e-08
6983.0, -3.826e-08
6985.0, -3.72e-08
6987.0, -3.693e-08
6989.0, -3.59e-08
6991.0, -3.472e-08
6993.0, -3.727e-08
6995.0, -3.254e-08
6997.0, -3.491e-08
6999.0, -3.707e-08
7001.0, -3.925e-08
7003.0, -3.851e-08
7005.0, -3.672e-08
7007.0, -3.636e-08
7009.0, -3.86e-08
7011.0, -3.455e-08
7013.0, -3.768e-08
7015.0, -3.43e-08
7017.0, -3.45e-08
7019.0, -3.265e-08
7021.0, -3.302e-08
7023.0, -3.521e-08
7025.0, -3.414e-08
7027.0, -3.713e-08
7029.0, -3.758e-08
7031.0, -3.747e-08
7033.0, -3.355e-08
7035.0, -3.342e-08
7037.0, -3.245e-08
7039.0, -3.425e-08
7041.0, -3.732e-08
7043.0, -3.491e-08
7045.0, -3.409e-08
7047.0, -3.491e-08
7049.0, -3.428e-08
7051.0, -3.688e-08
7053.0, -3.501e-08
7055.0, -3.686e-08
7057.0, -3.772e-08
7059.1, -3.469e-08
7061.1, -3.843e-08
7063.1, -3.419e-08
7065.1, -3.645e-08
7067.1, -3.068e-08
7069.1, -3.277e-08
7071.1, -3.354e-08
7073.1, -3.383e-08
7075.1, -3.45e-08
7077.1, -3.704e-08
7079.1, -3.874e-08
7081.1, -3.62e-08
7083.1, -3.186e-08
7085.1, -3.588e-08
7087.1, -3.915e-08
7089.1, -3.613e-08
7091.1, -3.613e-08
7093.1, -3.766e-08
7095.1, -3.641e-08
7097.1, -3.679e-08
7099.1, -3.881e-08
7101.1, -3.121e-08
7103.1, -3.464e-08
7105.1, -3.668e-08
7107.1, -3.618e-08
7109.1, -3.734e-08
7111.1, -3.644e-08
7113.1, -3.894e-08
7115.1, -3.504e-08
7117.1, -4.035e-08
7119.1, -3.718e-08
7121.1, -3.787e-08
7123.1, -3.75e-08
7125.1, -4.035e-08
7127.1, -3.788e-08
7129.1, -3.715e-08
7131.1, -3.74e-08
7133.1, -3.792e-08
7135.1, -3.906e-08
7137.1, -3.747e-08
7139.1, -4.182e-08
7141.1, -4.205e-08
7143.1, -4.014e-08
7145.1, -3.814e-08
7147.1, -3.811e-08
7149.1, -3.781e-08
7151.1, -3.655e-08
7153.1, -3.688e-08
7155.1, -3.435e-08
7157.1, -3.549e-08
7159.2, -3.768e-08
7161.2, -3.674e-08
7163.2, -3.711e-08
7165.2, -3.637e-08
7167.2, -3.806e-08
7169.2, -3.853e-08
7171.2, -3.918e-08
7173.2, -3.633e-08
7175.2, -4.085e-08
7177.2, -3.972e-08
7179.2, -3.649e-08
7181.2, -4.129e-08
7183.2, -3.342e-08
7185.2, -3.464e-08
7187.2, -3.611e-08
7189.2, -3.885e-08
7191.2, -3.855e-08
7193.2, -3.864e-08
7195.2, -4.073e-08
7197.2, -3.787e-08
7199.2, -4.283e-08
7201.2, -4.218e-08
7203.2, -4.305e-08
7205.2, -4.583e-08
7207.2, -4.006e-08
7209.2, -4.348e-08
7211.2, -3.922e-08
7213.2, -4.021e-08
7215.2, -3.827e-08
7217.2, -4.419e-08
7219.2, -4.393e-08
7221.2, -4.179e-08
7223.2, -3.712e-08
7225.2, -3.734e-08
7227.2, -3.797e-08
7229.2, -3.728e-08
7231.2, -4.001e-08
7233.2, -4.018e-08
7235.2, -3.651e-08
7237.2, -3.548e-08
7239.2, -3.908e-08
7241.2, -4.132e-08
7243.2, -4.103e-08
7245.2, -3.94e-08
7247.2, -4.211e-08
7249.2, -3.918e-08
7251.2, -4.131e-08
7253.2, -4.223e-08
7255.2, -3.925e-08
7257.2, -3.705e-08
7259.3, -3.705e-08
7261.3, -3.807e-08
7263.3, -3.823e-08
7265.3, -3.845e-08
7267.3, -3.753e-08
7269.3, -4.014e-08
7271.3, -4.033e-08
7273.3, -3.719e-08
7275.3, -3.757e-08
7277.3, -4.14e-08
7279.3, -4.062e-08
7281.3, -3.77e-08
7283.3, -3.945e-08
7285.3, -3.978e-08
7287.3, -4.028e-08
7289.3, -4.3e-08
7291.3, -3.891e-08
7293.3, -3.745e-08
7295.3, -3.961e-08
7297.3, -3.811e-08
7299.3, -3.789e-08
7301.3, -3.814e-08
7303.3, -3.774e-08
7305.3, -3.56e-08
7307.3, -3.512e-08
7309.3, -3.451e-08
7311.3, -3.48e-08
7313.3, -3.862e-08
7315.3, -3.492e-08
7317.3, -3.595e-08
7319.3, -3.641e-08
7321.3, -3.836e-08
7323.3, -3.481e-08
7325.3, -3.65e-08
7327.3, -3.895e-08
7329.3, -3.63e-08
7331.3, -3.731e-08
7333.3, -3.412e-08
7335.3, -3.826e-08
7337.3, -3.64e-08
7339.3, -3.745e-08
7341.3, -3.733e-08
7343.3, -3.657e-08
7345.3, -3.815e-08
7347.3, -3.819e-08
7349.3, -3.691e-08
7351.3, -3.741e-08
7353.3, -3.821e-08
7355.3, -3.822e-08
7357.3, -3.644e-08
7359.4, -4.064e-08
7361.4, -3.621e-08
7363.4, -3.852e-08
7365.4, -3.775e-08
7367.4, -3.593e-08
7369.4, -3.494e-08
7371.4, -3.778e-08
7373.4, -3.941e-08
7375.4, -3.563e-08
7377.4, -3.852e-08
7379.4, -3.946e-08
7381.4, -4.33e-08
7383.4, -3.867e-08
7385.4, -3.996e-08
7387.4, -4.06e-08
7389.4, -4.117e-08
7391.4, -4.029e-08
7393.4, -4.104e-08
7395.4, -3.691e-08
7397.4, -4.133e-08
7399.4, -3.981e-08
7401.4, -4.106e-08
7403.4, -3.982e-08
7405.4, -3.474e-08
7407.4, -3.757e-08
7409.4, -3.666e-08
7411.4, -3.845e-08
7413.4, -3.579e-08
7415.4, -3.604e-08
7417.4, -3.829e-08
7419.4, -3.931e-08
7421.4, -3.816e-08
7423.4, -3.848e-08
7425.4, -3.899e-08
7427.4, -3.762e-08
7429.4, -3.984e-08
7431.4, -4.017e-08
7433.4, -4.055e-08
7435.4, -3.733e-08
7437.4, -3.824e-08
7439.4, -3.666e-08
7441.4, -3.477e-08
7443.4, -3.486e-08
7445.4, -3.435e-08
7447.4, -3.986e-08
7449.4, -3.698e-08
7451.4, -3.381e-08
7453.4, -3.659e-08
7455.4, -3.649e-08
7457.4, -3.706e-08
7459.5, -3.794e-08
7461.5, -3.703e-08
7463.5, -3.765e-08
7465.5, -4.069e-08
7467.5, -3.813e-08
7469.5, -3.875e-08
7471.5, -3.756e-08
7473.5, -4.007e-08
7475.5, -3.795e-08
7477.5, -3.771e-08
7479.5, -3.847e-08
7481.5, -3.901e-08
7483.5, -3.642e-08
7485.5, -3.924e-08
7487.5, -4.059e-08
7489.5, -4.159e-08
7491.5, -3.86e-08
7493.5, -3.844e-08
7495.5, -3.77e-08
7497.5, -3.986e-08
7499.5, -3.66e-08
7501.5, -3.266e-08
7503.5, -3.276e-08
7505.5, -3.455e-08
7507.5, -3.906e-08
7509.5, -3.88e-08
7511.5, -3.566e-08
7513.5, -3.899e-08
7515.5, -3.664e-08
7517.5, -3.989e-08
7519.5, -3.945e-08
7521.5, -3.461e-08
7523.5, -3.323e-08
7525.5, -3.847e-08
7527.5, -3.868e-08
7529.5, -3.678e-08
7531.5, -3.677e-08
7533.5, -3.56e-08
7535.5, -3.946e-08
7537.5, -3.671e-08
7539.5, -3.898e-08
7541.5, -4.412e-08
7543.5, -3.813e-08
7545.5, -4.043e-08
7547.5, -4.359e-08
7549.5, -3.854e-08
7551.5, -3.841e-08
7553.5, -3.737e-08
7555.5, -4.017e-08
7557.5, -3.87e-08
7559.6, -3.773e-08
7561.6, -3.723e-08
7563.6, -3.885e-08
7565.6, -3.875e-08
7567.6, -4.035e-08
7569.6, -3.839e-08
7571.6, -3.89e-08
7573.6, -4.224e-08
7575.6, -3.7e-08
7577.6, -3.746e-08
7579.6, -3.591e-08
7581.6, -3.602e-08
7583.6, -3.788e-08
7585.6, -3.672e-08
7587.6, -3.965e-08
7589.6, -3.95e-08
7591.6, -3.625e-08
7593.6, -3.738e-08
7595.6, -3.65e-08
7597.6, -4.157e-08
7599.6, -4.102e-08
7601.6, -4.231e-08
7603.6, -3.749e-08
7605.6, -3.801e-08
7607.6, -3.803e-08
7609.6, -3.972e-08
7611.6, -4.261e-08
7613.6, -4.145e-08
7615.6, -4.277e-08
7617.6, -3.777e-08
7619.6, -4.398e-08
7621.6, -4.096e-08
7623.6, -3.965e-08
7625.6, -3.949e-08
7627.6, -4.318e-08
7629.6, -3.697e-08
7631.6, -3.783e-08
7633.6, -3.626e-08
7635.6, -3.53e-08
7637.6, -3.658e-08
7639.6, -3.849e-08
7641.6, -3.687e-08
7643.6, -3.851e-08
7645.6, -3.389e-08
7647.6, -3.829e-08
7649.6, -3.428e-08
7651.6, -3.522e-08
7653.6, -3.834e-08
7655.6, -3.686e-08
7657.6, -3.753e-08
7659.7, -3.932e-08
7661.7, -3.535e-08
7663.7, -3.476e-08
7665.7, -3.449e-08
7667.7, -3.555e-08
7669.7, -3.565e-08
7671.7, -3.565e-08
7673.7, -3.431e-08
7675.7, -3.514e-08
7677.7, -3.35e-08
7679.7, -3.515e-08
7681.7, -3.653e-08
7683.7, -3.351e-08
7685.7, -3.379e-08
7687.7, -3.626e-08
7689.7, -3.748e-08
7691.7, -3.618e-08
7693.7, -3.468e-08
7695.7, -3.734e-08
7697.7, -3.769e-08
7699.7, -3.975e-08
7701.7, -4.059e-08
7703.7, -3.746e-08
7705.7, -3.71e-08
7707.7, -3.718e-08
7709.7, -3.713e-08
7711.7, -3.807e-08
7713.7, -3.633e-08
7715.7, -3.56e-08
7717.7, -3.423e-08
7719.7, -3.742e-08
7721.7, -3.719e-08
7723.7, -3.506e-08
7725.7, -3.373e-08
7727.7, -3.641e-08
7729.7, -3.169e-08
7731.7, -3.732e-08
7733.7, -3.24e-08
7735.7, -3.486e-08
7737.7, -3.505e-08
7739.7, -3.523e-08
7741.7, -3.832e-08
7743.7, -3.285e-08
7745.7, -3.261e-08
7747.7, -3.615e-08
7749.7, -3.917e-08
7751.7, -3.875e-08
7753.7, -3.808e-08
7755.7, -3.827e-08
7757.7, -3.562e-08
7759.8, -3.998e-08
7761.8, -4.157e-08
7763.8, -3.802e-08
7765.8, -3.705e-08
7767.8, -3.726e-08
7769.8, -3.839e-08
7771.8, -3.638e-08
7773.8, -3.283e-08
7775.8, -3.442e-08
7777.8, -3.793e-08
7779.8, -3.466e-08
7781.8, -3.44e-08
7783.8, -3.572e-08
7785.8, -3.556e-08
7787.8, -3.098e-08
7789.8, -3.226e-08
7791.8, -3.618e-08
7793.8, -3.751e-08
7795.8, -3.455e-08
7797.8, -3.901e-08
7799.8, -3.791e-08
7801.8, -3.673e-08
7803.8, -3.404e-08
7805.8, -3.532e-08
7807.8, -3.386e-08
7809.8, -3.608e-08
7811.8, -3.618e-08
7813.8, -2.923e-08
7815.8, -3.188e-08
7817.8, -3.647e-08
7819.8, -3.639e-08
7821.8, -3.462e-08
7823.8, -3.666e-08
7825.8, -3.775e-08
7827.8, -3.656e-08
7829.8, -3.46e-08
7831.8, -3.841e-08
7833.8, -3.528e-08
7835.8, -3.446e-08
7837.8, -3.848e-08
7839.8, -3.839e-08
7841.8, -3.393e-08
7843.8, -3.278e-08
7845.8, -3.481e-08
7847.8, -3.576e-08
7849.8, -3.582e-08
7851.8, -3.595e-08
7853.8, -3.784e-08
7855.8, -4.105e-08
7857.8, -3.856e-08
7859.9, -3.84e-08
7861.9, -3.713e-08
7863.9, -3.668e-08
7865.9, -3.322e-08
7867.9, -3.771e-08
7869.9, -4.003e-08
7871.9, -3.53e-08
7873.9, -3.701e-08
7875.9, -3.952e-08
7877.9, -3.378e-08
7879.9, -4.028e-08
7881.9, -3.963e-08
7883.9, -3.6e-08
7885.9, -3.699e-08
7887.9, -3.724e-08
7889.9, -3.702e-08
7891.9, -3.383e-08
7893.9, -3.262e-08
7895.9, -2.997e-08
7897.9, -3.002e-08
7899.9, -3.296e-08
7901.9, -3.232e-08
7903.9, -3.325e-08
7905.9, -2.982e-08
7907.9, -3.313e-08
7909.9, -3.396e-08
7911.9, -3.289e-08
7913.9, -3.538e-08
7915.9, -2.97e-08
7917.9, -2.96e-08
7919.9, -3.556e-08
7921.9, -3.68e-08
7923.9, -3.699e-08
7925.9, -3.572e-08
7927.9, -3.584e-08
7929.9, -4.005e-08
7931.9, -3.467e-08
7933.9, -3.906e-08
7935.9, -3.456e-08
7937.9, -3.865e-08
7939.9, -3.652e-08
7941.9, -3.753e-08
7943.9, -3.656e-08
7945.9, -3.555e-08
7947.9, -3.469e-08
7949.9, -3.72e-08
7951.9, -3.85e-08
7953.9, -3.385e-08
7955.9, -3.403e-08
7957.9, -3.698e-08
7960.0, -3.622e-08
7962.0, -3.481e-08
7964.0, -3.422e-08
7966.0, -3.507e-08
7968.0, -3.59e-08
7970.0, -3.669e-08
7972.0, -3.496e-08
7974.0, -3.743e-08
7976.0, -3.92e-08
7978.0, -3.623e-08
7980.0, -3.381e-08
7982.0, -3.657e-08
7984.0, -3.695e-08
7986.0, -3.415e-08
7988.0, -3.591e-08
7990.0, -3.506e-08
7992.0, -3.518e-08
7994.0, -3.321e-08
7996.0, 1.5936e-06
7998.0, 4.8984e-06
8000.0, 4.9326e-06
8002.0, 5.0213e-06
8004.0, 4.8873e-06
8006.0, 4.8146e-06
8008.0, 4.9301e-06
8010.0, 4.8472e-06
8012.0, 4.8909e-06
8014.0, 4.8723e-06
8016.0, 4.9006e-06
8018.0, 4.7823e-06
8020.0, 4.9336e-06
8022.0, 4.9935e-06
8024.0, 4.8892e-06
8026.0, 4.8365e-06
8028.0, 4.8781e-06
8030.0, 4.8408e-06
8032.0, 4.7985e-06
8034.0, 4.8232e-06
8036.0, 4.8812e-06
8038.0, 4.9037e-06
8040.0, 4.9365e-06
8042.0, 4.8885e-06
8044.0, 4.9323e-06
8046.0, 4.9096e-06
8048.0, 4.8484e-06
8050.0, 5.0454e-06
8052.0, 4.9489e-06
8054.0, 4.8697e-06
8056.0, 4.8973e-06
8058.0, 4.908e-06
8060.1, 4.9082e-06
8062.1, 4.9776e-06
8064.1, 4.9525e-06
8066.1, 5.0079e-06
8068.1, 4.9411e-06
8070.1, 4.8593e-06
8072.1, 4.9082e-06
8074.1, 4.9379e-06
8076.1, 4.7493e-06
8078.1, 4.9207e-06
8080.1, 4.9766e-06
8082.1, 4.9515e-06
8084.1, 4.9521e-06
8086.1, 4.9889e-06
8088.1, 4.8809e-06
8090.1, 4.8988e-06
8092.1, 4.9321e-06
8094.1, 4.9654e-06
8096.1, 4.8415e-06
8098.1, 4.9056e-06
8100.1, 4.9099e-06
8102.1, 4.9344e-06
8104.1, 5.0037e-06
8106.1, 4.9607e-06
8108.1, 4.8302e-06
8110.1, 4.9135e-06
8112.1, 4.9118e-06
8114.1, 4.8004e-06
8116.1, 4.8332e-06
8118.1, 4.9556e-06
8120.1, 4.9299e-06
8122.1, 5.0311e-06
8124.1, 4.9382e-06
8126.1, 4.984e-06
8128.1, 4.9766e-06
8130.1, 4.9201e-06
8132.1, 4.9547e-06
8134.1, 4.9071e-06
8136.1, 4.9653e-06
8138.1, 4.8991e-06
8140.1, 4.9966e-06
8142.1, 4.8427e-06
8144.1, 4.9172e-06
8146.1, 5.0065e-06
8148.1, 4.9566e-06
8150.1, 4.9547e-06
8152.1, 5.0114e-06
8154.1, 4.9498e-06
8156.1, 4.8462e-06
8158.1, 4.9014e-06
8160.2, 4.9909e-06
8162.2, 4.9975e-06
8164.2, 4.9957e-06
8166.2, 4.8834e-06
8168.2, 4.9725e-06
8170.2, 4.9274e-06
8172.2, 5.001e-06
8174.2, 4.9942e-06
8176.2, 5.0143e-06
8178.2, 5.0605e-06
8180.2, 4.9902e-06
8182.2, 5.0265e-06
8184.2, 4.9892e-06
8186.2, 5.0219e-06
8188.2, 5.0159e-06
8190.2, 4.9034e-06
8192.2, 4.887e-06
8194.2, 5.0332e-06
8196.2, 4.9555e-06
8198.2, 5.0547e-06
8200.2, 4.9685e-06
8202.2, 4.8484e-06
8204.2, 5.0415e-06
8206.2, 5.1357e-06
8208.2, 4.9623e-06
8210.2, 5.1207e-06
8212.2, 4.986e-06
8214.2, 4.9233e-06
8216.2, 4.9909e-06
8218.2, 4.998e-06
8220.2, 4.9232e-06
8222.2, 5.0393e-06
8224.2, 5.1274e-06
8226.2, 5.0252e-06
8228.2, 4.9788e-06
8230.2, 5.0517e-06
8232.2, 5.0414e-06
8234.2, 5.0154e-06
8236.2, 5.0502e-06
8238.2, 5.0485e-06
8240.2, 4.9517e-06
8242.2, 5.0751e-06
8244.2, 4.9247e-06
8246.2, 4.8846e-06
8248.2, 5.0813e-06
8250.2, 4.9989e-06
8252.2, 4.9965e-06
8254.2, 4.9725e-06
8256.2, 4.9832e-06
8258.2, 4.9917e-06
8260.3, 4.9953e-06
8262.3, 4.8807e-06
8264.3, 4.9673e-06
8266.3, 5.1276e-06
8268.3, 5.0217e-06
8270.3, 4.9852e-06
8272.3, 5.022e-06
8274.3, 5.009e-06
8276.3, 4.9463e-06
8278.3, 5.0641e-06
8280.3, 5.0056e-06
8282.3, 5.0291e-06
8284.3, 5.0137e-06
8286.3, 5.0846e-06
8288.3, 5.0134e-06
8290.3, 5.0491e-06
8292.3, 5.0299e-06
8294.3, 5.0604e-06
8296.3, 5.0242e-06
8298.3, 5.0414e-06
8300.3, 5.0376e-06
8302.3, 5.027e-06
8304.3, 4.9691e-06
8306.3, 5.016e-06
8308.3, 4.9859e-06
8310.3, 5.0132e-06
8312.3, 5.0441e-06
8314.3, 5.0691e-06
8316.3, 5.0629e-06
8318.3, 5.022e-06
8320.3, 5.0935e-06
8322.3, 5.0128e-06
8324.3, 4.9254e-06
8326.3, 5.0496e-06
8328.3, 5.0143e-06
8330.3, 5.0605e-06
8332.3, 5.0423e-06
8334.3, 4.9495e-06
8336.3, 4.9113e-06
8338.3, 5.0377e-06
8340.3, 5.0586e-06
8342.3, 5.0305e-06
8344.3, 5.0339e-06
8346.3, 4.9799e-06
8348.3, 5.0119e-06
8350.3, 5.0873e-06
8352.3, 5.0071e-06
8354.3, 5.0737e-06
8356.3, 4.966e-06
8358.3, 5.0263e-06
8360.4, 5.0922e-06
8362.4, 5.0266e-06
8364.4, 5.0969e-06
8366.4, 5.0366e-06
8368.4, 4.9716e-06
8370.4, 4.9069e-06
8372.4, 4.9974e-06
8374.4, 5.0555e-06
8376.4, 4.9744e-06
8378.4, 5.0221e-06
8380.4, 5.049e-06
8382.4, 4.945e-06
8384.4, 5.0722e-06
8386.4, 5.0981e-06
8388.4, 5.0783e-06
8390.4, 5.043e-06
8392.4, 5.0224e-06
8394.4, 5.0458e-06
8396.4, 5.0627e-06
8398.4, 5.1952e-06
8400.4, 5.0456e-06
8402.4, 5.0488e-06
8404.4, 5.0972e-06
8406.4, 5.1449e-06
8408.4, 5.0803e-06
8410.4, 5.0494e-06
8412.4, 5.0936e-06
8414.4, 5.072e-06
8416.4, 5.0732e-06
8418.4, 5.0841e-06
8420.4, 5.0095e-06
8422.4, 5.0469e-06
8424.4, 5.0472e-06
8426.4, 5.0535e-06
8428.4, 5.016e-06
8430.4, 5.0022e-06
8432.4, 5.0186e-06
8434.4, 5.0899e-06
8436.4, 5.0626e-06
8438.4, 4.8798e-06
8440.4, 4.9967e-06
8442.4, 4.9839e-06
8444.4, 4.9995e-06
8446.4, 5.0792e-06
8448.4, 5.131e-06
8450.4, 5.0259e-06
8452.4, 5.0459e-06
8454.4, 5.0489e-06
8456.4, 5.0649e-06
8458.4, 5.0091e-06
8460.5, 5.0186e-06
8462.5, 4.9889e-06
8464.5, 4.9872e-06
8466.5, 5.0814e-06
8468.5, 5.1274e-06
8470.5, 5.04e-06
8472.5, 5.0418e-06
8474.5, 5.0275e-06
8476.5, 5.0539e-06
8478.5, 5.0354e-06
8480.5, 5.0712e-06
8482.5, 5.0288e-06
8484.5, 5.0136e-06
8486.5, 4.9323e-06
8488.5, 5.0358e-06
8490.5, 5.0083e-06
8492.5, 5.0111e-06
8494.5, 5.0765e-06
8496.5, 5.03e-06
8498.5, 5.0599e-06
8500.5, 5.0309e-06
8502.5, 4.9293e-06
8504.5, 5.0243e-06
8506.5, 5.0828e-06
8508.5, 5.0632e-06
8510.5, 5.077e-06
8512.5, 5.026e-06
8514.5, 5.0839e-06
8516.5, 5.0127e-06
8518.5, 5.0597e-06
8520.5, 5.0313e-06
8522.5, 4.9638e-06
8524.5, 5.1154e-06
8526.5, 5.0466e-06
8528.5, 5.0151e-06
8530.5, 4.9792e-06
8532.5, 5.0623e-06
8534.5, 5.0264e-06
8536.5, 5.0118e-06
8538.5, 5.0349e-06
8540.5, 4.8925e-06
8542.5, 5.0009e-06
8544.5, 5.0025e-06
8546.5, 5.1377e-06
8548.5, 5.0366e-06
8550.5, 5.0633e-06
8552.5, 5.0778e-06
8554.5, 5.0389e-06
8556.5, 5.1151e-06
8558.5, 5.0846e-06
8560.6, 5.0237e-06
8562.6, 5.0409e-06
8564.6, 5.081e-06
8566.6, 5.1152e-06
8568.6, 5.1663e-06
8570.6, 5.0372e-06
8572.6, 5.0901e-06
8574.6, 5.1605e-06
8576.6, 5.0985e-06
8578.6, 5.1229e-06
8580.6, 5.0182e-06
8582.6, 5.0993e-06
8584.6, 5.1591e-06
8586.6, 5.0536e-06
8588.6, 5.0704e-06
8590.6, 4.9638e-06
8592.6, 5.0433e-06
8594.6, 5.1052e-06
8596.6, 5.1404e-06
8598.6, 4.9872e-06
8600.6, 5.0848e-06
8602.6, 5.044e-06
8604.6, 5.0419e-06
8606.6, 5.0498e-06
8608.6, 5.1296e-06
8610.6, 5.1422e-06
8612.6, 4.9958e-06
8614.6, 5.1419e-06
8616.6, 5.0923e-06
8618.6, 5.0553e-06
8620.6, 5.0463e-06
8622.6, 5.0617e-06
8624.6, 5.1004e-06
8626.6, 5.1098e-06
8628.6, 5.0037e-06
8630.6, 5.1533e-06
8632.6, 5.1577e-06
8634.6, 5.0672e-06
8636.6, 5.1448e-06
8638.6, 5.1962e-06
8640.6, 5.1039e-06
8642.6, 5.1075e-06
8644.6, 4.9922e-06
8646.6, 5.1042e-06
8648.6, 5.0607e-06
8650.6, 5.1245e-06
8652.6, 4.9683e-06
8654.6, 5.0931e-06
8656.6, 5.063e-06
8658.6, 5.0462e-06
8660.7, 5.1062e-06
8662.7, 5.2265e-06
8664.7, 5.085e-06
8666.7, 5.0338e-06
8668.7, 4.9853e-06
8670.7, 5.1534e-06
8672.7, 5.0357e-06
8674.7, 5.1162e-06
8676.7, 5.0316e-06
8678.7, 4.969e-06
8680.7, 5.0384e-06
8682.7, 5.0491e-06
8684.7, 5.066e-06
8686.7, 5.1147e-06
8688.7, 5.1127e-06
8690.7, 5.0346e-06
8692.7, 5.0629e-06
8694.7, 5.1213e-06
8696.7, 5.1086e-06
8698.7, 5.0796e-06
8700.7, 5.078e-06
8702.7, 5.0653e-06
8704.7, 5.0535e-06
8706.7, 5.0445e-06
8708.7, 5.0981e-06
8710.7, 5.1379e-06
8712.7, 5.1259e-06
8714.7, 5.1464e-06
8716.7, 5.0932e-06
8718.7, 5.1464e-06
8720.7, 5.0101e-06
8722.7, 5.1257e-06
8724.7, 5.0845e-06
8726.7, 5.1104e-06
8728.7, 5.1111e-06
8730.7, 4.9992e-06
8732.7, 5.1178e-06
8734.7, 5.1209e-06
8736.7, 5.0529e-06
8738.7, 4.9982e-06
8740.7, 4.9656e-06
8742.7, 5.0899e-06
8744.7, 5.0612e-06
8746.7, 5.1091e-06
8748.7, 5.1275e-06
8750.7, 5.1685e-06
8752.7, 5.1801e-06
8754.7, 5.1471e-06
8756.7, 5.0715e-06
8758.7, 5.0631e-06
8760.8, 5.074e-06
8762.8, 4.9938e-06
8764.8, 5.0598e-06
8766.8, 5.0976e-06
8768.8, 5.073e-06
8770.8, 5.05e-06
8772.8, 4.9302e-06
8774.8, 5.0266e-06
8776.8, 4.9861e-06
8778.8, 5.0492e-06
8780.8, 5.0467e-06
8782.8, 5.1132e-06
8784.8, 5.1056e-06
8786.8, 5.0815e-06
8788.8, 5.1563e-06
8790.8, 5.0698e-06
8792.8, 5.1657e-06
8794.8, 5.059e-06
8796.8, 5.0182e-06
8798.8, 5.1326e-06
8800.8, 5.0845e-06
8802.8, 5.1054e-06
8804.8, 5.0321e-06
8806.8, 5.0021e-06
8808.8, 5.1234e-06
8810.8, 5.088e-06
8812.8, 5.0789e-06
8814.8, 5.0848e-06
8816.8, 5.1293e-06
8818.8, 5.0721e-06
8820.8, 5.1829e-06
8822.8, 5.044e-06
8824.8, 5.1256e-06
8826.8, 5.1391e-06
8828.8, 5.2109e-06
8830.8, 5.0448e-06
8832.8, 5.0656e-06
8834.8, 5.0689e-06
8836.8, 5.073e-06
8838.8, 5.0924e-06
8840.8, 5.1663e-06
8842.8, 5.1534e-06
8844.8, 5.2002e-06
8846.8, 5.0688e-06
8848.8, 5.1595e-06
8850.8, 5.0661e-06
8852.8, 5.1213e-06
8854.8, 5.1719e-06
8856.8, 5.1585e-06
8858.8, 4.9871e-06
8860.9, 5.1386e-06
8862.9, 5.088e-06
8864.9, 5.1718e-06
8866.9, 4.9822e-06
8868.9, 5.1965e-06
8870.9, 5.161e-06
8872.9, 5.1785e-06
8874.9, 4.9412e-06
8876.9, 5.021e-06
8878.9, 5.102e-06
8880.9, 5.0755e-06
8882.9, 5.0904e-06
8884.9, 5.1163e-06
8886.9, 5.2191e-06
8888.9, 5.1097e-06
8890.9, 5.1316e-06
8892.9, 5.0438e-06
8894.9, 5.1084e-06
8896.9, 5.167e-06
8898.9, 4.9655e-06
8900.9, 5.0003e-06
8902.9, 5.0874e-06
8904.9, 5.0324e-06
8906.9, 5.0886e-06
8908.9, 5.1021e-06
8910.9, 5.143e-06
8912.9, 5.0896e-06
8914.9, 5.1252e-06
8916.9, 5.0443e-06
8918.9, 5.1155e-06
8920.9, 5.0809e-06
8922.9, 5.0463e-06
8924.9, 5.0096e-06
8926.9, 5.2269e-06
8928.9, 5.1166e-06
8930.9, 5.0538e-06
8932.9, 5.2266e-06
8934.9, 5.2117e-06
8936.9, 5.1247e-06
8938.9, 5.1349e-06
8940.9, 5.1312e-06
8942.9, 5.0301e-06
8944.9, 5.1604e-06
8946.9, 5.1669e-06
8948.9, 5.0952e-06
8950.9, 5.0631e-06
8952.9, 5.08e-06
8954.9, 5.1657e-06
8956.9, 5.1037e-06
8958.9, 5.1768e-06
8961.0, 5.2035e-06
8963.0, 5.0871e-06
8965.0, 5.1242e-06
8967.0, 5.0223e-06
8969.0, 5.1432e-06
8971.0, 5.1291e-06
8973.0, 5.2071e-06
8975.0, 5.2511e-06
8977.0, 5.0901e-06
8979.0, 5.1522e-06
8981.0, 5.2146e-06
8983.0, 5.1688e-06
8985.0, 5.1761e-06
8987.0, 5.1764e-06
8989.0, 5.1461e-06
8991.0, 5.1766e-06
8993.0, 5.1982e-06
8995.0, 5.0952e-06
8997.0, 2.5434e-06
8999.0, -2.793e-08
9001.0, -3.112e-08
9003.0, -3.091e-08
9005.0, -3.319e-08
9007.0, -3.11e-08
9009.0, -3.048e-08
9011.0, -3.096e-08
9013.0, -3.123e-08
9015.0, -3.145e-08
9017.0, -3.013e-08
9019.0, -3.179e-08
9021.0, -3.519e-08
9023.0, -3.356e-08
9025.0, -3.508e-08
9027.0, -3.414e-08
9029.0, -3.4e-08
9031.0, -3.174e-08
9033.0, -3.244e-08
9035.0, -3.149e-08
9037.0, -3.519e-08
9039.0, -3.391e-08
9041.0, -3.794e-08
9043.0, -3.661e-08
9045.0, -3.557e-08
9047.0, -3.456e-08
9049.0, -3.666e-08
9051.0, -3.816e-08
9053.0, -3.257e-08
9055.0, -3.406e-08
9057.0, -3.691e-08
9059.0, -3.584e-08
9061.1, -3.568e-08
9063.1, -3.815e-08
9065.1, -3.95e-08
9067.1, -3.668e-08
9069.1, -3.678e-08
9071.1, -3.625e-08
9073.1, -3.421e-08
9075.1, -3.338e-08
9077.1, -3.156e-08
9079.1, -3.542e-08
9081.1, -3.431e-08
9083.1, -3.323e-08
9085.1, -3.603e-08
9087.1, -3.363e-08
9089.1, -3.518e-08
9091.1, -3.775e-08
9093.1, -3.482e-08
9095.1, -3.216e-08
9097.1, -3.664e-08
9099.1, -3.87e-08
9101.1, -3.789e-08
9103.1, -3.872e-08
9105.1, -3.619e-08
9107.1, -3.424e-08
9109.1, -3.444e-08
9111.1, -3.661e-08
9113.1, -4.019e-08
9115.1, -3.933e-08
9117.1, -3.947e-08
9119.1, -3.658e-08
9121.1, -4.219e-08
9123.1, -3.964e-08
9125.1, -4.036e-08
9127.1, -3.907e-08
9129.1, -3.864e-08
9131.1, -3.548e-08
9133.1, -4.001e-08
9135.1, -3.938e-08
9137.1, -3.984e-08
9139.1, -3.6e-08
9141.1, -3.995e-08
9143.1, -3.912e-08
9145.1, -3.829e-08
9147.1, -4.093e-08
9149.1, -3.983e-08
9151.1, -4.074e-08
9153.1, -3.835e-08
9155.1, -4.012e-08
9157.1, -3.921e-08
9159.1, -3.682e-08
9161.2, -3.645e-08
9163.2, -3.823e-08
9165.2, -3.742e-08
9167.2, -3.613e-08
9169.2, -3.942e-08
9171.2, -3.876e-08
9173.2, -3.619e-08
9175.2, -3.443e-08
9177.2, -3.776e-08
9179.2, -3.552e-08
9181.2, -3.706e-08
9183.2, -3.761e-08
9185.2, -3.46e-08
9187.2, -3.409e-08
9189.2, -3.581e-08
9191.2, -3.444e-08
9193.2, -3.356e-08
9195.2, -3.695e-08
9197.2, -3.644e-08
9199.2, -3.551e-08
9201.2, -3.374e-08
9203.2, -3.331e-08
9205.2, -3.223e-08
9207.2, -3.561e-08
9209.2, -3.197e-08
9211.2, -3.558e-08
9213.2, -3.679e-08
9215.2, -3.568e-08
9217.2, -3.549e-08
9219.2, -3.81e-08
9221.2, -3.174e-08
9223.2, -3.407e-08
9225.2, -3.552e-08
9227.2, -3.585e-08
9229.2, -3.767e-08
9231.2, -3.755e-08
9233.2, -3.538e-08
9235.2, -3.494e-08
9237.2, -3.669e-08
9239.2, -3.774e-08
9241.2, -3.687e-08
9243.2, -3.575e-08
9245.2, -3.281e-08
9247.2, -3.72e-08
9249.2, -3.534e-08
9251.2, -3.734e-08
9253.2, -3.545e-08
9255.2, -3.704e-08
9257.2, -3.556e-08
9259.2, -3.739e-08
9261.3, -3.863e-08
9263.3, -3.827e-08
9265.3, -3.757e-08
9267.3, -3.327e-08
9269.3, -3.742e-08
9271.3, -3.168e-08
9273.3, -3.688e-08
9275.3, -3.492e-08
9277.3, -3.524e-08
9279.3, -3.498e-08
9281.3, -3.359e-08
9283.3, -3.664e-08
9285.3, -3.384e-08
9287.3, -3.43e-08
9289.3, -3.549e-08
9291.3, -2.978e-08
9293.3, -3.475e-08
9295.3, -3.322e-08
9297.3, -3.293e-08
9299.3, -3.629e-08
9301.3, -3.424e-08
9303.3, -3.586e-08
9305.3, -3.701e-08
9307.3, -3.338e-08
9309.3, -3.603e-08
9311.3, -3.616e-08
9313.3, -3.517e-08
9315.3, -3.522e-08
9317.3, -3.592e-08
9319.3, -3.199e-08
9321.3, -3.378e-08
9323.3, -3.361e-08
9325.3, -3.193e-08
9327.3, -3.13e-08
9329.3, -3.211e-08
9331.3, -3.183e-08
9333.3, -3.433e-08
9335.3, -3.288e-08
9337.3, -3.588e-08
9339.3, -3.279e-08
9341.3, -3.42e-08
9343.3, -3.461e-08
9345.3, -3.8e-08
9347.3, -3.367e-08
9349.3, -2.965e-08
9351.3, -3.407e-08
9353.3, -3.562e-08
9355.3, -3.477e-08
9357.3, -3.434e-08
9359.3, -3.754e-08
9361.4, -3.652e-08
9363.4, -3.393e-08
9365.4, -3.384e-08
9367.4, -3.408e-08
9369.4, -3.576e-08
9371.4, -3.311e-08
9373.4, -3.615e-08
9375.4, -3.387e-08
9377.4, -3.566e-08
9379.4, -3.068e-08
9381.4, -2.968e-08
9383.4, -3.222e-08
9385.4, -2.799e-08
9387.4, -2.972e-08
9389.4, -3.168e-08
9391.4, -3.405e-08
9393.4, -3.322e-08
9395.4, -3.286e-08
9397.4, -3.26e-08
9399.4, -3.333e-08
9401.4, -3.829e-08
9403.4, -3.96e-08
9405.4, -3.877e-08
9407.4, -3.877e-08
9409.4, -3.828e-08
9411.4, -3.52e-08
9413.4, -3.6e-08
9415.4, -3.794e-08
9417.4, -3.725e-08
9419.4, -3.813e-08
9421.4, -3.74e-08
9423.4, -3.857e-08
9425.4, -3.341e-08
9427.4, -3.399e-08
9429.4, -3.549e-08
9431.4, -3.546e-08
9433.4, -3.492e-08
9435.4, -3.434e-08
9437.4, -3.211e-08
9439.4, -3.371e-08
9441.4, -3.22e-08
9443.4, -3.627e-08
9445.4, -3.29e-08
9447.4, -3.273e-08
9449.4, -3.336e-08
9451.4, -3.565e-08
9453.4, -3.301e-08
9455.4, -3.41e-08
9457.4, -3.234e-08
9459.4, -3.348e-08
9461.5, -3.694e-08
9463.5, -3.648e-08
9465.5, -3.589e-08
9467.5, -3.138e-08
9469.5, -2.941e-08
9471.5, -3.287e-08
9473.5, -3.449e-08
9475.5, -3.461e-08
9477.5, -3.364e-08
9479.5, -3.248e-08
9481.5, -3.408e-08
9483.5, -3.393e-08
9485.5, -3.459e-08
9487.5, -3.14e-08
9489.5, -3.084e-08
9491.5, -3.587e-08
9493.5, -3.163e-08
9495.5, -3.136e-08
9497.5, -3.583e-08
9499.5, -3.853e-08
9501.5, -3.595e-08
9503.5, -3.826e-08
9505.5, -3.691e-08
9507.5, -3.828e-08
9509.5, -3.683e-08
9511.5, -3.535e-08
9513.5, -3.529e-08
9515.5, -3.216e-08
9517.5, -3.204e-08
9519.5, -3.22e-08
9521.5, -3.238e-08
9523.5, -3.347e-08
9525.5, -3.179e-08
9527.5, -3.055e-08
9529.5, -2.904e-08
9531.5, -2.816e-08
9533.5, -3.301e-08
9535.5, -2.981e-08
9537.5, -3.014e-08
9539.5, -3.159e-08
9541.5, -2.868e-08
9543.5, -3.13e-08
9545.5, -3.148e-08
9547.5, -3.015e-08
9549.5, -2.938e-08
9551.5, -2.823e-08
9553.5, -3.188e-08
9555.5, -3.144e-08
9557.5, -3.144e-08
9559.5, -3.211e-08
9561.6, -3.392e-08
9563.6, -3.051e-08
9565.6, -3.391e-08
9567.6, -3.154e-08
9569.6, -3.472e-08
9571.6, -3.387e-08
9573.6, -3.5e-08
9575.6, -3.153e-08
9577.6, -3.067e-08
9579.6, -3.357e-08
9581.6, -3.55e-08
9583.6, -3.356e-08
9585.6, -3.299e-08
9587.6, -3.454e-08
9589.6, -3.616e-08
9591.6, -3.487e-08
9593.6, -3.842e-08
9595.6, -3.568e-08
9597.6, -3.26e-08
9599.6, -3.707e-08
9601.6, -3.73e-08
9603.6, -3.399e-08
9605.6, -3.286e-08
9607.6, -3.193e-08
9609.6, -3.601e-08
9611.6, -3.325e-08
9613.6, -3.393e-08
9615.6, -3.187e-08
9617.6, -3.338e-08
9619.6, -3.16e-08
9621.6, -3.422e-08
9623.6, -3.332e-08
9625.6, -3.32e-08
9627.6, -3.045e-08
9629.6, -2.969e-08
9631.6, -3.315e-08
9633.6, -3.345e-08
9635.6, -3.2e-08
9637.6, -3.573e-08
9639.6, -3.398e-08
9641.6, -3.546e-08
9643.6, -3.728e-08
9645.6, -3.456e-08
9647.6, -3.483e-08
9649.6, -3.537e-08
9651.6, -3.314e-08
9653.6, -3.545e-08
9655.6, -3.68e-08
9657.6, -3.452e-08
9659.6, -3.519e-08
9661.7, -3.489e-08
9663.7, -3.363e-08
9665.7, -3.761e-08
9667.7, -3.567e-08
9669.7, -3.556e-08
9671.7, -3.312e-08
9673.7, -3.17e-08
9675.7, -3.318e-08
9677.7, -3.525e-08
9679.7, -3.783e-08
9681.7, -3.532e-08
9683.7, -3.431e-08
9685.7, -3.51e-08
9687.7, -3.37e-08
9689.7, -3.413e-08
9691.7, -3.224e-08
9693.7, -3.754e-08
9695.7, -3.619e-08
9697.7, -3.548e-08
9699.7, -3.617e-08
9701.7, -3.965e-08
9703.7, -3.405e-08
9705.7, -3.964e-08
9707.7, -3.591e-08
9709.7, -3.512e-08
9711.7, -3.635e-08
9713.7, -3.407e-08
9715.7, -3.821e-08
9717.7, -3.609e-08
9719.7, -3.782e-08
9721.7, -3.782e-08
9723.7, -3.685e-08
9725.7, -3.439e-08
9727.7, -3.534e-08
9729.7, -3.665e-08
9731.7, -3.797e-08
9733.7, -3.56e-08
9735.7, -3.826e-08
9737.7, -3.603e-08
9739.7, -3.572e-08
9741.7, -3.718e-08
9743.7, -3.582e-08
9745.7, -3.528e-08
9747.7, -3.415e-08
9749.7, -3.446e-08
9751.7, -3.576e-08
9753.7, -3.352e-08
9755.7, -3.507e-08
9757.7, -3.422e-08
9759.7, -3.701e-08
9761.8, -3.534e-08
9763.8, -3.851e-08
9765.8, -3.733e-08
9767.8, -3.864e-08
9769.8, -3.874e-08
9771.8, -3.954e-08
9773.8, -4.027e-08
9775.8, -3.575e-08
9777.8, -3.884e-08
9779.8, -4.077e-08
9781.8, -3.809e-08
9783.8, -3.978e-08
9785.8, -3.834e-08
9787.8, -3.796e-08
9789.8, -3.922e-08
9791.8, -3.872e-08
9793.8, -3.647e-08
9795.8, -3.996e-08
9797.8, -3.712e-08
9799.8, -3.687e-08
9801.8, -3.708e-08
9803.8, -3.533e-08
9805.8, -3.605e-08
9807.8, -3.693e-08
9809.8, -3.819e-08
9811.8, -3.708e-08
9813.8, -3.963e-08
9815.8, -3.548e-08
9817.8, -3.581e-08
9819.8, -3.662e-08
9821.8, -3.839e-08
9823.8, -3.978e-08
9825.8, -3.643e-08
9827.8, -3.473e-08
9829.8, -3.884e-08
9831.8, -3.832e-08
9833.8, -3.913e-08
9835.8, -3.453e-08
9837.8, -3.865e-08
9839.8, -3.684e-08
9841.8, -4.093e-08
9843.8, -3.988e-08
9845.8, -4.049e-08
9847.8, -3.933e-08
9849.8, -3.751e-08
9851.8, -3.814e-08
9853.8, -3.939e-08
9855.8, -4.021e-08
9857.8, -3.8e-08
9859.8, -4.046e-08
9861.9, -4.66e-08
9863.9, -4.042e-08
9865.9, -4.268e-08
9867.9, -3.899e-08
9869.9, -3.879e-08
9871.9, -4.135e-08
9873.9, -3.92e-08
9875.9, -3.58e-08
9877.9, -3.613e-08
9879.9, -3.594e-08
9881.9, -3.53e-08
9883.9, -3.616e-08
9885.9, -3.442e-08
9887.9, -3.742e-08
9889.9, -3.841e-08
9891.9, -3.917e-08
9893.9, -4.197e-08
9895.9, -4.117e-08
9897.9, -3.692e-08
9899.9, -3.637e-08
9901.9, -3.91e-08
9903.9, -3.859e-08
9905.9, -3.986e-08
9907.9, -4.079e-08
9909.9, -3.983e-08
9911.9, -4.13e-08
9913.9, -3.822e-08
9915.9, -3.876e-08
9917.9, -4.028e-08
9919.9, -3.76e-08
9921.9, -4.006e-08
9923.9, -4.043e-08
9925.9, -3.962e-08
9927.9, -3.784e-08
9929.9, -4.08e-08
9931.9, -3.553e-08
9933.9, -3.895e-08
9935.9, -4.187e-08
9937.9, -3.697e-08
9939.9, -4.083e-08
9941.9, -3.367e-08
9943.9, -3.767e-08
9945.9, -3.732e-08
9947.9, -3.449e-08
9949.9, -3.55e-08
9951.9, -3.668e-08
9953.9, -3.852e-08
9955.9, -3.56e-08
9957.9, -3.362e-08
9959.9, -3.693e-08
9962.0, -3.774e-08
9964.0, -3.487e-08
9966.0, -3.627e-08
9968.0, -3.27e-08
9970.0, -3.748e-08
9972.0, -3.342e-08
9974.0, -3.623e-08
9976.0, -3.835e-08
9978.0, -3.852e-08
9980.0, -3.801e-08
9982.0, -3.752e-08
9984.0, -3.674e-08
9986.0, -3.473e-08
9988.0, -3.576e-08
9990.0, -3.115e-08
9992.0, -3.395e-08
9994.0, -3.016e-08
9996.0, -3.133e-08
9998.0, -3.215e-08
10000.0, -3.387e-08
10002.0, -3.201e-08
10004.0, -3.387e-08
10006.0, -3.272e-08
10008.0, -3.378e-08
10010.0, -3.553e-08
10012.0, -3.322e-08
10014.0, -3.45e-08
10016.0, -3.58e-08
10018.0, -3.423e-08
10020.0, -3.983e-08
10022.0, -3.797e-08
10024.0, -4.103e-08
10026.0, 2.7784e-06
10028.0, 5.0202e-06
10030.0, 4.998e-06
10032.0, 4.9307e-06
10034.0, 5.0036e-06
10036.0, 5.0307e-06
10038.0, 4.9743e-06
10040.0, 4.8919e-06
10042.0, 5.0504e-06
10044.0, 5.1101e-06
10046.0, 5.169e-06
10048.0, 4.9235e-06
10050.0, 4.9857e-06
10052.0, 5.1484e-06
10054.0, 5.0682e-06
10056.0, 4.9373e-06
10058.0, 4.975e-06
10060.0, 5.174e-06
10062.0, 5.0222e-06
10064.0, 4.96e-06
10066.0, 4.9829e-06
10068.0, 5.0129e-06
10070.0, 4.8952e-06
10072.0, 5.071e-06
10074.0, 5.0484e-06
10076.0, 5.0988e-06
10078.0, 5.0797e-06
10080.0, 5.1509e-06
10082.0, 5.1958e-06
10084.0, 4.943e-06
10086.0, 5.0158e-06
10088.0, 5.0499e-06
10090.0, 5.1167e-06
10092.0, 5.1459e-06
10094.0, 5.1579e-06
10096.0, 5.1318e-06
10098.0, 5.0038e-06
10100.0, 5.0138e-06
10102.0, 4.9522e-06
10104.0, 5.0508e-06
10106.0, 5.0225e-06
10108.0, 5.0542e-06
10110.0, 4.978e-06
10112.0, 5.0321e-06
10114.0, 5.0278e-06
10116.0, 5.0491e-06
10118.0, 5.176e-06
10120.0, 5.1525e-06
10122.0, 5.019e-06
10124.0, 5.0346e-06
10126.0, 5.0637e-06
10128.0, 4.9247e-06
10130.0, 5.0841e-06
10132.0, 4.9715e-06
10134.0, 5.2494e-06
10136.0, 4.9387e-06
10138.0, 5.0588e-06
10140.0, 5.0489e-06
10142.0, 5.043e-06
10144.0, 5.0823e-06
10146.0, 5.1571e-06
10148.0, 5.2067e-06
10150.0, 5.2086e-06
10152.0, 5.0682e-06
10154.0, 5.0112e-06
10156.0, 5.0825e-06
10158.0, 5.014e-06
10160.0, 5.0928e-06
10162.0, 5.1208e-06
10164.0, 5.1765e-06
10166.0, 5.0329e-06
10168.0, 5.1451e-06
10170.0, 5.0168e-06
10172.0, 5.0234e-06
10174.0, 5.2124e-06
10176.0, 5.1376e-06
10178.0, 5.0146e-06
10180.0, 4.9808e-06
10182.0, 4.9193e-06
10184.0, 5.1295e-06
10186.0, 5.2289e-06
10188.0, 5.0753e-06
10190.0, 5.0538e-06
10192.0, 5.0319e-06
10194.0, 5.1347e-06
10196.0, 5.1855e-06
10198.0, 4.939e-06
10200.0, 5.1234e-06
10202.0, 5.0942e-06
10204.0, 5.1182e-06
10206.0, 5.0886e-06
10208.0, 5.1013e-06
10210.0, 5.0753e-06
10212.0, 5.0899e-06
10214.0, 5.1602e-06
10216.0, 5.1318e-06
10218.0, 5.0726e-06
10220.0, 5.1711e-06
10222.0, 5.1129e-06
10224.0, 5.1079e-06
10226.0, 5.1597e-06
10228.0, 5.0335e-06
10230.0, 5.2258e-06
10232.0, 5.0063e-06
10234.0, 5.0784e-06
10236.0, 5.0365e-06
10238.0, 5.1564e-06
10240.0, 5.1906e-06
10242.0, 5.1077e-06
10244.0, 5.1963e-06
10246.0, 5.1907e-06
10248.0, 5.1065e-06
10250.0, 5.0831e-06
10252.0, 5.2454e-06
10254.0, 5.0755e-06
10256.0, 5.0402e-06
10258.0, 5.1111e-06
10260.0, 5.1103e-06
10262.0, 5.1493e-06
10264.0, 5.0289e-06
10266.0, 5.052e-06
10268.0, 5.0827e-06
10270.0, 5.1454e-06
10272.0, 5.0821e-06
10274.0, 5.1212e-06
10276.0, 5.1307e-06
10278.0, 5.1002e-06
10280.0, 5.1856e-06
10282.0, 5.1828e-06
10284.0, 5.2081e-06
10286.0, 5.1835e-06
10288.0, 4.9526e-06
10290.0, 5.0852e-06
10292.0, 5.0277e-06
10294.0, 5.1631e-06
10296.0, 5.1417e-06
10298.0, 5.1444e-06
10300.0, 5.1922e-06
10302.0, 5.293e-06
10304.0, 5.1643e-06
10306.0, 5.1139e-06
10308.0, 5.1574e-06
10310.0, 5.1615e-06
10312.0, 5.1781e-06
10314.0, 5.0375e-06
10316.0, 5.0529e-06
10318.0, 5.18e-06
10320.0, 5.1573e-06
10322.0, 5.176e-06
10324.0, 5.1674e-06
10326.0, 5.2841e-06
10328.0, 5.1e-06
10330.0, 5.1058e-06
10332.0, 5.1137e-06
10334.0, 5.1028e-06
10336.0, 5.171e-06
10338.0, 5.1725e-06
10340.0, 5.0574e-06
10342.0, 5.0517e-06
10344.0, 5.1631e-06
10346.0, 5.2781e-06
10348.0, 5.1844e-06
10350.0, 5.1059e-06
10352.0, 5.2596e-06
10354.0, 5.0705e-06
10356.0, 5.3136e-06
10358.0, 5.1023e-06
10360.0, 5.1101e-06
10362.0, 5.2027e-06
10364.0, 5.0869e-06
10366.0, 5.2614e-06
10368.0, 5.1379e-06
10370.0, 5.1223e-06
10372.0, 5.101e-06
10374.0, 5.1618e-06
10376.0, 5.1372e-06
10378.0, 5.2035e-06
10380.0, 5.2127e-06
10382.0, 5.1382e-06
10384.0, 5.1205e-06
10386.0, 5.1317e-06
10388.0, 5.0987e-06
10390.0, 5.0287e-06
10392.0, 5.1875e-06
10394.0, 5.2602e-06
10396.0, 5.1291e-06
10398.0, 5.2109e-06
10400.0, 5.1986e-06
10402.0, 5.1954e-06
10404.0, 5.1461e-06
10406.0, 5.2435e-06
10408.0, 5.187e-06
10410.0, 5.0973e-06
10412.0, 5.1449e-06
10414.0, 5.1813e-06
10416.0, 5.1002e-06
10418.0, 5.1263e-06
10420.0, 5.1769e-06
10422.0, 5.1472e-06
10424.0, 5.2261e-06
10426.0, 5.1812e-06
10428.0, 5.1624e-06
10430.0, 5.0739e-06
10432.0, 5.1382e-06
10434.0, 5.257e-06
10436.0, 5.1194e-06
10438.0, 5.2204e-06
10440.0, 5.2004e-06
10442.0, 5.0697e-06
10444.0, 5.195e-06
10446.0, 5.1921e-06
10448.0, 5.3673e-06
10450.0, 5.0869e-06
10452.0, 5.1658e-06
10454.0, 5.0522e-06
10456.0, 5.0909e-06
10458.0, 5.1692e-06
10460.0, 5.238e-06
10462.0, 5.0456e-06
10464.0, 5.1276e-06
10466.0, 5.1415e-06
10468.0, 5.1167e-06
10470.0, 5.09e-06
10472.0, 5.1211e-06
10474.0, 5.1614e-06
10476.0, 5.1455e-06
10478.0, 5.1701e-06
10480.0, 5.173e-06
10482.0, 5.2144e-06
10484.0, 5.225e-06
10486.0, 5.1484e-06
10488.0, 5.074e-06
10490.0, 5.2067e-06
10492.0, 5.1764e-06
10494.0, 5.1968e-06
10496.0, 5.1124e-06
10498.0, 5.2118e-06
10500.0, 5.1087e-06
10502.0, 5.1814e-06
10504.0, 5.1375e-06
10506.0, 5.0414e-06
10508.0, 5.2072e-06
10510.0, 5.2312e-06
10513.0, 5.246e-06
10515.0, 5.1798e-06
10517.0, 5.1858e-06
10519.0, 5.1396e-06
10521.0, 5.1082e-06
10523.0, 5.0483e-06
10525.0, 5.0792e-06
10527.0, 5.2428e-06
10529.0, 5.2164e-06
10531.0, 5.2077e-06
10533.0, 5.2137e-06
10535.0, 5.1028e-06
10537.0, 5.1838e-06
10539.0, 5.2543e-06
10541.0, 5.1411e-06
10543.0, 5.272e-06
10545.0, 5.0696e-06
10547.0, 5.0729e-06
10549.0, 5.2237e-06
10551.0, 5.2138e-06
10553.0, 5.1728e-06
10555.0, 5.2275e-06
10557.0, 5.1523e-06
10559.0, 5.2516e-06
10561.0, 5.3036e-06
10563.0, 5.1363e-06
10565.0, 5.1113e-06
10567.0, 5.1756e-06
10569.0, 5.131e-06
10571.0, 5.2208e-06
10573.0, 5.1144e-06
10575.0, 5.1052e-06
10577.0, 5.1166e-06
10579.0, 5.1915e-06
10581.0, 5.166e-06
10583.0, 5.2411e-06
10585.0, 5.252e-06
10587.0, 5.2174e-06
10589.0, 5.1414e-06
10591.0, 5.1471e-06
10593.0, 5.167e-06
10595.0, 5.1301e-06
10597.0, 5.2499e-06
10599.0, 5.0087e-06
10601.0, 5.1367e-06
10603.0, 5.2189e-06
10605.0, 5.1817e-06
10607.0, 5.1257e-06
10609.0, 5.101e-06
10611.0, 5.0867e-06
10613.0, 5.0836e-06
10615.0, 5.2126e-06
10617.0, 5.1346e-06
10619.0, 5.1446e-06
10621.0, 5.1548e-06
10623.0, 5.0492e-06
10625.0, 5.0452e-06
10627.0, 5.2218e-06
10629.0, 5.1287e-06
10631.0, 5.2263e-06
10633.0, 5.2763e-06
10635.0, 5.1273e-06
10637.0, 5.3348e-06
10639.0, 5.153e-06
10641.0, 5.2837e-06
10643.0, 5.0615e-06
10645.0, 5.1438e-06
10647.0, 5.2112e-06
10649.0, 5.0283e-06
10651.0, 5.1638e-06
10653.0, 5.2299e-06
10655.0, 5.1721e-06
10657.0, 5.1328e-06
10659.0, 5.1049e-06
10661.0, 5.1327e-06
10663.0, 5.1535e-06
10665.0, 5.2392e-06
10667.0, 5.0425e-06
10669.0, 5.2016e-06
10671.0, 5.2034e-06
10673.0, 5.1535e-06
10675.0, 5.3522e-06
10677.0, 5.1395e-06
10679.0, 5.2441e-06
10681.0, 5.015e-06
10683.0, 5.1491e-06
10685.0, 5.2888e-06
10687.0, 5.136e-06
10689.0, 5.2259e-06
10691.0, 5.1186e-06
10693.0, 5.2439e-06
10695.0, 5.167e-06
10697.0, 5.1432e-06
10699.0, 5.1849e-06
10701.0, 5.1173e-06
10703.0, 5.1416e-06
10705.0, 5.1758e-06
10707.0, 5.1942e-06
10709.0, 5.3255e-06
10711.0, 5.3004e-06
10713.0, 5.1432e-06
10715.0, 5.3066e-06
10717.0, 5.1934e-06
10719.0, 5.1303e-06
10721.0, 5.1034e-06
10723.0, 5.172e-06
10725.0, 5.1159e-06
10727.0, 5.0795e-06
10729.0, 5.3831e-06
10731.0, 5.1224e-06
10733.0, 5.1294e-06
10735.0, 5.1717e-06
10737.0, 5.2557e-06
10739.0, 5.0861e-06
10741.0, 5.1326e-06
10743.0, 5.2084e-06
10745.0, 5.0988e-06
10747.0, 5.2365e-06
10749.0, 5.1269e-06
10751.0, 5.0831e-06
10753.0, 5.3002e-06
10755.0, 5.1174e-06
10757.0, 5.2187e-06
10759.0, 5.1133e-06
10761.0, 5.3051e-06
10763.0, 5.2393e-06
10765.0, 5.1888e-06
10767.0, 5.1375e-06
10769.0, 5.2166e-06
10771.0, 5.1555e-06
10773.0, 5.2416e-06
10775.0, 5.1152e-06
10777.0, 5.022e-06
10779.0, 5.1152e-06
10781.0, 5.2428e-06
10783.0, 5.2966e-06
10785.0, 5.1731e-06
10787.0, 5.1735e-06
10789.0, 5.2068e-06
10791.0, 5.2846e-06
10793.0, 5.2878e-06
10795.0, 5.2651e-06
10797.0, 5.2199e-06
10799.0, 5.0859e-06
10801.0, 5.2476e-06
10803.0, 5.077e-06
10805.0, 5.0749e-06
10807.0, 5.1027e-06
10809.0, 5.2047e-06
10811.0, 5.1831e-06
10813.0, 5.2142e-06
10815.0, 5.1598e-06
10817.0, 5.1762e-06
10819.0, 5.1798e-06
10821.0, 5.0493e-06
10823.0, 5.1731e-06
10825.0, 5.2972e-06
10827.0, 5.282e-06
10829.0, 5.1193e-06
10831.0, 5.2568e-06
10833.0, 5.262e-06
10835.0, 5.1115e-06
10837.0, 5.1702e-06
10839.0, 5.0865e-06
10841.0, 5.1731e-06
10843.0, 5.1448e-06
10845.0, 5.1395e-06
10847.0, 5.1311e-06
10849.0, 5.1618e-06
10851.0, 5.2214e-06
10853.0, 5.2281e-06
10855.0, 5.0173e-06
10857.0, 5.1705e-06
10859.0, 5.2131e-06
10861.0, 5.3266e-06
10863.0, 5.0391e-06
10865.0, 5.1487e-06
10867.0, 5.2295e-06
10869.0, 5.2167e-06
10871.0, 5.2038e-06
10873.0, 5.1436e-06
10875.0, 5.1983e-06
10877.0, 5.0479e-06
10879.0, 5.2305e-06
10881.0, 5.2985e-06
10883.0, 5.0685e-06
10885.0, 5.195e-06
10887.0, 5.2275e-06
10889.0, 5.2138e-06
10891.0, 5.2995e-06
10893.0, 5.2178e-06
10895.0, 5.1565e-06
10897.0, 5.1842e-06
10899.0, 5.0613e-06
10901.0, 5.1514e-06
10903.0, 5.2115e-06
10905.0, 5.0749e-06
10907.0, 5.1815e-06
10909.0, 5.2489e-06
10911.0, 5.206e-06
10913.0, 5.1468e-06
10915.0, 5.2307e-06
10917.0, 5.2099e-06
10919.0, 5.2024e-06
10921.0, 5.2572e-06
10923.0, 5.195e-06
10925.0, 5.1365e-06
10927.0, 5.1835e-06
10929.0, 5.1105e-06
10931.0, 5.2791e-06
10933.0, 5.2951e-06
10935.0, 5.1565e-06
10937.0, 5.1433e-06
10939.0, 5.1343e-06
10941.0, 5.0409e-06
10943.0, 5.1629e-06
10945.0, 5.1331e-06
10947.0, 5.2419e-06
10949.0, 5.1808e-06
10951.0, 5.1997e-06
10953.0, 5.1239e-06
10955.0, 5.2853e-06
10957.0, 5.1159e-06
10959.0, 5.23e-06
10961.0, 5.1887e-06
10963.0, 5.162e-06
10965.0, 5.2298e-06
10967.0, 5.0948e-06
10969.0, 5.1757e-06
10971.0, 5.1456e-06
10973.0, 5.1609e-06
10975.0, 5.2922e-06
10977.0, 5.1763e-06
10979.0, 5.3277e-06
10981.0, 5.1693e-06
10983.0, 5.1897e-06
10985.0, 5.331e-06
10987.0, 5.1644e-06
10989.0, 5.1084e-06
10991.0, 5.2438e-06
10993.0, 5.2963e-06
10995.0, 5.2572e-06
10997.0, 5.2018e-06
10999.0, 5.259e-06
11001.0, 5.2033e-06
11003.0, 5.1642e-06
11005.0, 5.1035e-06
11007.0, 5.1331e-06
11009.0, 5.1355e-06
