Time sep (ms?), Current (A)
0.0, -2.891e-08
2.002, -2.56e-08
4.004, -2.601e-08
6.006, -2.479e-08
8.008, -2.926e-08
10.01, -2.433e-08
12.012, -2.665e-08
14.014, -2.661e-08
16.016, -2.915e-08
18.018, -2.968e-08
20.02, -2.914e-08
22.022, -2.632e-08
24.024, -2.605e-08
26.026, -2.746e-08
28.028, -3.029e-08
30.03, -3.065e-08
32.032, -2.921e-08
34.034, -2.598e-08
36.036, -3.052e-08
38.038, -3.026e-08
40.04, -2.785e-08
42.042, -2.793e-08
44.044, -2.989e-08
46.046, -2.606e-08
48.048, -2.841e-08
50.05, -2.879e-08
52.052, -2.691e-08
54.054, -2.552e-08
56.056, -3.118e-08
58.058, -2.818e-08
60.06, -2.731e-08
62.062, -2.716e-08
64.064, -2.828e-08
66.066, -2.514e-08
68.068, -2.654e-08
70.07, -2.255e-08
72.072, -2.607e-08
74.074, -3.05e-08
76.076, -2.601e-08
78.078, -2.872e-08
80.08, -2.504e-08
82.082, -2.547e-08
84.084, -2.777e-08
86.086, -2.931e-08
88.088, -2.672e-08
90.09, -2.549e-08
92.092, -2.693e-08
94.094, -2.514e-08
96.096, -2.857e-08
98.098, -2.829e-08
100.1, -2.577e-08
102.1, -2.535e-08
104.1, -3.096e-08
106.11, -2.726e-08
108.11, -2.842e-08
110.11, -2.551e-08
112.11, -2.687e-08
114.11, -2.773e-08
116.12, -2.908e-08
118.12, -2.495e-08
120.12, -2.358e-08
122.12, -2.708e-08
124.12, -2.745e-08
126.13, -2.373e-08
128.13, -2.533e-08
130.13, -2.782e-08
132.13, -3.059e-08
134.13, -2.857e-08
136.14, -2.936e-08
138.14, -2.772e-08
140.14, -2.884e-08
142.14, -2.74e-08
144.14, -2.605e-08
146.15, -2.935e-08
148.15, -2.684e-08
150.15, -2.918e-08
152.15, -2.726e-08
154.15, -2.874e-08
156.16, -3.093e-08
158.16, -2.7e-08
160.16, -3.087e-08
162.16, -3.017e-08
164.16, -2.842e-08
166.17, -3.636e-08
168.17, -3.24e-08
170.17, -3.286e-08
172.17, -3.053e-08
174.17, -3.309e-08
176.18, -3.069e-08
178.18, -2.967e-08
180.18, -2.993e-08
182.18, -3.076e-08
184.18, -3.027e-08
186.19, -3.194e-08
188.19, -2.728e-08
190.19, -2.609e-08
192.19, -2.493e-08
194.19, -2.894e-08
196.2, -2.969e-08
198.2, -3.144e-08
200.2, -2.752e-08
202.2, -2.974e-08
204.2, -3.127e-08
206.21, -3.027e-08
208.21, -3e-08
210.21, -2.523e-08
212.21, -2.931e-08
214.21, -2.855e-08
216.22, -2.97e-08
218.22, -2.681e-08
220.22, -2.706e-08
222.22, -2.816e-08
224.22, -2.714e-08
226.23, -2.88e-08
228.23, -2.933e-08
230.23, -2.789e-08
232.23, -2.876e-08
234.23, -2.705e-08
236.24, -2.615e-08
238.24, -2.36e-08
240.24, -2.628e-08
242.24, -2.544e-08
244.24, -2.961e-08
246.25, -2.676e-08
248.25, -2.981e-08
250.25, -2.874e-08
252.25, -2.842e-08
254.25, -2.729e-08
256.26, -2.625e-08
258.26, -2.315e-08
260.26, -2.541e-08
262.26, -2.456e-08
264.26, -2.334e-08
266.27, -2.681e-08
268.27, -2.334e-08
270.27, -2.718e-08
272.27, -2.264e-08
274.27, -2.458e-08
276.28, -2.756e-08
278.28, -2.51e-08
280.28, -2.288e-08
282.28, -2.626e-08
284.28, -2.946e-08
286.29, -2.535e-08
288.29, -2.963e-08
290.29, -2.558e-08
292.29, -2.266e-08
294.29, -2.325e-08
296.3, -2.391e-08
298.3, -2.455e-08
300.3, -2.427e-08
302.3, -2.761e-08
304.3, -2.417e-08
306.31, -2.435e-08
308.31, -2.552e-08
310.31, -2.175e-08
312.31, -2.402e-08
314.31, -2.179e-08
316.32, -2.474e-08
318.32, -2.258e-08
320.32, -2.323e-08
322.32, -2.333e-08
324.32, -2.556e-08
326.33, -2.44e-08
328.33, -2.543e-08
330.33, -2.628e-08
332.33, -2.271e-08
334.33, -2.464e-08
336.34, -2.554e-08
338.34, -2.381e-08
340.34, -2.278e-08
342.34, -2.397e-08
344.34, -2.463e-08
346.35, -2.191e-08
348.35, -2.126e-08
350.35, -2.23e-08
352.35, -2.735e-08
354.35, -2.506e-08
356.36, -2.512e-08
358.36, -2.603e-08
360.36, -2.27e-08
362.36, -2.267e-08
364.36, -2.2e-08
366.37, -2.584e-08
368.37, -2.425e-08
370.37, -2.686e-08
372.37, -2.803e-08
374.37, -2.59e-08
376.38, -2.912e-08
378.38, -2.489e-08
380.38, -2.563e-08
382.38, -2.51e-08
384.38, -2.66e-08
386.39, -2.271e-08
388.39, -2.262e-08
390.39, -2.609e-08
392.39, -2.648e-08
394.39, -2.372e-08
396.4, -2.279e-08
398.4, -2.286e-08
400.4, -2.025e-08
402.4, -2.292e-08
404.4, -2.283e-08
406.41, -2.412e-08
408.41, -2.354e-08
410.41, -2.353e-08
412.41, -2.425e-08
414.41, -2.28e-08
416.42, -2.508e-08
418.42, -2.654e-08
420.42, -2.674e-08
422.42, -2.49e-08
424.42, -2.304e-08
426.43, -2.482e-08
428.43, -2.359e-08
430.43, -2.404e-08
432.43, -2.386e-08
434.43, -2.319e-08
436.44, -2.207e-08
438.44, -2.22e-08
440.44, -1.999e-08
442.44, -1.899e-08
444.44, -2.105e-08
446.45, -2.152e-08
448.45, -2.512e-08
450.45, -2.366e-08
452.45, -2.131e-08
454.45, -2.461e-08
456.46, -2.087e-08
458.46, -2.165e-08
460.46, -2.098e-08
462.46, -2.536e-08
464.46, -2.599e-08
466.47, -2.891e-08
468.47, -2.421e-08
470.47, -2.37e-08
472.47, -2.585e-08
474.47, -2.082e-08
476.48, -2.362e-08
478.48, -2.348e-08
480.48, -2.266e-08
482.48, -2.412e-08
484.48, -2.506e-08
486.49, -2.426e-08
488.49, -2.48e-08
490.49, -2.494e-08
492.49, -2.498e-08
494.49, -2.419e-08
496.5, -2.415e-08
498.5, -2.57e-08
500.5, -2.691e-08
502.5, -2.789e-08
504.5, -2.441e-08
506.51, -2.658e-08
508.51, -2.548e-08
510.51, -2.031e-08
512.51, -2.598e-08
514.51, -2.324e-08
516.52, -2.509e-08
518.52, -1.963e-08
520.52, -2.176e-08
522.52, -2.458e-08
524.52, -2.235e-08
526.53, -2.637e-08
528.53, -2.643e-08
530.53, -2.268e-08
532.53, -2.277e-08
534.53, -2.294e-08
536.54, -2.359e-08
538.54, -2.386e-08
540.54, -2.299e-08
542.54, -2.337e-08
544.54, -2.859e-08
546.55, -2.704e-08
548.55, -2.42e-08
550.55, -2.735e-08
552.55, -2.868e-08
554.55, -2.452e-08
556.56, -2.914e-08
558.56, -2.902e-08
560.56, -2.89e-08
562.56, -2.703e-08
564.56, -2.868e-08
566.57, -2.604e-08
568.57, -2.45e-08
570.57, -2.436e-08
572.57, -2.621e-08
574.57, -2.709e-08
576.58, -2.683e-08
578.58, -3.177e-08
580.58, -2.731e-08
582.58, -2.863e-08
584.58, -3.144e-08
586.59, -3.149e-08
588.59, -2.753e-08
590.59, -2.739e-08
592.59, -2.621e-08
594.59, -2.632e-08
596.6, -2.517e-08
598.6, -2.479e-08
600.6, -2.617e-08
602.6, -2.45e-08
604.6, -2.765e-08
606.61, -2.783e-08
608.61, -2.592e-08
610.61, -2.88e-08
612.61, -2.716e-08
614.61, -2.796e-08
616.62, -2.686e-08
618.62, -2.543e-08
620.62, -2.906e-08
622.62, -3.008e-08
624.62, -2.532e-08
626.63, -2.873e-08
628.63, -2.959e-08
630.63, -2.748e-08
632.63, -2.675e-08
634.63, -3.251e-08
636.64, -2.61e-08
638.64, -2.637e-08
640.64, -2.45e-08
642.64, -2.464e-08
644.64, -2.509e-08
646.65, -2.601e-08
648.65, -2.596e-08
650.65, -2.661e-08
652.65, -2.777e-08
654.65, -2.454e-08
656.66, -2.855e-08
658.66, -2.663e-08
660.66, -2.616e-08
662.66, -2.719e-08
664.66, -2.864e-08
666.67, -2.853e-08
668.67, -2.781e-08
670.67, -2.752e-08
672.67, -2.989e-08
674.67, -3.055e-08
676.68, -3.109e-08
678.68, -3.187e-08
680.68, -3.208e-08
682.68, -2.886e-08
684.68, -2.556e-08
686.69, -2.561e-08
688.69, -2.53e-08
690.69, -2.655e-08
692.69, -2.399e-08
694.69, -2.356e-08
696.7, -2.311e-08
698.7, -2.382e-08
700.7, -2.893e-08
702.7, -2.806e-08
704.7, -3.05e-08
706.71, -2.759e-08
708.71, -2.823e-08
710.71, -2.902e-08
712.71, -2.602e-08
714.71, -3.013e-08
716.72, -2.723e-08
718.72, -3.189e-08
720.72, -2.547e-08
722.72, -2.949e-08
724.72, -3.138e-08
726.73, -2.874e-08
728.73, -2.879e-08
730.73, -2.721e-08
732.73, -2.294e-08
734.73, -2.897e-08
736.74, -2.4e-08
738.74, -2.426e-08
740.74, -2.253e-08
742.74, -2.606e-08
744.74, -2.389e-08
746.75, -2.662e-08
748.75, -2.48e-08
750.75, -2.474e-08
752.75, -2.523e-08
754.75, -2.587e-08
756.76, -2.921e-08
758.76, -2.855e-08
760.76, -2.882e-08
762.76, -2.834e-08
764.76, -2.683e-08
766.77, -2.93e-08
768.77, -2.846e-08
770.77, -3.188e-08
772.77, -2.799e-08
774.77, -2.984e-08
776.78, -3.076e-08
778.78, -3.108e-08
780.78, -3.037e-08
782.78, -2.986e-08
784.78, -3.228e-08
786.79, -3.22e-08
788.79, -2.811e-08
790.79, -2.809e-08
792.79, -2.661e-08
794.79, -2.68e-08
796.8, -3.016e-08
798.8, -3.043e-08
800.8, -3.012e-08
802.8, -3.073e-08
804.8, -2.932e-08
806.81, -3.058e-08
808.81, -2.733e-08
810.81, -2.977e-08
812.81, -2.853e-08
814.81, -2.992e-08
816.82, -3.115e-08
818.82, -3.255e-08
820.82, -2.98e-08
822.82, -2.862e-08
824.82, -2.906e-08
826.83, -2.912e-08
828.83, -2.611e-08
830.83, -2.526e-08
832.83, -2.699e-08
834.83, -2.832e-08
836.84, -2.628e-08
838.84, -2.942e-08
840.84, -2.298e-08
842.84, -2.698e-08
844.84, -2.752e-08
846.85, -2.846e-08
848.85, -3.002e-08
850.85, -3.411e-08
852.85, -2.723e-08
854.85, -2.756e-08
856.86, -2.866e-08
858.86, -3.144e-08
860.86, -2.93e-08
862.86, -2.428e-08
864.86, -2.802e-08
866.87, -2.991e-08
868.87, -2.983e-08
870.87, -2.907e-08
872.87, -3.06e-08
874.87, -2.829e-08
876.88, -2.778e-08
878.88, -3.008e-08
880.88, -3.002e-08
882.88, -2.821e-08
884.88, -3.01e-08
886.89, -3.049e-08
888.89, -2.732e-08
890.89, -3.307e-08
892.89, -3.123e-08
894.89, -3.047e-08
896.9, -2.983e-08
898.9, -2.866e-08
900.9, -2.698e-08
902.9, -2.86e-08
904.9, -3.008e-08
906.91, -3.126e-08
908.91, -3.047e-08
910.91, -3.29e-08
912.91, -3.015e-08
914.91, -2.858e-08
916.92, -3.217e-08
918.92, -2.822e-08
920.92, -2.741e-08
922.92, -2.956e-08
924.92, -2.951e-08
926.93, -2.628e-08
928.93, -2.674e-08
930.93, -3.129e-08
932.93, -2.64e-08
934.93, -2.751e-08
936.94, -3.026e-08
938.94, -2.895e-08
940.94, -2.958e-08
942.94, -2.626e-08
944.94, -2.994e-08
946.95, -3.29e-08
948.95, -3.14e-08
950.95, -2.861e-08
952.95, -2.92e-08
954.95, -2.727e-08
956.96, -3.221e-08
958.96, -2.597e-08
960.96, -3.148e-08
962.96, -2.737e-08
964.96, -3.066e-08
966.97, -3.094e-08
968.97, -3.142e-08
970.97, -3.05e-08
972.97, -2.881e-08
974.97, -2.912e-08
976.98, -2.884e-08
978.98, -3.133e-08
980.98, -2.825e-08
982.98, -2.73e-08
984.98, -3.131e-08
986.99, -3.152e-08
988.99, -3.176e-08
990.99, -2.596e-08
992.99, -2.611e-08
994.99, -2.966e-08
997.0, -2.974e-08
999.0, -3.206e-08
1001.0, -3.174e-08
1003.0, -2.554e-08
1005.0, -2.776e-08
1007.0, -2.775e-08
1009.0, -2.954e-08
1011.0, -2.66e-08
1013.0, -2.8e-08
1015.0, -2.599e-08
1017.0, -2.931e-08
1019.0, -2.851e-08
1021.0, -2.789e-08
1023.0, -2.933e-08
1025.0, -2.559e-08
1027.0, -2.889e-08
1029.0, -2.477e-08
1031.0, -2.594e-08
1033.0, -2.407e-08
1035.0, -2.041e-08
1037.0, -2.192e-08
1039.0, -2.479e-08
1041.0, -2.406e-08
1043.0, -2.554e-08
1045.0, -2.437e-08
1047.0, -2.361e-08
1049.0, -2.478e-08
1051.0, -2.817e-08
1053.1, -2.159e-08
1055.1, -2.62e-08
1057.1, -2.517e-08
1059.1, -2.322e-08
1061.1, -2.543e-08
1063.1, -2.891e-08
1065.1, -2.46e-08
1067.1, -2.458e-08
1069.1, -2.459e-08
1071.1, -2.148e-08
1073.1, -2.501e-08
1075.1, -2.456e-08
1077.1, -2.709e-08
1079.1, -2.51e-08
1081.1, -2.901e-08
1083.1, -2.304e-08
1085.1, -2.669e-08
1087.1, -2.4e-08
1089.1, -2.561e-08
1091.1, -2.556e-08
1093.1, -2.267e-08
1095.1, -2.44e-08
1097.1, -2.725e-08
1099.1, -2.521e-08
1101.1, -2.51e-08
1103.1, -2.415e-08
1105.1, -2.57e-08
1107.1, -2.227e-08
1109.1, -2.565e-08
1111.1, -2.61e-08
1113.1, -2.36e-08
1115.1, -2.753e-08
1117.1, -2.524e-08
1119.1, -2.263e-08
1121.1, -2.817e-08
1123.1, -2.397e-08
1125.1, -2.199e-08
1127.1, -2.86e-08
1129.1, -2.533e-08
1131.1, -2.462e-08
1133.1, -2.684e-08
1135.1, -2.701e-08
1137.1, -2.811e-08
1139.1, -2.631e-08
1141.1, -2.593e-08
1143.1, -2.357e-08
1145.1, -2.712e-08
1147.1, -2.693e-08
1149.1, -2.797e-08
1151.1, -2.725e-08
1153.2, -2.606e-08
1155.2, -3.063e-08
1157.2, -3.095e-08
1159.2, -3.288e-08
1161.2, -3.015e-08
1163.2, -2.972e-08
1165.2, -2.983e-08
1167.2, -3.047e-08
1169.2, -3.11e-08
1171.2, -3.108e-08
1173.2, -2.942e-08
1175.2, -3.149e-08
1177.2, -2.824e-08
1179.2, -2.97e-08
1181.2, -2.748e-08
1183.2, -3.112e-08
1185.2, -2.863e-08
1187.2, -3.208e-08
1189.2, -2.869e-08
1191.2, -3.18e-08
1193.2, -3.166e-08
1195.2, -3.36e-08
1197.2, -3.106e-08
1199.2, -3.112e-08
1201.2, -2.835e-08
1203.2, -2.546e-08
1205.2, -2.78e-08
1207.2, -3.12e-08
1209.2, -2.654e-08
1211.2, -2.752e-08
1213.2, -2.873e-08
1215.2, -3.345e-08
1217.2, -2.941e-08
1219.2, -2.803e-08
1221.2, -2.659e-08
1223.2, -2.531e-08
1225.2, -2.552e-08
1227.2, -2.577e-08
1229.2, -2.732e-08
1231.2, -2.644e-08
1233.2, -2.777e-08
1235.2, -2.981e-08
1237.2, -3.172e-08
1239.2, -3.057e-08
1241.2, -2.804e-08
1243.2, -2.967e-08
1245.2, -2.801e-08
1247.2, -2.78e-08
1249.2, -2.857e-08
1251.2, -2.649e-08
1253.3, -3.222e-08
1255.3, -3.052e-08
1257.3, -2.726e-08
1259.3, -2.641e-08
1261.3, -2.706e-08
1263.3, -2.542e-08
1265.3, -2.497e-08
1267.3, -2.748e-08
1269.3, -2.894e-08
1271.3, -2.76e-08
1273.3, -2.924e-08
1275.3, -2.651e-08
1277.3, -2.835e-08
1279.3, -2.864e-08
1281.3, -3.079e-08
1283.3, -2.827e-08
1285.3, -2.554e-08
1287.3, -2.861e-08
1289.3, -2.69e-08
1291.3, -2.652e-08
1293.3, -2.981e-08
1295.3, -2.977e-08
1297.3, -2.717e-08
1299.3, -2.628e-08
1301.3, -2.374e-08
1303.3, -2.713e-08
1305.3, -2.54e-08
1307.3, -2.735e-08
1309.3, -3.068e-08
1311.3, -2.713e-08
1313.3, -2.797e-08
1315.3, -2.597e-08
1317.3, -2.771e-08
1319.3, -2.838e-08
1321.3, -3.213e-08
1323.3, -2.752e-08
1325.3, -2.72e-08
1327.3, -2.719e-08
1329.3, -2.699e-08
1331.3, -2.711e-08
1333.3, -2.696e-08
1335.3, -2.692e-08
1337.3, -3.212e-08
1339.3, -2.71e-08
1341.3, -2.716e-08
1343.3, -2.376e-08
1345.3, -2.522e-08
1347.3, -2.447e-08
1349.3, -2.59e-08
1351.3, -2.663e-08
1353.4, -2.598e-08
1355.4, -2.703e-08
1357.4, -2.864e-08
1359.4, -2.744e-08
1361.4, -2.902e-08
1363.4, -2.59e-08
1365.4, -2.79e-08
1367.4, -2.705e-08
1369.4, -2.595e-08
1371.4, -2.753e-08
1373.4, -2.563e-08
1375.4, -2.634e-08
1377.4, -2.779e-08
1379.4, -2.74e-08
1381.4, -3.057e-08
1383.4, -2.978e-08
1385.4, -2.64e-08
1387.4, -3.121e-08
1389.4, -2.867e-08
1391.4, -2.833e-08
1393.4, -2.911e-08
1395.4, -2.598e-08
1397.4, -2.86e-08
1399.4, -2.805e-08
1401.4, -2.597e-08
1403.4, -2.601e-08
1405.4, -2.536e-08
1407.4, -2.701e-08
1409.4, -2.458e-08
1411.4, -2.752e-08
1413.4, -2.659e-08
1415.4, -2.497e-08
1417.4, -2.796e-08
1419.4, -2.653e-08
1421.4, -2.502e-08
1423.4, -2.481e-08
1425.4, -2.396e-08
1427.4, -2.538e-08
1429.4, -2.508e-08
1431.4, -2.75e-08
1433.4, -2.89e-08
1435.4, -2.899e-08
1437.4, -2.884e-08
1439.4, -2.41e-08
1441.4, -2.754e-08
1443.4, -2.554e-08
1445.4, -2.88e-08
1447.4, -2.682e-08
1449.4, -2.934e-08
1451.4, -2.9e-08
1453.5, -2.875e-08
1455.5, -2.583e-08
1457.5, -2.533e-08
1459.5, -2.412e-08
1461.5, -2.725e-08
1463.5, -2.616e-08
1465.5, -2.655e-08
1467.5, -2.216e-08
1469.5, -2.486e-08
1471.5, -2.497e-08
1473.5, -2.624e-08
1475.5, -2.424e-08
1477.5, -2.421e-08
1479.5, -2.55e-08
1481.5, -2.385e-08
1483.5, -2.614e-08
1485.5, -2.259e-08
1487.5, -2.69e-08
1489.5, -2.432e-08
1491.5, -2.328e-08
1493.5, -2.352e-08
1495.5, -2.249e-08
1497.5, -2.458e-08
1499.5, -2.243e-08
1501.5, -2.425e-08
1503.5, -2.298e-08
1505.5, -1.981e-08
1507.5, -2.384e-08
1509.5, -2.065e-08
1511.5, -2.336e-08
1513.5, -2.381e-08
1515.5, -2.508e-08
1517.5, -2.307e-08
1519.5, -2.5e-08
1521.5, -2.732e-08
1523.5, -2.524e-08
1525.5, -2.665e-08
1527.5, -2.531e-08
1529.5, -2.471e-08
1531.5, -2.747e-08
1533.5, -2.393e-08
1535.5, -2.54e-08
1537.5, -2.635e-08
1539.5, -2.943e-08
1541.5, -2.446e-08
1543.5, -2.54e-08
1545.5, -2.787e-08
1547.5, -2.841e-08
1549.5, -2.343e-08
1551.5, -2.515e-08
1553.6, -2.553e-08
1555.6, -2.616e-08
1557.6, -2.75e-08
1559.6, -2.588e-08
1561.6, -2.619e-08
1563.6, -2.777e-08
1565.6, -2.686e-08
1567.6, -2.778e-08
1569.6, -2.827e-08
1571.6, -2.802e-08
1573.6, -2.444e-08
1575.6, -2.363e-08
1577.6, -2.844e-08
1579.6, -2.567e-08
1581.6, -2.33e-08
1583.6, -2.737e-08
1585.6, -2.629e-08
1587.6, -2.795e-08
1589.6, -2.616e-08
1591.6, -2.653e-08
1593.6, -3.038e-08
1595.6, -2.618e-08
1597.6, -2.838e-08
1599.6, -3.419e-08
1601.6, -2.978e-08
1603.6, -2.818e-08
1605.6, -2.726e-08
1607.6, -2.803e-08
1609.6, -2.858e-08
1611.6, -2.892e-08
1613.6, -2.688e-08
1615.6, -2.623e-08
1617.6, -2.601e-08
1619.6, -2.842e-08
1621.6, -2.53e-08
1623.6, 2.1807e-06
1625.6, 4.299e-06
1627.6, 3.3488e-06
1629.6, 4.1975e-06
1631.6, 3.7323e-06
1633.6, 4.2151e-06
1635.6, 4.2545e-06
1637.6, 4.186e-06
1639.6, 3.7148e-06
1641.6, 4.0997e-06
1643.6, 3.9648e-06
1645.6, 4.0724e-06
1647.6, 4.12e-06
1649.6, 4.2258e-06
1651.6, 3.9303e-06
1653.7, 4.313e-06
1655.7, 3.9831e-06
1657.7, 4.0752e-06
1659.7, 3.9424e-06
1661.7, 4.0348e-06
1663.7, 3.7967e-06
1665.7, 3.9112e-06
1667.7, 4.1651e-06
1669.7, 3.7634e-06
1671.7, 4.0831e-06
1673.7, 3.9289e-06
1675.7, 3.6084e-06
1677.7, 4.2722e-06
1679.7, 4.2237e-06
1681.7, 4.3319e-06
1683.7, 4.0991e-06
1685.7, 4.1139e-06
1687.7, 3.9229e-06
1689.7, 4.0784e-06
1691.7, 4.1654e-06
1693.7, 4.32e-06
1695.7, 4.1274e-06
1697.7, 3.7898e-06
1699.7, 3.9439e-06
1701.7, 4.1678e-06
1703.7, 4.2489e-06
1705.7, 4.376e-06
1707.7, 4.1738e-06
1709.7, 4.2999e-06
1711.7, 4.197e-06
1713.7, 3.9878e-06
1715.7, 4.2452e-06
1717.7, 4.2583e-06
1719.7, 4.1499e-06
1721.7, 4.0183e-06
1723.7, 4.4614e-06
1725.7, 3.9874e-06
1727.7, 3.7621e-06
1729.7, 3.9753e-06
1731.7, 4.2725e-06
1733.7, 4.429e-06
1735.7, 4.4476e-06
1737.7, 4.0821e-06
1739.7, 4.374e-06
1741.7, 4.0496e-06
1743.7, 4.3766e-06
1745.7, 3.7812e-06
1747.7, 4.1587e-06
1749.7, 4.3508e-06
1751.7, 4.3533e-06
1753.8, 4.4225e-06
1755.8, 4.3318e-06
1757.8, 4.135e-06
1759.8, 4.2215e-06
1761.8, 4.0661e-06
1763.8, 4.0268e-06
1765.8, 4.2406e-06
1767.8, 4.3071e-06
1769.8, 4.4014e-06
1771.8, 4.2336e-06
1773.8, 4.2339e-06
1775.8, 4.3377e-06
1777.8, 4.1614e-06
1779.8, 4.3003e-06
1781.8, 4.45e-06
1783.8, 4.3644e-06
1785.8, 4.0258e-06
1787.8, 4.1857e-06
1789.8, 4.234e-06
1791.8, 4.271e-06
1793.8, 4.3364e-06
1795.8, 3.6448e-06
1797.8, 4.2973e-06
1799.8, 4.2723e-06
1801.8, 4.4216e-06
1803.8, 4.116e-06
1805.8, 4.3879e-06
1807.8, 4.3305e-06
1809.8, 4.1627e-06
1811.8, 4.471e-06
1813.8, 4.0866e-06
1815.8, 4.3805e-06
1817.8, 4.2433e-06
1819.8, 4.188e-06
1821.8, 4.3177e-06
1823.8, 4.6239e-06
1825.8, 4.4212e-06
1827.8, 4.1547e-06
1829.8, 4.3843e-06
1831.8, 4.0691e-06
1833.8, 4.1404e-06
1835.8, 4.0586e-06
1837.8, 4.4536e-06
1839.8, 4.3433e-06
1841.8, 4.4695e-06
1843.8, 4.3237e-06
1845.8, 4.2192e-06
1847.8, 4.4853e-06
1849.8, 4.282e-06
1851.8, 4.2685e-06
1853.9, 4.1672e-06
1855.9, 4.2393e-06
1857.9, 4.0831e-06
1859.9, 4.412e-06
1861.9, 4.3823e-06
1863.9, 4.4336e-06
1865.9, 4.2687e-06
1867.9, 4.1685e-06
1869.9, 4.3404e-06
1871.9, 4.4072e-06
1873.9, 4.4965e-06
1875.9, 4.2226e-06
1877.9, 4.5456e-06
1879.9, 4.2104e-06
1881.9, 4.169e-06
1883.9, 4.3743e-06
1885.9, 4.5969e-06
1887.9, 4.2164e-06
1889.9, 4.3885e-06
1891.9, 4.4565e-06
1893.9, 4.5064e-06
1895.9, 4.1686e-06
1897.9, 4.0401e-06
1899.9, 4.2998e-06
1901.9, 4.5032e-06
1903.9, 4.4415e-06
1905.9, 4.4226e-06
1907.9, 4.4731e-06
1909.9, 4.3783e-06
1911.9, 4.2811e-06
1913.9, 4.2475e-06
1915.9, 4.457e-06
1917.9, 4.2886e-06
1919.9, 3.9485e-06
1921.9, 4.531e-06
1923.9, 4.4182e-06
1925.9, 4.5432e-06
1927.9, 4.2986e-06
1929.9, 4.3213e-06
1931.9, 4.538e-06
1933.9, 4.2675e-06
1935.9, 4.4119e-06
1937.9, 4.402e-06
1939.9, 4.4504e-06
1941.9, 4.4916e-06
1943.9, 4.537e-06
1945.9, 4.5016e-06
1947.9, 4.2863e-06
1949.9, 4.5344e-06
1951.9, 4.6049e-06
1954.0, 4.3256e-06
1956.0, 4.4812e-06
1958.0, 4.1731e-06
1960.0, 4.5545e-06
1962.0, 4.1959e-06
1964.0, 4.4268e-06
1966.0, 4.4954e-06
1968.0, 4.6078e-06
1970.0, 4.33e-06
1972.0, 4.4281e-06
1974.0, 4.3681e-06
1976.0, 4.4591e-06
1978.0, 4.284e-06
1980.0, 4.4046e-06
1982.0, 4.3236e-06
1984.0, 4.3782e-06
1986.0, 4.6104e-06
1988.0, 4.3789e-06
1990.0, 4.5657e-06
1992.0, 4.5133e-06
1994.0, 4.1981e-06
1996.0, 4.4194e-06
1998.0, 4.297e-06
2000.0, 4.4002e-06
2002.0, 4.2874e-06
2004.0, 4.1445e-06
2006.0, 4.4402e-06
2008.0, 4.2903e-06
2010.0, 4.4996e-06
2012.0, 4.5879e-06
2014.0, 4.2542e-06
2016.0, 4.4908e-06
2018.0, 4.1379e-06
2020.0, 4.213e-06
2022.0, 4.5376e-06
2024.0, 4.3529e-06
2026.0, 4.416e-06
2028.0, 4.4303e-06
2030.0, 4.3427e-06
2032.0, 4.5571e-06
2034.0, 4.7309e-06
2036.0, 4.275e-06
2038.0, 4.2808e-06
2040.0, 4.5741e-06
2042.0, 4.5599e-06
2044.0, 4.3204e-06
2046.0, 4.5297e-06
2048.0, 4.227e-06
2050.0, 4.5679e-06
2052.0, 4.103e-06
2054.1, 4.0878e-06
2056.1, 4.4617e-06
2058.1, 4.4515e-06
2060.1, 4.3829e-06
2062.1, 4.5097e-06
2064.1, 4.5394e-06
2066.1, 4.6137e-06
2068.1, 4.3271e-06
2070.1, 4.5807e-06
2072.1, 4.5648e-06
2074.1, 4.5585e-06
2076.1, 4.4941e-06
2078.1, 4.5083e-06
2080.1, 4.225e-06
2082.1, 4.2776e-06
2084.1, 4.4882e-06
2086.1, 4.371e-06
2088.1, 4.5173e-06
2090.1, 4.5659e-06
2092.1, 4.2789e-06
2094.1, 3.9268e-06
2096.1, 4.3618e-06
2098.1, 4.1765e-06
2100.1, 3.999e-06
2102.1, 4.2726e-06
2104.1, 4.2357e-06
2106.1, 4.4597e-06
2108.1, 4.2228e-06
2110.1, 4.2638e-06
2112.1, 4.5693e-06
2114.1, 4.4927e-06
2116.1, 4.319e-06
2118.1, 4.0607e-06
2120.1, 4.3681e-06
2122.1, 4.5744e-06
2124.1, 4.7285e-06
2126.1, 4.5946e-06
2128.1, 4.5458e-06
2130.1, 4.3296e-06
2132.1, 4.349e-06
2134.1, 4.3109e-06
2136.1, 4.3466e-06
2138.1, 4.4862e-06
2140.1, 4.4093e-06
2142.1, 4.494e-06
2144.1, 4.5722e-06
2146.1, 4.333e-06
2148.1, 4.3732e-06
2150.1, 4.6075e-06
2152.1, 4.2728e-06
2154.2, 4.5728e-06
2156.2, 4.5292e-06
2158.2, 4.5769e-06
2160.2, 4.5755e-06
2162.2, 4.7724e-06
2164.2, 4.466e-06
2166.2, 4.4402e-06
2168.2, 4.4834e-06
2170.2, 4.5392e-06
2172.2, 4.4716e-06
2174.2, 4.6754e-06
2176.2, 4.3705e-06
2178.2, 4.1795e-06
2180.2, 4.1663e-06
2182.2, 4.4723e-06
2184.2, 4.4218e-06
2186.2, 4.5169e-06
2188.2, 4.4296e-06
2190.2, 4.2793e-06
2192.2, 4.6701e-06
2194.2, 4.2549e-06
2196.2, 4.6425e-06
2198.2, 4.694e-06
2200.2, 4.6048e-06
2202.2, 4.6153e-06
2204.2, 4.7463e-06
2206.2, 4.6669e-06
2208.2, 4.6493e-06
2210.2, 4.499e-06
2212.2, 4.3439e-06
2214.2, 4.4516e-06
2216.2, 4.3271e-06
2218.2, 4.27e-06
2220.2, 4.3325e-06
2222.2, 4.5372e-06
2224.2, 4.3805e-06
2226.2, 4.5509e-06
2228.2, 4.5925e-06
2230.2, 4.593e-06
2232.2, 4.3193e-06
2234.2, 4.4854e-06
2236.2, 4.3934e-06
2238.2, 4.5993e-06
2240.2, 4.4799e-06
2242.2, 4.2775e-06
2244.2, 4.3537e-06
2246.2, 4.6396e-06
2248.2, 4.5445e-06
2250.2, 4.3834e-06
2252.2, 4.3147e-06
2254.3, 4.7423e-06
2256.3, 4.356e-06
2258.3, 4.6478e-06
2260.3, 4.515e-06
2262.3, 4.672e-06
2264.3, 4.5729e-06
2266.3, 4.5747e-06
2268.3, 4.6298e-06
2270.3, 4.1714e-06
2272.3, 4.4654e-06
2274.3, 4.5505e-06
2276.3, 4.3899e-06
2278.3, 4.4693e-06
2280.3, 4.7103e-06
2282.3, 4.3561e-06
2284.3, 4.5529e-06
2286.3, 4.4657e-06
2288.3, 4.2596e-06
2290.3, 4.4274e-06
2292.3, 4.519e-06
2294.3, 4.5054e-06
2296.3, 4.426e-06
2298.3, 4.369e-06
2300.3, 4.6611e-06
2302.3, 4.3681e-06
2304.3, 4.4827e-06
2306.3, 4.4769e-06
2308.3, 4.4122e-06
2310.3, 4.416e-06
2312.3, 4.4337e-06
2314.3, 4.4973e-06
2316.3, 4.4892e-06
2318.3, 4.6968e-06
2320.3, 4.415e-06
2322.3, 4.6225e-06
2324.3, 4.6859e-06
2326.3, 4.6882e-06
2328.3, 4.4584e-06
2330.3, 4.2892e-06
2332.3, 4.275e-06
2334.3, 4.4048e-06
2336.3, 4.4087e-06
2338.3, 4.4955e-06
2340.3, 4.3188e-06
2342.3, 4.58e-06
2344.3, 4.5298e-06
2346.3, 4.3985e-06
2348.3, 4.3481e-06
2350.3, 4.4643e-06
2352.3, 4.544e-06
2354.4, 4.3121e-06
2356.4, 4.3985e-06
2358.4, 4.4266e-06
2360.4, 4.6577e-06
2362.4, 4.6604e-06
2364.4, 4.397e-06
2366.4, 4.6914e-06
2368.4, 4.4586e-06
2370.4, 4.4906e-06
2372.4, 4.4409e-06
2374.4, 4.7003e-06
2376.4, 4.5221e-06
2378.4, 4.5072e-06
2380.4, 4.7214e-06
2382.4, 4.5671e-06
2384.4, 4.3199e-06
2386.4, 4.5366e-06
2388.4, 4.4388e-06
2390.4, 4.43e-06
2392.4, 4.6554e-06
2394.4, 4.634e-06
2396.4, 4.7172e-06
2398.4, 4.5412e-06
2400.4, 4.3585e-06
2402.4, 4.4359e-06
2404.4, 4.4015e-06
2406.4, 4.5206e-06
2408.4, 4.3693e-06
2410.4, 4.6836e-06
2412.4, 4.6624e-06
2414.4, 4.422e-06
2416.4, 4.5724e-06
2418.4, 4.4732e-06
2420.4, 4.4991e-06
2422.4, 4.6148e-06
2424.4, 4.4793e-06
2426.4, 4.682e-06
2428.4, 4.636e-06
2430.4, 4.4934e-06
2432.4, 4.3299e-06
2434.4, 4.4855e-06
2436.4, 4.6224e-06
2438.4, 4.6332e-06
2440.4, 4.6522e-06
2442.4, 4.4952e-06
2444.4, 4.4043e-06
2446.4, 4.6066e-06
2448.4, 4.6047e-06
2450.4, 4.1583e-06
2452.4, 4.5758e-06
2454.5, 4.3778e-06
2456.5, 4.6198e-06
2458.5, 4.4906e-06
2460.5, 4.4639e-06
2462.5, 4.491e-06
2464.5, 4.2235e-06
2466.5, 4.4694e-06
2468.5, 4.4279e-06
2470.5, 4.3026e-06
2472.5, 4.3599e-06
2474.5, 4.3507e-06
2476.5, 4.5926e-06
2478.5, 4.515e-06
2480.5, 4.3525e-06
2482.5, 4.6308e-06
2484.5, 4.5294e-06
2486.5, 4.4746e-06
2488.5, 3.9934e-06
2490.5, 4.608e-06
2492.5, 4.3157e-06
2494.5, 4.2993e-06
2496.5, 4.3571e-06
2498.5, 4.326e-06
2500.5, 4.3585e-06
2502.5, 4.2451e-06
2504.5, 4.3661e-06
2506.5, 4.4986e-06
2508.5, 4.1962e-06
2510.5, 4.6487e-06
2512.5, 4.4165e-06
2514.5, 4.506e-06
2516.5, 4.5806e-06
2518.5, 4.5226e-06
2520.5, 4.2612e-06
2522.5, 4.2308e-06
2524.5, 4.1992e-06
2526.5, 4.3153e-06
2528.5, 4.5378e-06
2530.5, 4.4812e-06
2532.5, 4.3691e-06
2534.5, 4.4309e-06
2536.5, 4.6124e-06
2538.5, 4.5802e-06
2540.5, 4.65e-06
2542.5, 4.3924e-06
2544.5, 4.4024e-06
2546.5, 4.4936e-06
2548.5, 4.3554e-06
2550.5, 4.4562e-06
2552.5, 4.5839e-06
2554.6, 4.5628e-06
2556.6, 4.6307e-06
2558.6, 4.5414e-06
2560.6, 4.3666e-06
2562.6, 4.4869e-06
2564.6, 4.3588e-06
2566.6, 4.4773e-06
2568.6, 4.6226e-06
2570.6, 4.3679e-06
2572.6, 4.55e-06
2574.6, 4.5325e-06
2576.6, 4.4308e-06
2578.6, 4.493e-06
2580.6, 4.464e-06
2582.6, 4.5391e-06
2584.6, 4.7421e-06
2586.6, 4.4535e-06
2588.6, 4.4271e-06
2590.6, 4.4055e-06
2592.6, 4.5705e-06
2594.6, 4.4327e-06
2596.6, 4.4711e-06
2598.6, 4.6003e-06
2600.6, 4.2199e-06
2602.6, 4.3381e-06
2604.6, 4.6287e-06
2606.6, 4.2013e-06
2608.6, 4.5294e-06
2610.6, 4.5874e-06
2612.6, 4.5342e-06
2614.6, 4.7607e-06
2616.6, 4.6283e-06
2618.6, 4.1386e-06
2620.6, 4.6081e-06
2622.6, 4.1141e-06
2624.6, 2.3918e-06
2626.6, -2.996e-08
2628.6, -3.112e-08
2630.6, -2.699e-08
2632.6, -3.272e-08
2634.6, -3.108e-08
2636.6, -3.261e-08
2638.6, -3.365e-08
2640.6, -2.907e-08
2642.6, -2.765e-08
2644.6, -3.045e-08
2646.6, -2.66e-08
2648.6, -3.238e-08
2650.6, -3.038e-08
2652.6, -2.961e-08
2654.7, -2.851e-08
2656.7, -2.957e-08
2658.7, -2.876e-08
2660.7, -2.844e-08
2662.7, -2.769e-08
2664.7, -2.974e-08
2666.7, -3.283e-08
2668.7, -3.004e-08
2670.7, -2.95e-08
2672.7, -2.979e-08
2674.7, -2.806e-08
2676.7, -3.134e-08
2678.7, -3.217e-08
2680.7, -3.314e-08
2682.7, -3.163e-08
2684.7, -3.013e-08
2686.7, -3.06e-08
2688.7, -3.197e-08
2690.7, -3.318e-08
2692.7, -3.013e-08
2694.7, -3.144e-08
2696.7, -2.942e-08
2698.7, -3.319e-08
2700.7, -3.439e-08
2702.7, -2.985e-08
2704.7, -2.942e-08
2706.7, -3.095e-08
2708.7, -2.956e-08
2710.7, -3.078e-08
2712.7, -3.028e-08
2714.7, -3.145e-08
2716.7, -2.952e-08
2718.7, -3.225e-08
2720.7, -3.29e-08
2722.7, -2.711e-08
2724.7, -3.02e-08
2726.7, -2.296e-08
2728.7, -2.615e-08
2730.7, -2.736e-08
2732.7, -2.923e-08
2734.7, -3.069e-08
2736.7, -2.486e-08
2738.7, -2.663e-08
2740.7, -2.941e-08
2742.7, -2.894e-08
2744.7, -2.779e-08
2746.7, -2.936e-08
2748.7, -2.936e-08
2750.7, -2.841e-08
2752.7, -2.383e-08
2754.8, -2.756e-08
2756.8, -2.805e-08
2758.8, -2.712e-08
2760.8, -2.651e-08
2762.8, -3.103e-08
2764.8, -2.722e-08
2766.8, -3.154e-08
2768.8, -3.022e-08
2770.8, -2.853e-08
2772.8, -2.915e-08
2774.8, -2.904e-08
2776.8, -2.914e-08
2778.8, -2.9e-08
2780.8, -2.625e-08
2782.8, -2.74e-08
2784.8, -2.792e-08
2786.8, -2.884e-08
2788.8, -2.776e-08
2790.8, -2.77e-08
2792.8, -2.784e-08
2794.8, -2.634e-08
2796.8, -2.715e-08
2798.8, -2.845e-08
2800.8, -2.624e-08
2802.8, -2.516e-08
2804.8, -2.624e-08
2806.8, -2.8e-08
2808.8, -2.95e-08
2810.8, -2.648e-08
2812.8, -3.019e-08
2814.8, -2.589e-08
2816.8, -2.92e-08
2818.8, -2.94e-08
2820.8, -2.952e-08
2822.8, -2.921e-08
2824.8, -2.673e-08
2826.8, -2.847e-08
2828.8, -2.916e-08
2830.8, -2.539e-08
2832.8, -2.411e-08
2834.8, -2.175e-08
2836.8, -2.192e-08
2838.8, -2.528e-08
2840.8, -2.551e-08
2842.8, -2.422e-08
2844.8, -2.644e-08
2846.8, -2.315e-08
2848.8, -2.617e-08
2850.8, -2.452e-08
2852.8, -2.524e-08
2854.9, -2.497e-08
2856.9, -2.39e-08
2858.9, -2.565e-08
2860.9, -2.211e-08
2862.9, -2.632e-08
2864.9, -2.609e-08
2866.9, -2.507e-08
2868.9, -2.382e-08
2870.9, -2.428e-08
2872.9, -2.242e-08
2874.9, -2.324e-08
2876.9, -2.421e-08
2878.9, -1.945e-08
2880.9, -2.637e-08
2882.9, -2.121e-08
2884.9, -2.305e-08
2886.9, -2.443e-08
2888.9, -2.641e-08
2890.9, -2.692e-08
2892.9, -2.574e-08
2894.9, -2.587e-08
2896.9, -2.397e-08
2898.9, -2.626e-08
2900.9, -2.527e-08
2902.9, -2.451e-08
2904.9, -2.472e-08
2906.9, -2.041e-08
2908.9, -2.524e-08
2910.9, -2.881e-08
2912.9, -2.737e-08
2914.9, -2.424e-08
2916.9, -2.817e-08
2918.9, -2.36e-08
2920.9, -2.64e-08
2922.9, -2.383e-08
2924.9, -2.148e-08
2926.9, -2.117e-08
2928.9, -2.158e-08
2930.9, -2.762e-08
2932.9, -2.382e-08
2934.9, -2.337e-08
2936.9, -2.649e-08
2938.9, -2.722e-08
2940.9, -2.811e-08
2942.9, -3.036e-08
2944.9, -2.857e-08
2946.9, -2.692e-08
2948.9, -2.639e-08
2950.9, -2.721e-08
2952.9, -2.612e-08
2955.0, -2.7e-08
2957.0, -2.781e-08
2959.0, -2.601e-08
2961.0, -2.644e-08
2963.0, -2.359e-08
2965.0, -2.284e-08
2967.0, -2.471e-08
2969.0, -2.676e-08
2971.0, -2.588e-08
2973.0, -2.498e-08
2975.0, -2.512e-08
2977.0, -2.826e-08
2979.0, -2.521e-08
2981.0, -2.827e-08
2983.0, -2.678e-08
2985.0, -2.902e-08
2987.0, -2.536e-08
2989.0, -2.866e-08
2991.0, -2.749e-08
2993.0, -2.654e-08
2995.0, -2.778e-08
2997.0, -2.671e-08
2999.0, -2.864e-08
3001.0, -2.678e-08
3003.0, -2.435e-08
3005.0, -2.687e-08
3007.0, -2.52e-08
3009.0, -2.561e-08
3011.0, -2.731e-08
3013.0, -2.816e-08
3015.0, -2.664e-08
3017.0, -2.762e-08
3019.0, -2.628e-08
3021.0, -2.509e-08
3023.0, -2.595e-08
3025.0, -2.666e-08
3027.0, -2.415e-08
3029.0, -2.563e-08
3031.0, -2.682e-08
3033.0, -2.678e-08
3035.0, -2.113e-08
3037.0, -2.77e-08
3039.0, -2.767e-08
3041.0, -2.802e-08
3043.0, -2.639e-08
3045.0, -2.577e-08
3047.0, -2.582e-08
3049.0, -2.725e-08
3051.0, -2.675e-08
3053.0, -2.729e-08
3055.1, -2.701e-08
3057.1, -2.61e-08
3059.1, -3.119e-08
3061.1, -3.186e-08
3063.1, -2.708e-08
3065.1, -2.799e-08
3067.1, -2.841e-08
3069.1, -2.953e-08
3071.1, -2.969e-08
3073.1, -2.941e-08
3075.1, -2.789e-08
3077.1, -2.799e-08
3079.1, -2.61e-08
3081.1, -2.718e-08
3083.1, -2.672e-08
3085.1, -2.785e-08
3087.1, -2.563e-08
3089.1, -3.137e-08
3091.1, -2.55e-08
3093.1, -2.834e-08
3095.1, -2.706e-08
3097.1, -2.967e-08
3099.1, -2.768e-08
3101.1, -2.844e-08
3103.1, -2.838e-08
3105.1, -2.861e-08
3107.1, -2.987e-08
3109.1, -3.051e-08
3111.1, -2.873e-08
3113.1, -3.051e-08
3115.1, -2.883e-08
3117.1, -2.731e-08
3119.1, -2.912e-08
3121.1, -2.57e-08
3123.1, -2.739e-08
3125.1, -2.677e-08
3127.1, -2.562e-08
3129.1, -2.381e-08
3131.1, -2.395e-08
3133.1, -2.603e-08
3135.1, -2.283e-08
3137.1, -2.838e-08
3139.1, -2.39e-08
3141.1, -2.903e-08
3143.1, -2.579e-08
3145.1, -2.694e-08
3147.1, -2.44e-08
3149.1, -2.749e-08
3151.1, -2.47e-08
3153.1, -2.852e-08
3155.2, -2.822e-08
3157.2, -2.907e-08
3159.2, -2.375e-08
3161.2, -2.797e-08
3163.2, -2.687e-08
3165.2, -2.626e-08
3167.2, -2.45e-08
3169.2, -2.333e-08
3171.2, -2.688e-08
3173.2, -2.626e-08
3175.2, -2.581e-08
3177.2, -2.507e-08
3179.2, -2.692e-08
3181.2, -2.368e-08
3183.2, -2.503e-08
3185.2, -2.7e-08
3187.2, -3.052e-08
3189.2, -2.667e-08
3191.2, -3.014e-08
3193.2, -2.632e-08
3195.2, -2.621e-08
3197.2, -2.61e-08
3199.2, -2.525e-08
3201.2, -2.883e-08
3203.2, -2.483e-08
3205.2, -2.576e-08
3207.2, -3.04e-08
3209.2, -3.331e-08
3211.2, -2.93e-08
3213.2, -3.143e-08
3215.2, -3.047e-08
3217.2, -3.091e-08
3219.2, -2.676e-08
3221.2, -2.952e-08
3223.2, -2.987e-08
3225.2, -2.627e-08
3227.2, -2.432e-08
3229.2, -2.597e-08
3231.2, -2.526e-08
3233.2, -2.359e-08
3235.2, -2.27e-08
3237.2, -2.697e-08
3239.2, -2.661e-08
3241.2, -2.385e-08
3243.2, -2.774e-08
3245.2, -2.597e-08
3247.2, -2.339e-08
3249.2, -2.185e-08
3251.2, -2.391e-08
3253.2, -2.229e-08
3255.3, -2.778e-08
3257.3, -2.518e-08
3259.3, -2.824e-08
3261.3, -2.558e-08
3263.3, -2.408e-08
3265.3, -2.665e-08
3267.3, -2.288e-08
3269.3, -2.544e-08
3271.3, -2.598e-08
3273.3, -2.47e-08
3275.3, -2.767e-08
3277.3, -2.61e-08
3279.3, -2.372e-08
3281.3, -2.44e-08
3283.3, -2.371e-08
3285.3, -2.363e-08
3287.3, -2.555e-08
3289.3, -2.372e-08
3291.3, -2.104e-08
3293.3, -2.775e-08
3295.3, -2.104e-08
3297.3, -2.489e-08
3299.3, -2.616e-08
3301.3, -2.62e-08
3303.3, -2.372e-08
3305.3, -2.207e-08
3307.3, -2.717e-08
3309.3, -2.665e-08
3311.3, -2.873e-08
3313.3, -2.814e-08
3315.3, -2.881e-08
3317.3, -2.685e-08
3319.3, -2.809e-08
3321.3, -3.074e-08
3323.3, -2.969e-08
3325.3, -2.947e-08
3327.3, -2.989e-08
3329.3, -3.276e-08
3331.3, -3.057e-08
3333.3, -2.73e-08
3335.3, -2.77e-08
3337.3, -2.944e-08
3339.3, -2.916e-08
3341.3, -2.854e-08
3343.3, -2.431e-08
3345.3, -2.388e-08
3347.3, -2.594e-08
3349.3, -2.67e-08
3351.3, -2.708e-08
3353.3, -2.906e-08
3355.4, -2.61e-08
3357.4, -2.779e-08
3359.4, -3.004e-08
3361.4, -3.021e-08
3363.4, -2.538e-08
3365.4, -2.288e-08
3367.4, -2.77e-08
3369.4, -2.839e-08
3371.4, -2.492e-08
3373.4, -2.834e-08
3375.4, -2.853e-08
3377.4, -2.691e-08
3379.4, -2.74e-08
3381.4, -2.713e-08
3383.4, -2.97e-08
3385.4, -2.823e-08
3387.4, -3.136e-08
3389.4, -3.089e-08
3391.4, -2.928e-08
3393.4, -2.805e-08
3395.4, -2.937e-08
3397.4, -2.43e-08
3399.4, -2.669e-08
3401.4, -2.819e-08
3403.4, -3.15e-08
3405.4, -2.847e-08
3407.4, -2.879e-08
3409.4, -3.017e-08
3411.4, -2.953e-08
3413.4, -2.592e-08
3415.4, -2.512e-08
3417.4, -2.757e-08
3419.4, -2.877e-08
3421.4, -2.684e-08
3423.4, -2.834e-08
3425.4, -2.932e-08
3427.4, -2.785e-08
3429.4, -2.709e-08
3431.4, -2.883e-08
3433.4, -2.676e-08
3435.4, -2.915e-08
3437.4, -3.109e-08
3439.4, -2.942e-08
3441.4, -3.259e-08
3443.4, -3.023e-08
3445.4, -2.973e-08
3447.4, -2.484e-08
3449.4, -2.639e-08
3451.4, -2.633e-08
3453.4, -2.715e-08
3455.5, -2.687e-08
3457.5, -2.573e-08
3459.5, -2.57e-08
3461.5, -2.503e-08
3463.5, -2.937e-08
3465.5, -2.984e-08
3467.5, -2.721e-08
3469.5, -2.544e-08
3471.5, -2.827e-08
3473.5, -2.977e-08
3475.5, -2.966e-08
3477.5, -2.762e-08
3479.5, -2.904e-08
3481.5, -2.984e-08
3483.5, -3.02e-08
3485.5, -2.834e-08
3487.5, -3.123e-08
3489.5, -3.057e-08
3491.5, -2.666e-08
3493.5, -2.89e-08
3495.5, -2.783e-08
3497.5, -3.154e-08
3499.5, -2.861e-08
3501.5, -3.004e-08
3503.5, -3.01e-08
3505.5, -3.21e-08
3507.5, -3.058e-08
3509.5, -2.751e-08
3511.5, -3.072e-08
3513.5, -2.856e-08
3515.5, -2.906e-08
3517.5, -2.879e-08
3519.5, -2.667e-08
3521.5, -3.165e-08
3523.5, -2.621e-08
3525.5, -2.943e-08
3527.5, -2.918e-08
3529.5, -3.219e-08
3531.5, -2.717e-08
3533.5, -2.881e-08
3535.5, -2.814e-08
3537.5, -2.888e-08
3539.5, -2.938e-08
3541.5, -2.855e-08
3543.5, -2.841e-08
3545.5, -2.939e-08
3547.5, -2.903e-08
3549.5, -3.167e-08
3551.5, -2.618e-08
3553.5, -2.94e-08
3555.6, -2.921e-08
3557.6, -3.18e-08
3559.6, -3.089e-08
3561.6, -3.155e-08
3563.6, -3.125e-08
3565.6, -2.898e-08
3567.6, -3.021e-08
3569.6, -2.955e-08
3571.6, -2.721e-08
3573.6, -2.705e-08
3575.6, -2.709e-08
3577.6, -2.358e-08
3579.6, -2.405e-08
3581.6, -2.685e-08
3583.6, -2.02e-08
3585.6, -2.434e-08
3587.6, -2.272e-08
3589.6, -2.719e-08
3591.6, -2.398e-08
3593.6, -2.253e-08
3595.6, -2.773e-08
3597.6, -2.572e-08
3599.6, -2.79e-08
3601.6, -3.333e-08
3603.6, -3.073e-08
3605.6, -2.68e-08
3607.6, -2.639e-08
3609.6, -2.768e-08
3611.6, -2.904e-08
3613.6, -2.576e-08
3615.6, -2.34e-08
3617.6, -2.594e-08
3619.6, -2.863e-08
3621.6, -2.522e-08
3623.6, -2.78e-08
3625.6, -2.635e-08
3627.6, -2.755e-08
3629.6, -2.918e-08
3631.6, -2.677e-08
3633.6, -2.975e-08
3635.6, -2.983e-08
3637.6, -2.989e-08
3639.6, -3.085e-08
3641.6, -3.201e-08
3643.6, -3.173e-08
3645.6, -3.217e-08
3647.6, -3.337e-08
3649.6, -3.314e-08
3651.6, -3.266e-08
3653.6, -3.073e-08
3655.7, 2.1888e-06
3657.7, 3.5753e-06
3659.7, 3.5734e-06
3661.7, 3.5433e-06
3663.7, 3.9245e-06
3665.7, 4.0495e-06
3667.7, 3.9399e-06
3669.7, 4.0582e-06
3671.7, 4.1383e-06
3673.7, 3.7717e-06
3675.7, 3.7116e-06
3677.7, 3.8427e-06
3679.7, 4.0019e-06
3681.7, 3.9106e-06
3683.7, 4.089e-06
3685.7, 3.7809e-06
3687.7, 4.1184e-06
3689.7, 4.1125e-06
3691.7, 3.8266e-06
3693.7, 4.2442e-06
3695.7, 4.0223e-06
3697.7, 3.829e-06
3699.7, 4.2561e-06
3701.7, 3.7789e-06
3703.7, 3.9064e-06
3705.7, 4.2444e-06
3707.7, 3.9124e-06
3709.7, 4.0038e-06
3711.7, 3.6772e-06
3713.7, 3.9842e-06
3715.7, 4.0793e-06
3717.7, 3.7843e-06
3719.7, 4.096e-06
3721.7, 4.1874e-06
3723.7, 4.3154e-06
3725.7, 3.9178e-06
3727.7, 3.9427e-06
3729.7, 3.9642e-06
3731.7, 3.8306e-06
3733.7, 4.2921e-06
3735.7, 3.81e-06
3737.7, 4.0305e-06
3739.7, 4.0366e-06
3741.7, 4.1767e-06
3743.7, 4.2992e-06
3745.7, 4.2007e-06
3747.7, 3.966e-06
3749.7, 3.9459e-06
3751.7, 4.015e-06
3753.7, 4.0259e-06
3755.8, 4.236e-06
3757.8, 3.8272e-06
3759.8, 4.1074e-06
3761.8, 3.906e-06
3763.8, 4.1265e-06
3765.8, 3.9142e-06
3767.8, 4.1003e-06
3769.8, 4.2226e-06
3771.8, 4.193e-06
3773.8, 3.8815e-06
3775.8, 4.2497e-06
3777.8, 3.9501e-06
3779.8, 3.863e-06
3781.8, 4.1007e-06
3783.8, 3.9636e-06
3785.8, 4.2888e-06
3787.8, 4.2832e-06
3789.8, 4.304e-06
3791.8, 4.3554e-06
3793.8, 4.3779e-06
3795.8, 4.2904e-06
3797.8, 4.162e-06
3799.8, 4.2692e-06
3801.8, 3.8761e-06
3803.8, 4.0187e-06
3805.8, 4.2198e-06
3807.8, 3.9961e-06
3809.8, 4.3962e-06
3811.8, 4.2277e-06
3813.8, 4.2552e-06
3815.8, 4.1248e-06
3817.8, 4.1348e-06
3819.8, 4.1109e-06
3821.8, 4.4164e-06
3823.8, 4.3071e-06
3825.8, 4.2144e-06
3827.8, 4.2325e-06
3829.8, 4.2385e-06
3831.8, 4.0276e-06
3833.8, 4.4658e-06
3835.8, 4.1401e-06
3837.8, 4.3082e-06
3839.8, 4.0964e-06
3841.8, 4.0333e-06
3843.8, 4.2283e-06
3845.8, 3.9864e-06
3847.8, 4.1875e-06
3849.8, 4.2798e-06
3851.8, 4.3612e-06
3853.8, 4.4322e-06
3855.9, 4.2289e-06
3857.9, 4.2135e-06
3859.9, 4.3145e-06
3861.9, 4.0992e-06
3863.9, 4.2846e-06
3865.9, 4.0405e-06
3867.9, 4.166e-06
3869.9, 4.3649e-06
3871.9, 4.1594e-06
3873.9, 4.2915e-06
3875.9, 4.3975e-06
3877.9, 4.2231e-06
3879.9, 4.2293e-06
3881.9, 4.3453e-06
3883.9, 4.0626e-06
3885.9, 4.5142e-06
3887.9, 4.3314e-06
3889.9, 4.2871e-06
3891.9, 4.2152e-06
3893.9, 4.2284e-06
3895.9, 4.2853e-06
3897.9, 4.3615e-06
3899.9, 4.1448e-06
3901.9, 3.7808e-06
3903.9, 4.2827e-06
3905.9, 4.0925e-06
3907.9, 4.5083e-06
3909.9, 4.2149e-06
3911.9, 4.2442e-06
3913.9, 4.2431e-06
3915.9, 4.0713e-06
3917.9, 4.2044e-06
3919.9, 4.2271e-06
3921.9, 4.276e-06
3923.9, 4.117e-06
3925.9, 4.3301e-06
3927.9, 4.2862e-06
3929.9, 4.2782e-06
3931.9, 4.2408e-06
3933.9, 3.9046e-06
3935.9, 3.9513e-06
3937.9, 4.2588e-06
3939.9, 4.3336e-06
3941.9, 4.0231e-06
3943.9, 3.9619e-06
3945.9, 4.3068e-06
3947.9, 4.0718e-06
3949.9, 4.1911e-06
3951.9, 4.2267e-06
3953.9, 4.1341e-06
3956.0, 3.9066e-06
3958.0, 4.2162e-06
3960.0, 4.1245e-06
3962.0, 4.2747e-06
3964.0, 4.2737e-06
3966.0, 4.14e-06
3968.0, 4.3672e-06
3970.0, 4.1533e-06
3972.0, 4.1355e-06
3974.0, 4.2763e-06
3976.0, 4.3465e-06
3978.0, 3.9659e-06
3980.0, 4.3795e-06
3982.0, 4.328e-06
3984.0, 4.4438e-06
3986.0, 4.3905e-06
3988.0, 4.2817e-06
3990.0, 4.193e-06
3992.0, 4.1814e-06
3994.0, 4.3092e-06
3996.0, 4.1993e-06
3998.0, 4.3563e-06
4000.0, 4.3314e-06
4002.0, 4.3416e-06
4004.0, 4.3191e-06
4006.0, 4.5209e-06
4008.0, 4.0441e-06
4010.0, 4.3441e-06
4012.0, 4.3066e-06
4014.0, 4.0988e-06
4016.0, 4.3594e-06
4018.0, 4.3302e-06
4020.0, 4.2e-06
4022.0, 4.2101e-06
4024.0, 4.3615e-06
4026.0, 4.5055e-06
4028.0, 4.1504e-06
4030.0, 4.2189e-06
4032.0, 4.1889e-06
4034.0, 4.1875e-06
4036.0, 4.3351e-06
4038.0, 4.3206e-06
4040.0, 4.2377e-06
4042.0, 4.235e-06
4044.0, 4.1836e-06
4046.0, 4.1625e-06
4048.0, 4.5615e-06
4050.0, 4.4046e-06
4052.0, 4.4334e-06
4054.0, 4.4556e-06
4056.1, 4.2905e-06
4058.1, 4.2937e-06
4060.1, 4.3813e-06
4062.1, 4.3054e-06
4064.1, 4.1963e-06
4066.1, 4.1628e-06
4068.1, 4.4666e-06
4070.1, 4.2891e-06
4072.1, 4.4515e-06
4074.1, 4.3591e-06
4076.1, 4.3621e-06
4078.1, 4.4445e-06
4080.1, 4.5062e-06
4082.1, 4.3809e-06
4084.1, 4.4069e-06
4086.1, 4.3437e-06
4088.1, 4.2362e-06
4090.1, 4.3989e-06
4092.1, 4.4566e-06
4094.1, 4.3042e-06
4096.1, 4.2534e-06
4098.1, 4.1545e-06
4100.1, 4.2781e-06
4102.1, 4.3554e-06
4104.1, 4.1821e-06
4106.1, 4.3722e-06
4108.1, 4.1854e-06
4110.1, 4.1236e-06
4112.1, 4.2155e-06
4114.1, 4.2946e-06
4116.1, 4.2914e-06
4118.1, 4.1884e-06
4120.1, 4.3005e-06
4122.1, 4.2637e-06
4124.1, 4.25e-06
4126.1, 4.1868e-06
4128.1, 4.4693e-06
4130.1, 4.2951e-06
4132.1, 4.0499e-06
4134.1, 4.0475e-06
4136.1, 4.2853e-06
4138.1, 4.2882e-06
4140.1, 4.361e-06
4142.1, 4.2794e-06
4144.1, 4.223e-06
4146.1, 4.4478e-06
4148.1, 4.1489e-06
4150.1, 4.3779e-06
4152.1, 4.2606e-06
4154.1, 4.2296e-06
4156.2, 4.2277e-06
4158.2, 4.4668e-06
4160.2, 3.9811e-06
4162.2, 4.4896e-06
4164.2, 4.4239e-06
4166.2, 4.465e-06
4168.2, 4.3148e-06
4170.2, 4.3662e-06
4172.2, 4.2531e-06
4174.2, 4.1884e-06
4176.2, 4.3898e-06
4178.2, 4.1345e-06
4180.2, 4.2734e-06
4182.2, 4.2749e-06
4184.2, 4.312e-06
4186.2, 4.1618e-06
4188.2, 4.2828e-06
4190.2, 4.3433e-06
4192.2, 4.4319e-06
4194.2, 4.3733e-06
4196.2, 4.1547e-06
4198.2, 4.2874e-06
4200.2, 4.3329e-06
4202.2, 4.361e-06
4204.2, 4.3578e-06
4206.2, 4.2999e-06
4208.2, 4.149e-06
4210.2, 4.1066e-06
4212.2, 4.4672e-06
4214.2, 4.4865e-06
4216.2, 4.3915e-06
4218.2, 4.2034e-06
4220.2, 4.2969e-06
4222.2, 4.3487e-06
4224.2, 4.4038e-06
4226.2, 4.3343e-06
4228.2, 4.075e-06
4230.2, 3.9345e-06
4232.2, 4.2969e-06
4234.2, 4.5527e-06
4236.2, 4.3392e-06
4238.2, 4.168e-06
4240.2, 4.3871e-06
4242.2, 4.2475e-06
4244.2, 4.5766e-06
4246.2, 4.5024e-06
4248.2, 4.4858e-06
4250.2, 4.3839e-06
4252.2, 4.3616e-06
4254.2, 4.3249e-06
4256.3, 4.4913e-06
4258.3, 4.3948e-06
4260.3, 4.1558e-06
4262.3, 4.307e-06
4264.3, 4.379e-06
4266.3, 4.3071e-06
4268.3, 4.3877e-06
4270.3, 4.3941e-06
4272.3, 4.3939e-06
4274.3, 4.1594e-06
4276.3, 4.3303e-06
4278.3, 4.3626e-06
4280.3, 4.3776e-06
4282.3, 4.3986e-06
4284.3, 4.4963e-06
4286.3, 3.9293e-06
4288.3, 4.1975e-06
4290.3, 4.5071e-06
4292.3, 4.2332e-06
4294.3, 4.0457e-06
4296.3, 4.423e-06
4298.3, 4.4085e-06
4300.3, 4.3582e-06
4302.3, 4.3442e-06
4304.3, 4.4202e-06
4306.3, 4.3846e-06
4308.3, 4.3635e-06
4310.3, 4.4774e-06
4312.3, 4.2161e-06
4314.3, 4.4406e-06
4316.3, 4.3734e-06
4318.3, 4.5143e-06
4320.3, 4.4948e-06
4322.3, 4.2588e-06
4324.3, 4.2361e-06
4326.3, 4.1448e-06
4328.3, 4.3888e-06
4330.3, 4.3982e-06
4332.3, 4.3593e-06
4334.3, 4.342e-06
4336.3, 4.4325e-06
4338.3, 4.5911e-06
4340.3, 4.2689e-06
4342.3, 4.4609e-06
4344.3, 4.3275e-06
4346.3, 4.4671e-06
4348.3, 4.5378e-06
4350.3, 4.4184e-06
4352.3, 4.4399e-06
4354.3, 4.5486e-06
4356.4, 4.4402e-06
4358.4, 4.6102e-06
4360.4, 4.4936e-06
4362.4, 4.4694e-06
4364.4, 4.3601e-06
4366.4, 4.3511e-06
4368.4, 4.1392e-06
4370.4, 4.394e-06
4372.4, 4.2675e-06
4374.4, 4.3498e-06
4376.4, 4.0741e-06
4378.4, 4.4558e-06
4380.4, 4.3881e-06
4382.4, 4.3185e-06
4384.4, 4.3956e-06
4386.4, 4.427e-06
4388.4, 4.531e-06
4390.4, 4.2695e-06
4392.4, 4.3123e-06
4394.4, 4.5329e-06
4396.4, 4.3963e-06
4398.4, 4.2797e-06
4400.4, 4.2754e-06
4402.4, 4.4121e-06
4404.4, 4.4663e-06
4406.4, 4.4281e-06
4408.4, 4.4976e-06
4410.4, 4.4483e-06
4412.4, 4.3264e-06
4414.4, 4.4555e-06
4416.4, 4.4318e-06
4418.4, 4.2825e-06
4420.4, 4.3898e-06
4422.4, 4.3244e-06
4424.4, 4.3964e-06
4426.4, 4.4302e-06
4428.4, 4.4879e-06
4430.4, 4.4019e-06
4432.4, 4.1046e-06
4434.4, 4.2741e-06
4436.4, 4.4958e-06
4438.4, 4.2652e-06
4440.4, 4.5519e-06
4442.4, 4.2107e-06
4444.4, 4.2914e-06
4446.4, 4.2986e-06
4448.4, 4.19e-06
4450.4, 4.1656e-06
4452.4, 4.2731e-06
4454.4, 4.3865e-06
4456.5, 4.3542e-06
4458.5, 4.3128e-06
4460.5, 4.3965e-06
4462.5, 4.1814e-06
4464.5, 4.3892e-06
4466.5, 4.1937e-06
4468.5, 4.3412e-06
4470.5, 4.3912e-06
4472.5, 4.1175e-06
4474.5, 4.3626e-06
4476.5, 4.3479e-06
4478.5, 4.1946e-06
4480.5, 4.4089e-06
4482.5, 4.5065e-06
4484.5, 4.3964e-06
4486.5, 4.1798e-06
4488.5, 4.4707e-06
4490.5, 4.4873e-06
4492.5, 4.4207e-06
4494.5, 4.4019e-06
4496.5, 4.3629e-06
4498.5, 4.0253e-06
4500.5, 4.4461e-06
4502.5, 4.6367e-06
4504.5, 4.4982e-06
4506.5, 4.3619e-06
4508.5, 4.3459e-06
4510.5, 4.2657e-06
4512.5, 4.2511e-06
4514.5, 4.5209e-06
4516.5, 4.3403e-06
4518.5, 4.1792e-06
4520.5, 4.5076e-06
4522.5, 4.4425e-06
4524.5, 4.541e-06
4526.5, 4.4796e-06
4528.5, 4.6851e-06
4530.5, 4.3475e-06
4532.5, 4.4204e-06
4534.5, 4.3811e-06
4536.5, 4.5213e-06
4538.5, 4.4562e-06
4540.5, 4.4455e-06
4542.5, 4.3874e-06
4544.5, 4.3251e-06
4546.5, 4.3226e-06
4548.5, 4.5334e-06
4550.5, 4.2691e-06
4552.5, 4.4006e-06
4554.5, 4.4989e-06
4556.6, 4.3394e-06
4558.6, 4.2807e-06
4560.6, 4.2344e-06
4562.6, 4.3465e-06
4564.6, 4.3115e-06
4566.6, 4.4844e-06
4568.6, 4.2934e-06
4570.6, 4.3762e-06
4572.6, 4.5678e-06
4574.6, 4.4011e-06
4576.6, 4.2691e-06
4578.6, 4.2054e-06
4580.6, 4.4731e-06
4582.6, 4.4248e-06
4584.6, 4.4879e-06
4586.6, 4.3876e-06
4588.6, 4.272e-06
4590.6, 4.3146e-06
4592.6, 4.3048e-06
4594.6, 4.2941e-06
4596.6, 4.2696e-06
4598.6, 4.0479e-06
4600.6, 4.3194e-06
4602.6, 4.3526e-06
4604.6, 4.3255e-06
4606.6, 4.694e-06
4608.6, 4.4395e-06
4610.6, 4.2602e-06
4612.6, 4.4345e-06
4614.6, 4.4784e-06
4616.6, 4.4553e-06
4618.6, 4.296e-06
4620.6, 4.367e-06
4622.6, 4.4666e-06
4624.6, 4.4684e-06
4626.6, 4.341e-06
4628.6, 4.5223e-06
4630.6, 4.2592e-06
4632.6, 4.471e-06
4634.6, 4.355e-06
4636.6, 4.4323e-06
4638.6, 4.3731e-06
4640.6, 4.1585e-06
4642.6, 4.4337e-06
4644.6, 4.097e-06
4646.6, 3.9769e-06
4648.6, 4.1189e-06
4650.6, 4.4457e-06
4652.6, 4.365e-06
4654.6, 4.3019e-06
4656.7, 5.7765e-07
4658.7, -2.02e-08
4660.7, -2.127e-08
4662.7, -2.327e-08
4664.7, -2.192e-08
4666.7, -2.261e-08
4668.7, -2.084e-08
4670.7, -2.167e-08
4672.7, -2.108e-08
4674.7, -2.437e-08
4676.7, -2.125e-08
4678.7, -2.236e-08
4680.7, -2.418e-08
4682.7, -2.637e-08
4684.7, -2.664e-08
4686.7, -2.297e-08
4688.7, -2.009e-08
4690.7, -2.667e-08
4692.7, -2.439e-08
4694.7, -2.57e-08
4696.7, -2.235e-08
4698.7, -2.703e-08
4700.7, -2.888e-08
4702.7, -3.125e-08
4704.7, -2.609e-08
4706.7, -2.802e-08
4708.7, -2.761e-08
4710.7, -2.647e-08
4712.7, -2.684e-08
4714.7, -2.422e-08
4716.7, -2.631e-08
4718.7, -2.575e-08
4720.7, -2.6e-08
4722.7, -2.817e-08
4724.7, -2.589e-08
4726.7, -2.513e-08
4728.7, -2.797e-08
4730.7, -2.766e-08
4732.7, -2.93e-08
4734.7, -2.941e-08
4736.7, -2.647e-08
4738.7, -2.55e-08
4740.7, -2.782e-08
4742.7, -2.544e-08
4744.7, -2.66e-08
4746.7, -2.745e-08
4748.7, -2.579e-08
4750.7, -2.748e-08
4752.7, -3.008e-08
4754.7, -2.397e-08
4756.8, -2.506e-08
4758.8, -2.807e-08
4760.8, -2.582e-08
4762.8, -3.057e-08
4764.8, -2.472e-08
4766.8, -2.518e-08
4768.8, -2.329e-08
4770.8, -2.553e-08
4772.8, -2.396e-08
4774.8, -2.555e-08
4776.8, -2.73e-08
4778.8, -2.765e-08
4780.8, -3.013e-08
4782.8, -3.104e-08
4784.8, -2.937e-08
4786.8, -3.007e-08
4788.8, -3.022e-08
4790.8, -2.776e-08
4792.8, -3.365e-08
4794.8, -3.134e-08
4796.8, -3.044e-08
4798.8, -2.799e-08
4800.8, -3.286e-08
4802.8, -3.045e-08
4804.8, -3.358e-08
4806.8, -3.147e-08
4808.8, -3.287e-08
4810.8, -3.012e-08
4812.8, -3.077e-08
4814.8, -2.945e-08
4816.8, -2.698e-08
4818.8, -2.793e-08
4820.8, -3.131e-08
4822.8, -2.944e-08
4824.8, -2.953e-08
4826.8, -2.734e-08
4828.8, -2.854e-08
4830.8, -2.821e-08
4832.8, -3.159e-08
4834.8, -2.695e-08
4836.8, -2.69e-08
4838.8, -2.646e-08
4840.8, -3.022e-08
4842.8, -2.679e-08
4844.8, -3.013e-08
4846.8, -2.922e-08
4848.8, -2.767e-08
4850.8, -3.169e-08
4852.8, -3.379e-08
4854.8, -3.131e-08
4856.9, -3.141e-08
4858.9, -3.242e-08
4860.9, -2.962e-08
4862.9, -3.139e-08
4864.9, -2.775e-08
4866.9, -2.627e-08
4868.9, -2.796e-08
4870.9, -3.097e-08
4872.9, -3.46e-08
4874.9, -2.877e-08
4876.9, -2.523e-08
4878.9, -3.272e-08
4880.9, -3.432e-08
4882.9, -3.373e-08
4884.9, -2.892e-08
4886.9, -2.812e-08
4888.9, -2.982e-08
4890.9, -3.119e-08
4892.9, -2.716e-08
4894.9, -2.975e-08
4896.9, -3.024e-08
4898.9, -2.924e-08
4900.9, -2.832e-08
4902.9, -2.819e-08
4904.9, -3.242e-08
4906.9, -3.291e-08
4908.9, -2.992e-08
4910.9, -2.981e-08
4912.9, -2.908e-08
4914.9, -2.918e-08
4916.9, -2.665e-08
4918.9, -2.819e-08
4920.9, -2.8e-08
4922.9, -2.853e-08
4924.9, -3.13e-08
4926.9, -2.894e-08
4928.9, -2.769e-08
4930.9, -3.055e-08
4932.9, -2.678e-08
4934.9, -2.619e-08
4936.9, -2.535e-08
4938.9, -2.816e-08
4940.9, -2.746e-08
4942.9, -2.988e-08
4944.9, -2.639e-08
4946.9, -2.779e-08
4948.9, -2.951e-08
4950.9, -3.005e-08
4952.9, -3.109e-08
4954.9, -3.167e-08
4957.0, -2.85e-08
4959.0, -2.949e-08
4961.0, -3.284e-08
4963.0, -2.93e-08
4965.0, -2.843e-08
4967.0, -2.997e-08
4969.0, -2.627e-08
4971.0, -2.767e-08
4973.0, -2.938e-08
4975.0, -2.988e-08
4977.0, -2.635e-08
4979.0, -2.532e-08
4981.0, -2.919e-08
4983.0, -2.964e-08
4985.0, -2.884e-08
4987.0, -2.604e-08
4989.0, -2.756e-08
4991.0, -2.563e-08
4993.0, -2.777e-08
4995.0, -3.126e-08
4997.0, -2.578e-08
4999.0, -3.049e-08
5001.0, -3.201e-08
5003.0, -3.053e-08
5005.0, -2.809e-08
5007.0, -3.16e-08
5009.0, -3.03e-08
5011.0, -2.84e-08
5013.0, -3.168e-08
5015.0, -2.975e-08
5017.0, -2.905e-08
5019.0, -2.889e-08
5021.0, -3.217e-08
5023.0, -3.122e-08
5025.0, -3.172e-08
5027.0, -3.239e-08
5029.0, -2.841e-08
5031.0, -3.241e-08
5033.0, -3.485e-08
5035.0, -3.434e-08
5037.0, -3.469e-08
5039.0, -3.161e-08
5041.0, -3.171e-08
5043.0, -3.155e-08
5045.0, -2.905e-08
5047.0, -2.609e-08
5049.0, -2.979e-08
5051.0, -3.2e-08
5053.0, -3.27e-08
5055.0, -3.142e-08
5057.1, -2.782e-08
5059.1, -2.925e-08
5061.1, -2.694e-08
5063.1, -2.995e-08
5065.1, -2.982e-08
5067.1, -3.363e-08
5069.1, -3.111e-08
5071.1, -3.387e-08
5073.1, -2.992e-08
5075.1, -3.328e-08
5077.1, -3.49e-08
5079.1, -3.261e-08
5081.1, -3.219e-08
5083.1, -3.104e-08
5085.1, -2.756e-08
5087.1, -2.884e-08
5089.1, -3.091e-08
5091.1, -2.802e-08
5093.1, -2.926e-08
5095.1, -3.002e-08
5097.1, -3.021e-08
5099.1, -3.444e-08
5101.1, -3.383e-08
5103.1, -3.313e-08
5105.1, -3.247e-08
5107.1, -3.011e-08
5109.1, -2.971e-08
5111.1, -3.21e-08
5113.1, -3.175e-08
5115.1, -3.139e-08
5117.1, -3.044e-08
5119.1, -3.176e-08
5121.1, -3.17e-08
5123.1, -3.445e-08
5125.1, -3.283e-08
5127.1, -3.195e-08
5129.1, -3.217e-08
5131.1, -3.108e-08
5133.1, -3.1e-08
5135.1, -3.32e-08
5137.1, -3.206e-08
5139.1, -2.697e-08
5141.1, -2.946e-08
5143.1, -3.034e-08
5145.1, -3.484e-08
5147.1, -3.348e-08
5149.1, -2.987e-08
5151.1, -3.141e-08
5153.1, -3.083e-08
5155.1, -3.087e-08
5157.2, -3.069e-08
5159.2, -3.121e-08
5161.2, -3.061e-08
5163.2, -3.16e-08
5165.2, -3.523e-08
5167.2, -3.611e-08
5169.2, -3.434e-08
5171.2, -3.201e-08
5173.2, -3.046e-08
5175.2, -3.157e-08
5177.2, -3.278e-08
5179.2, -3.172e-08
5181.2, -3.277e-08
5183.2, -3.377e-08
5185.2, -3.414e-08
5187.2, -3.32e-08
5189.2, -2.81e-08
5191.2, -2.964e-08
5193.2, -3.45e-08
5195.2, -2.829e-08
5197.2, -3.049e-08
5199.2, -3.009e-08
5201.2, -2.918e-08
5203.2, -2.706e-08
5205.2, -2.985e-08
5207.2, -3.353e-08
5209.2, -3.428e-08
5211.2, -3.211e-08
5213.2, -3.089e-08
5215.2, -2.789e-08
5217.2, -3.192e-08
5219.2, -3.173e-08
5221.2, -2.663e-08
5223.2, -3.053e-08
5225.2, -3.275e-08
5227.2, -3.234e-08
5229.2, -3.069e-08
5231.2, -3.277e-08
5233.2, -2.921e-08
5235.2, -3.284e-08
5237.2, -3.391e-08
5239.2, -3.075e-08
5241.2, -3.016e-08
5243.2, -3.267e-08
5245.2, -3.152e-08
5247.2, -3.409e-08
5249.2, -3.283e-08
5251.2, -3.298e-08
5253.2, -3.589e-08
5255.2, -3.29e-08
5257.3, -3.044e-08
5259.3, -3.038e-08
5261.3, -3.402e-08
5263.3, -3.258e-08
5265.3, -3.633e-08
5267.3, -3.072e-08
5269.3, -3.117e-08
5271.3, -3.156e-08
5273.3, -3.084e-08
5275.3, -3.3e-08
5277.3, -3.271e-08
5279.3, -3.145e-08
5281.3, -3.182e-08
5283.3, -2.878e-08
5285.3, -3.229e-08
5287.3, -2.785e-08
5289.3, -2.971e-08
5291.3, -3.261e-08
5293.3, -3.243e-08
5295.3, -3.315e-08
5297.3, -3.153e-08
5299.3, -3.026e-08
5301.3, -2.977e-08
5303.3, -3.058e-08
5305.3, -2.835e-08
5307.3, -2.69e-08
5309.3, -2.815e-08
5311.3, -2.798e-08
5313.3, -2.994e-08
5315.3, -3.147e-08
5317.3, -2.939e-08
5319.3, -3.082e-08
5321.3, -3.014e-08
5323.3, -3.017e-08
5325.3, -3.036e-08
5327.3, -2.951e-08
5329.3, -3.062e-08
5331.3, -3.219e-08
5333.3, -3.223e-08
5335.3, -2.792e-08
5337.3, -3.152e-08
5339.3, -3.509e-08
5341.3, -3.237e-08
5343.3, -3.058e-08
5345.3, -3.381e-08
5347.3, -3.318e-08
5349.3, -2.953e-08
5351.3, -3.138e-08
5353.3, -3.538e-08
5355.3, -3.542e-08
5357.4, -3.438e-08
5359.4, -3.194e-08
5361.4, -3.091e-08
5363.4, -3.183e-08
5365.4, -2.996e-08
5367.4, -2.975e-08
5369.4, -3.008e-08
5371.4, -3.053e-08
5373.4, -3.109e-08
5375.4, -3.153e-08
5377.4, -3.112e-08
5379.4, -3.134e-08
5381.4, -3.175e-08
5383.4, -3.198e-08
5385.4, -3.485e-08
5387.4, -3.365e-08
5389.4, -3.319e-08
5391.4, -3.445e-08
5393.4, -3.613e-08
5395.4, -3.176e-08
5397.4, -3.359e-08
5399.4, -3.443e-08
5401.4, -3.445e-08
5403.4, -3.746e-08
5405.4, -3.363e-08
5407.4, -3.243e-08
5409.4, -2.938e-08
5411.4, -3.072e-08
5413.4, -3.028e-08
5415.4, -3.267e-08
5417.4, -3.206e-08
5419.4, -3.521e-08
5421.4, -2.983e-08
5423.4, -3.194e-08
5425.4, -3.182e-08
5427.4, -3.165e-08
5429.4, -2.716e-08
5431.4, -3.221e-08
5433.4, -3.026e-08
5435.4, -3.593e-08
5437.4, -3.394e-08
5439.4, -3.414e-08
5441.4, -3.036e-08
5443.4, -3.306e-08
5445.4, -2.844e-08
5447.4, -3.454e-08
5449.4, -3.147e-08
5451.4, -3.19e-08
5453.4, -3.339e-08
5455.4, -3.431e-08
5457.5, -3.465e-08
5459.5, -3.309e-08
5461.5, -3.288e-08
5463.5, -2.917e-08
5465.5, -3.058e-08
5467.5, -3.249e-08
5469.5, -2.918e-08
5471.5, -2.944e-08
5473.5, -3.02e-08
5475.5, -3.002e-08
5477.5, -3.406e-08
5479.5, -3.428e-08
5481.5, -3.499e-08
5483.5, -3.231e-08
5485.5, -3.155e-08
5487.5, -3.362e-08
5489.5, -3.249e-08
5491.5, -3.462e-08
5493.5, -3.513e-08
5495.5, -3.509e-08
5497.5, -3.25e-08
5499.5, -3.587e-08
5501.5, -3.518e-08
5503.5, -3.759e-08
5505.5, -3.45e-08
5507.5, -3.524e-08
5509.5, -3.18e-08
5511.5, -3.241e-08
5513.5, -3.333e-08
5515.5, -3.512e-08
5517.5, -3.051e-08
5519.5, -3.266e-08
5521.5, -2.992e-08
5523.5, -2.823e-08
5525.5, -2.901e-08
5527.5, -2.862e-08
5529.5, -2.68e-08
5531.5, -2.93e-08
5533.5, -3.007e-08
5535.5, -3.173e-08
5537.5, -3.011e-08
5539.5, -2.818e-08
5541.5, -3.257e-08
5543.5, -3.396e-08
5545.5, -3.186e-08
5547.5, -3.193e-08
5549.5, -3.186e-08
5551.5, -3.083e-08
5553.5, -2.973e-08
5555.5, -2.918e-08
5557.6, -2.823e-08
5559.6, -3.007e-08
5561.6, -2.962e-08
5563.6, -2.857e-08
5565.6, -2.85e-08
5567.6, -2.879e-08
5569.6, -2.554e-08
5571.6, -2.764e-08
5573.6, -2.967e-08
5575.6, -3.114e-08
5577.6, -2.854e-08
5579.6, -3.032e-08
5581.6, -2.303e-08
5583.6, -3.262e-08
5585.6, -3.114e-08
5587.6, -2.912e-08
5589.6, -2.935e-08
5591.6, -2.9e-08
5593.6, -3.193e-08
5595.6, -3.601e-08
5597.6, -3.213e-08
5599.6, -3.051e-08
5601.6, -3.056e-08
5603.6, -2.912e-08
5605.6, -3.388e-08
5607.6, -3.046e-08
5609.6, -3.466e-08
5611.6, -2.757e-08
5613.6, -2.895e-08
5615.6, -3.298e-08
5617.6, -3.148e-08
5619.6, -3.419e-08
5621.6, -3.346e-08
5623.6, -2.918e-08
5625.6, -3.219e-08
5627.6, -3.116e-08
5629.6, -3.547e-08
5631.6, -2.989e-08
5633.6, -2.887e-08
5635.6, -3.191e-08
5637.6, -2.676e-08
5639.6, -3.103e-08
5641.6, -2.906e-08
5643.6, -3.154e-08
5645.6, -2.863e-08
5647.6, -2.969e-08
5649.6, -3.096e-08
5651.6, -2.997e-08
5653.6, -3.356e-08
5655.6, -3.049e-08
5657.7, -3.126e-08
5659.7, -2.924e-08
5661.7, -3.218e-08
5663.7, -3.242e-08
5665.7, -3.218e-08
5667.7, -3.301e-08
5669.7, -2.848e-08
5671.7, -3.445e-08
5673.7, -3.086e-08
5675.7, -3.387e-08
5677.7, -2.918e-08
5679.7, -2.661e-08
5681.7, -3.169e-08
5683.7, -3.072e-08
5685.7, -3.547e-08
5687.7, 2.1441e-06
5689.7, 3.7469e-06
5691.7, 3.884e-06
5693.7, 4.1913e-06
5695.7, 4.2356e-06
5697.7, 4.0557e-06
5699.7, 4.0247e-06
5701.7, 4.2665e-06
5703.7, 4.0564e-06
5705.7, 3.5064e-06
5707.7, 3.7813e-06
5709.7, 4.4094e-06
5711.7, 4.078e-06
5713.7, 4.0161e-06
5715.7, 3.9626e-06
5717.7, 4.1276e-06
5719.7, 4.2791e-06
5721.7, 4.2669e-06
5723.7, 3.6622e-06
5725.7, 4.1895e-06
5727.7, 4.2921e-06
5729.7, 3.9995e-06
5731.7, 3.8608e-06
5733.7, 3.9325e-06
5735.7, 4.1755e-06
5737.7, 4.234e-06
5739.7, 4.157e-06
5741.7, 3.6676e-06
5743.7, 4.356e-06
5745.7, 3.9812e-06
5747.7, 3.7176e-06
5749.7, 3.732e-06
5751.7, 4.0735e-06
5753.7, 4.2867e-06
5755.7, 4.0317e-06
5757.8, 4.1669e-06
5759.8, 4.2923e-06
5761.8, 4.0444e-06
5763.8, 3.3769e-06
5765.8, 4.239e-06
5767.8, 4.1934e-06
5769.8, 4.4119e-06
5771.8, 4.3594e-06
5773.8, 4.3409e-06
5775.8, 3.9204e-06
5777.8, 4.1492e-06
5779.8, 4.3072e-06
5781.8, 4.1922e-06
5783.8, 4.3314e-06
5785.8, 4.2211e-06
5787.8, 4.0361e-06
5789.8, 4.2742e-06
5791.8, 4.3024e-06
5793.8, 4.2582e-06
5795.8, 4.3894e-06
5797.8, 4.4688e-06
5799.8, 4.1863e-06
5801.8, 4.2909e-06
5803.8, 4.3948e-06
5805.8, 3.938e-06
5807.8, 4.1354e-06
5809.8, 3.7452e-06
5811.8, 4.111e-06
5813.8, 4.037e-06
5815.8, 4.3731e-06
5817.8, 4.3688e-06
5819.8, 4.2054e-06
5821.8, 4.2027e-06
5823.8, 3.9004e-06
5825.8, 4.0937e-06
5827.8, 4.382e-06
5829.8, 4.5675e-06
5831.8, 4.0483e-06
5833.8, 4.5165e-06
5835.8, 4.3907e-06
5837.8, 4.3087e-06
5839.8, 4.2399e-06
5841.8, 4.3778e-06
5843.8, 4.2227e-06
5845.8, 4.4522e-06
5847.8, 4.0299e-06
5849.8, 4.0467e-06
5851.8, 4.235e-06
5853.8, 4.3719e-06
5855.8, 4.0495e-06
5857.9, 4.1032e-06
5859.9, 4.4469e-06
5861.9, 4.273e-06
5863.9, 4.5379e-06
5865.9, 4.4344e-06
5867.9, 4.4735e-06
5869.9, 4.3949e-06
5871.9, 4.2745e-06
5873.9, 4.369e-06
5875.9, 4.1202e-06
5877.9, 4.4631e-06
5879.9, 4.3283e-06
5881.9, 4.2314e-06
5883.9, 4.0015e-06
5885.9, 4.1554e-06
5887.9, 4.0745e-06
5889.9, 4.5647e-06
5891.9, 4.3051e-06
5893.9, 4.5957e-06
5895.9, 4.4342e-06
5897.9, 4.3751e-06
5899.9, 4.1354e-06
5901.9, 4.4452e-06
5903.9, 4.0501e-06
5905.9, 4.359e-06
5907.9, 4.4863e-06
5909.9, 4.3291e-06
5911.9, 4.1329e-06
5913.9, 4.1864e-06
5915.9, 4.3488e-06
5917.9, 4.5857e-06
5919.9, 4.2258e-06
5921.9, 4.4963e-06
5923.9, 4.3878e-06
5925.9, 4.4549e-06
5927.9, 4.2178e-06
5929.9, 4.2067e-06
5931.9, 4.6248e-06
5933.9, 4.4637e-06
5935.9, 4.4271e-06
5937.9, 4.2568e-06
5939.9, 4.1617e-06
5941.9, 4.3539e-06
5943.9, 4.6223e-06
5945.9, 4.2726e-06
5947.9, 4.5497e-06
5949.9, 4.4842e-06
5951.9, 4.2015e-06
5953.9, 4.4838e-06
5955.9, 4.5237e-06
5958.0, 4.3585e-06
5960.0, 4.409e-06
5962.0, 4.5326e-06
5964.0, 4.2353e-06
5966.0, 4.4941e-06
5968.0, 4.3167e-06
5970.0, 4.4748e-06
5972.0, 4.5029e-06
5974.0, 4.4643e-06
5976.0, 4.535e-06
5978.0, 4.5568e-06
5980.0, 4.6527e-06
5982.0, 4.4758e-06
5984.0, 4.4987e-06
5986.0, 4.3312e-06
5988.0, 4.4542e-06
5990.0, 4.4013e-06
5992.0, 4.3029e-06
5994.0, 4.456e-06
5996.0, 4.6053e-06
5998.0, 4.6233e-06
6000.0, 4.2687e-06
6002.0, 4.2847e-06
6004.0, 4.4364e-06
6006.0, 4.4458e-06
6008.0, 4.1866e-06
6010.0, 4.548e-06
6012.0, 4.3776e-06
6014.0, 4.4585e-06
6016.0, 4.5185e-06
6018.0, 4.4785e-06
6020.0, 4.4054e-06
6022.0, 4.3723e-06
6024.0, 4.5714e-06
6026.0, 4.4522e-06
6028.0, 4.2372e-06
6030.0, 4.4657e-06
6032.0, 4.1011e-06
6034.0, 4.3125e-06
6036.0, 3.8882e-06
6038.0, 4.5432e-06
6040.0, 4.5845e-06
6042.0, 4.3785e-06
6044.0, 4.4756e-06
6046.0, 4.3807e-06
6048.0, 4.5511e-06
6050.0, 4.4648e-06
6052.0, 4.4457e-06
6054.0, 4.2846e-06
6056.0, 4.241e-06
6058.1, 4.2689e-06
6060.1, 4.4411e-06
6062.1, 4.4662e-06
6064.1, 4.2908e-06
6066.1, 4.4703e-06
6068.1, 4.3759e-06
6070.1, 4.4368e-06
6072.1, 4.6296e-06
6074.1, 4.3415e-06
6076.1, 4.2333e-06
6078.1, 4.5458e-06
6080.1, 4.4354e-06
6082.1, 4.1281e-06
6084.1, 4.1508e-06
6086.1, 4.4493e-06
6088.1, 4.3874e-06
6090.1, 4.2571e-06
6092.1, 4.3679e-06
6094.1, 4.4644e-06
6096.1, 4.36e-06
6098.1, 4.6813e-06
6100.1, 4.4152e-06
6102.1, 4.2919e-06
6104.1, 4.4646e-06
6106.1, 4.4984e-06
6108.1, 4.4789e-06
6110.1, 4.4157e-06
6112.1, 4.5016e-06
6114.1, 4.4389e-06
6116.1, 4.5439e-06
6118.1, 4.552e-06
6120.1, 4.1826e-06
6122.1, 4.4199e-06
6124.1, 4.2259e-06
6126.1, 4.4672e-06
6128.1, 4.3582e-06
6130.1, 4.2199e-06
6132.1, 4.614e-06
6134.1, 4.2628e-06
6136.1, 4.6564e-06
6138.1, 4.2264e-06
6140.1, 4.5236e-06
6142.1, 4.5461e-06
6144.1, 4.4599e-06
6146.1, 4.4354e-06
6148.1, 4.4169e-06
6150.1, 4.6648e-06
6152.1, 4.5002e-06
6154.1, 4.5669e-06
6156.1, 4.4113e-06
6158.2, 4.6567e-06
6160.2, 4.3645e-06
6162.2, 4.5065e-06
6164.2, 4.422e-06
6166.2, 4.3441e-06
6168.2, 4.1911e-06
6170.2, 4.4499e-06
6172.2, 4.4369e-06
6174.2, 4.6432e-06
6176.2, 4.5346e-06
6178.2, 4.4573e-06
6180.2, 4.6115e-06
6182.2, 4.175e-06
6184.2, 4.554e-06
6186.2, 4.3544e-06
6188.2, 4.3735e-06
6190.2, 4.4729e-06
6192.2, 4.2911e-06
6194.2, 4.6315e-06
6196.2, 4.5242e-06
6198.2, 4.6981e-06
6200.2, 4.6773e-06
6202.2, 4.7068e-06
6204.2, 4.4949e-06
6206.2, 4.4167e-06
6208.2, 4.4491e-06
6210.2, 4.0889e-06
6212.2, 4.5339e-06
6214.2, 4.4694e-06
6216.2, 4.3457e-06
6218.2, 4.3889e-06
6220.2, 4.1539e-06
6222.2, 4.2847e-06
6224.2, 4.4072e-06
6226.2, 4.6854e-06
6228.2, 4.3659e-06
6230.2, 4.2052e-06
6232.2, 4.5232e-06
6234.2, 4.5895e-06
6236.2, 4.545e-06
6238.2, 4.5657e-06
6240.2, 4.5535e-06
6242.2, 4.3711e-06
6244.2, 4.7387e-06
6246.2, 4.5783e-06
6248.2, 4.1578e-06
6250.2, 4.4367e-06
6252.2, 4.5037e-06
6254.2, 4.2805e-06
6256.2, 4.4685e-06
6258.3, 4.6303e-06
6260.3, 4.5623e-06
6262.3, 4.4386e-06
6264.3, 4.5203e-06
6266.3, 4.5635e-06
6268.3, 4.4064e-06
6270.3, 4.5063e-06
6272.3, 4.5137e-06
6274.3, 4.449e-06
6276.3, 4.5431e-06
6278.3, 4.6188e-06
6280.3, 4.5117e-06
6282.3, 4.2795e-06
6284.3, 4.4898e-06
6286.3, 4.5152e-06
6288.3, 4.5013e-06
6290.3, 4.1919e-06
6292.3, 4.5535e-06
6294.3, 4.5143e-06
6296.3, 4.4877e-06
6298.3, 4.4912e-06
6300.3, 4.5933e-06
6302.3, 4.5632e-06
6304.3, 4.3198e-06
6306.3, 4.6508e-06
6308.3, 4.5905e-06
6310.3, 4.3483e-06
6312.3, 4.5626e-06
6314.3, 4.1961e-06
6316.3, 3.9825e-06
6318.3, 4.5419e-06
6320.3, 4.5837e-06
6322.3, 4.4553e-06
6324.3, 4.5891e-06
6326.3, 4.3741e-06
6328.3, 4.3534e-06
6330.3, 4.4214e-06
6332.3, 4.475e-06
6334.3, 4.2327e-06
6336.3, 4.6188e-06
6338.3, 4.553e-06
6340.3, 4.5509e-06
6342.3, 4.3987e-06
6344.3, 4.2725e-06
6346.3, 4.5895e-06
6348.3, 4.6521e-06
6350.3, 4.4845e-06
6352.3, 4.4909e-06
6354.3, 4.365e-06
6356.3, 4.6164e-06
6358.4, 4.4636e-06
6360.4, 4.4954e-06
6362.4, 4.6694e-06
6364.4, 4.5925e-06
6366.4, 4.2855e-06
6368.4, 4.1589e-06
6370.4, 4.3395e-06
6372.4, 4.5386e-06
6374.4, 4.6116e-06
6376.4, 4.4078e-06
6378.4, 4.5658e-06
6380.4, 4.6539e-06
6382.4, 4.5188e-06
6384.4, 4.2066e-06
6386.4, 4.4327e-06
6388.4, 4.4981e-06
6390.4, 4.4676e-06
6392.4, 4.4539e-06
6394.4, 4.6348e-06
6396.4, 4.6685e-06
6398.4, 4.7184e-06
6400.4, 4.5714e-06
6402.4, 4.3648e-06
6404.4, 4.6122e-06
6406.4, 4.4697e-06
6408.4, 4.5666e-06
6410.4, 4.4074e-06
6412.4, 4.4836e-06
6414.4, 4.4059e-06
6416.4, 4.5031e-06
6418.4, 4.3177e-06
6420.4, 4.5882e-06
6422.4, 4.7223e-06
6424.4, 4.2312e-06
6426.4, 4.2969e-06
6428.4, 4.5672e-06
6430.4, 4.6005e-06
6432.4, 4.7256e-06
6434.4, 4.4805e-06
6436.4, 4.4309e-06
6438.4, 4.6297e-06
6440.4, 4.6204e-06
6442.4, 4.6189e-06
6444.4, 4.6021e-06
6446.4, 4.7075e-06
6448.4, 4.5443e-06
6450.4, 4.5341e-06
6452.4, 4.4647e-06
6454.4, 4.3364e-06
6456.4, 4.6946e-06
6458.5, 4.6026e-06
6460.5, 4.5689e-06
6462.5, 4.6804e-06
6464.5, 4.3791e-06
6466.5, 4.5658e-06
6468.5, 4.2781e-06
6470.5, 4.4336e-06
6472.5, 4.3561e-06
6474.5, 4.3495e-06
6476.5, 4.5086e-06
6478.5, 4.5636e-06
6480.5, 4.5139e-06
6482.5, 4.4558e-06
6484.5, 4.5163e-06
6486.5, 4.4455e-06
6488.5, 4.5228e-06
6490.5, 4.5342e-06
6492.5, 4.6745e-06
6494.5, 4.6611e-06
6496.5, 4.467e-06
6498.5, 4.6302e-06
6500.5, 4.5159e-06
6502.5, 4.6574e-06
6504.5, 4.5604e-06
6506.5, 4.7026e-06
6508.5, 4.558e-06
6510.5, 4.449e-06
6512.5, 4.6249e-06
6514.5, 4.4637e-06
6516.5, 4.5614e-06
6518.5, 4.4617e-06
6520.5, 4.2592e-06
6522.5, 4.4116e-06
6524.5, 4.3195e-06
6526.5, 4.3154e-06
6528.5, 4.437e-06
6530.5, 4.4813e-06
6532.5, 4.68e-06
6534.5, 4.5695e-06
6536.5, 4.7138e-06
6538.5, 4.3626e-06
6540.5, 4.6269e-06
6542.5, 4.5068e-06
6544.5, 4.7322e-06
6546.5, 4.5158e-06
6548.5, 4.134e-06
6550.5, 4.6174e-06
6552.5, 4.486e-06
6554.5, 4.5556e-06
6556.5, 4.6421e-06
6558.6, 4.4899e-06
6560.6, 4.6209e-06
6562.6, 4.5463e-06
6564.6, 4.4487e-06
6566.6, 4.5352e-06
6568.6, 4.4142e-06
6570.6, 4.5403e-06
6572.6, 4.5767e-06
6574.6, 4.6887e-06
6576.6, 4.5273e-06
6578.6, 4.3253e-06
6580.6, 4.5377e-06
6582.6, 4.4368e-06
6584.6, 4.605e-06
6586.6, 4.4478e-06
6588.6, 4.7561e-06
6590.6, 4.4115e-06
6592.6, 4.4815e-06
6594.6, 4.5842e-06
6596.6, 4.6707e-06
6598.6, 4.4671e-06
6600.6, 4.5522e-06
6602.6, 4.3287e-06
6604.6, 4.3084e-06
6606.6, 4.2366e-06
6608.6, 4.2718e-06
6610.6, 4.4252e-06
6612.6, 4.6632e-06
6614.6, 4.352e-06
6616.6, 4.2158e-06
6618.6, 4.4155e-06
6620.6, 4.423e-06
6622.6, 4.2744e-06
6624.6, 4.6408e-06
6626.6, 4.4971e-06
6628.6, 4.814e-06
6630.6, 4.7616e-06
6632.6, 4.6654e-06
6634.6, 4.3535e-06
6636.6, 4.5429e-06
6638.6, 4.2518e-06
6640.6, 4.5281e-06
6642.6, 4.6033e-06
6644.6, 4.7013e-06
6646.6, 4.4832e-06
6648.6, 4.2933e-06
6650.6, 4.4933e-06
6652.6, 4.5342e-06
6654.6, 4.4789e-06
6656.6, 4.7162e-06
6658.7, 4.4639e-06
6660.7, 4.5756e-06
6662.7, 4.5629e-06
6664.7, 4.6107e-06
6666.7, 4.4824e-06
6668.7, 4.3335e-06
6670.7, 4.5945e-06
6672.7, 4.5578e-06
6674.7, 4.6332e-06
6676.7, 4.2356e-06
6678.7, 4.6663e-06
6680.7, 4.3199e-06
6682.7, 4.5135e-06
6684.7, 4.5327e-06
6686.7, 4.5019e-06
6688.7, 2.0554e-06
6690.7, -3.03e-08
6692.7, -3.446e-08
6694.7, -3.063e-08
6696.7, -3.159e-08
6698.7, -3.158e-08
6700.7, -3.174e-08
6702.7, -3.269e-08
6704.7, -3.492e-08
6706.7, -3.022e-08
6708.7, -2.897e-08
6710.7, -2.977e-08
6712.7, -3.29e-08
6714.7, -3.048e-08
6716.7, -3.032e-08
6718.7, -3.099e-08
6720.7, -3.237e-08
6722.7, -3.448e-08
6724.7, -3.508e-08
6726.7, -3.601e-08
6728.7, -3.34e-08
6730.7, -3.538e-08
6732.7, -3.708e-08
6734.7, -3.221e-08
6736.7, -3.34e-08
6738.7, -3.638e-08
6740.7, -3.121e-08
6742.7, -3.488e-08
6744.7, -3.627e-08
6746.7, -3.552e-08
6748.7, -3.638e-08
6750.7, -3.472e-08
6752.7, -3.661e-08
6754.7, -3.514e-08
6756.7, -3.83e-08
6758.8, -3.357e-08
6760.8, -3.006e-08
6762.8, -3.509e-08
6764.8, -3.553e-08
6766.8, -3.503e-08
6768.8, -3.294e-08
6770.8, -3.338e-08
6772.8, -3.186e-08
6774.8, -2.922e-08
6776.8, -3.201e-08
6778.8, -3.188e-08
6780.8, -3.293e-08
6782.8, -3.458e-08
6784.8, -3.22e-08
6786.8, -3.439e-08
6788.8, -3.327e-08
6790.8, -3.56e-08
6792.8, -3.335e-08
6794.8, -3.047e-08
6796.8, -3.424e-08
6798.8, -3.432e-08
6800.8, -3.662e-08
6802.8, -3.727e-08
6804.8, -3.386e-08
6806.8, -3.721e-08
6808.8, -3.783e-08
6810.8, -3.28e-08
6812.8, -3.404e-08
6814.8, -3.314e-08
6816.8, -3.23e-08
6818.8, -3.598e-08
6820.8, -3.368e-08
6822.8, -3.512e-08
6824.8, -3.618e-08
6826.8, -3.609e-08
6828.8, -3.387e-08
6830.8, -3.477e-08
6832.8, -3.313e-08
6834.8, -3.334e-08
6836.8, -3.869e-08
6838.8, -3.618e-08
6840.8, -3.823e-08
6842.8, -3.823e-08
6844.8, -3.425e-08
6846.8, -3.66e-08
6848.8, -3.426e-08
6850.8, -3.541e-08
6852.8, -3.529e-08
6854.8, -3.417e-08
6856.8, -3.313e-08
6858.9, -3.394e-08
6860.9, -3.218e-08
6862.9, -3.411e-08
6864.9, -3.285e-08
6866.9, -3.115e-08
6868.9, -3.133e-08
6870.9, -3.139e-08
6872.9, -3.05e-08
6874.9, -3.198e-08
6876.9, -3.918e-08
6878.9, -3.498e-08
6880.9, -3.737e-08
6882.9, -3.809e-08
6884.9, -4.048e-08
6886.9, -3.679e-08
6888.9, -3.787e-08
6890.9, -3.564e-08
6892.9, -3.875e-08
6894.9, -3.712e-08
6896.9, -4.023e-08
6898.9, -4.08e-08
6900.9, -4.249e-08
6902.9, -4.171e-08
6904.9, -4.05e-08
6906.9, -3.969e-08
6908.9, -3.782e-08
6910.9, -3.852e-08
6912.9, -3.812e-08
6914.9, -3.874e-08
6916.9, -3.779e-08
6918.9, -3.549e-08
6920.9, -3.571e-08
6922.9, -3.737e-08
6924.9, -3.611e-08
6926.9, -4.116e-08
6928.9, -3.904e-08
6930.9, -3.684e-08
6932.9, -3.471e-08
6934.9, -3.598e-08
6936.9, -3.658e-08
6938.9, -3.653e-08
6940.9, -3.348e-08
6942.9, -3.762e-08
6944.9, -3.855e-08
6946.9, -3.567e-08
6948.9, -3.662e-08
6950.9, -3.416e-08
6952.9, -3.472e-08
6954.9, -3.297e-08
6956.9, -3.603e-08
6959.0, -3.367e-08
6961.0, -3.58e-08
6963.0, -3.578e-08
6965.0, -3.217e-08
6967.0, -3.72e-08
6969.0, -3.532e-08
6971.0, -3.584e-08
6973.0, -3.52e-08
6975.0, -3.609e-08
6977.0, -3.476e-08
6979.0, -3.658e-08
6981.0, -3.54e-08
6983.0, -3.399e-08
6985.0, -3.414e-08
6987.0, -3.538e-08
6989.0, -3.041e-08
6991.0, -3.135e-08
6993.0, -3.274e-08
6995.0, -3.229e-08
6997.0, -3.232e-08
6999.0, -3.295e-08
7001.0, -3.24e-08
7003.0, -3.248e-08
7005.0, -3.537e-08
7007.0, -3.201e-08
7009.0, -3.194e-08
7011.0, -3.335e-08
7013.0, -3.108e-08
7015.0, -3.049e-08
7017.0, -3.199e-08
7019.0, -3.252e-08
7021.0, -3.284e-08
7023.0, -3.318e-08
7025.0, -3.448e-08
7027.0, -3.376e-08
7029.0, -3.232e-08
7031.0, -3.257e-08
7033.0, -3.106e-08
7035.0, -3.718e-08
7037.0, -3.827e-08
7039.0, -3.455e-08
7041.0, -3.403e-08
7043.0, -3.471e-08
7045.0, -3.168e-08
7047.0, -3.232e-08
7049.0, -3.45e-08
7051.0, -3.237e-08
7053.0, -3.175e-08
7055.0, -3.271e-08
7057.0, -3.046e-08
7059.1, -3.231e-08
7061.1, -2.871e-08
7063.1, -3.459e-08
7065.1, -3.32e-08
7067.1, -3.634e-08
7069.1, -3.153e-08
7071.1, -3.261e-08
7073.1, -3.524e-08
7075.1, -3.323e-08
7077.1, -2.997e-08
7079.1, -3.272e-08
7081.1, -3.068e-08
7083.1, -3.369e-08
7085.1, -2.894e-08
7087.1, -3.582e-08
7089.1, -3.376e-08
7091.1, -3.246e-08
7093.1, -3.102e-08
7095.1, -3.219e-08
7097.1, -3.356e-08
7099.1, -3.334e-08
7101.1, -3.18e-08
7103.1, -3.071e-08
7105.1, -3.051e-08
7107.1, -3.074e-08
7109.1, -3.026e-08
7111.1, -2.899e-08
7113.1, -3.045e-08
7115.1, -2.85e-08
7117.1, -3.181e-08
7119.1, -3.116e-08
7121.1, -3.492e-08
7123.1, -3.04e-08
7125.1, -3.149e-08
7127.1, -3.103e-08
7129.1, -3.178e-08
7131.1, -2.909e-08
7133.1, -3.495e-08
7135.1, -3.338e-08
7137.1, -3.27e-08
7139.1, -2.962e-08
7141.1, -3.228e-08
7143.1, -3.478e-08
7145.1, -3.188e-08
7147.1, -3.399e-08
7149.1, -3.314e-08
7151.1, -3.18e-08
7153.1, -3.053e-08
7155.1, -3.706e-08
7157.1, -3.308e-08
7159.2, -3.233e-08
7161.2, -3.401e-08
7163.2, -3.639e-08
7165.2, -3.242e-08
7167.2, -3.283e-08
7169.2, -3.25e-08
7171.2, -3.346e-08
7173.2, -3.388e-08
7175.2, -3.336e-08
7177.2, -3.134e-08
7179.2, -3.033e-08
7181.2, -3.134e-08
7183.2, -3.049e-08
7185.2, -3.476e-08
7187.2, -3.321e-08
7189.2, -3.646e-08
7191.2, -3.417e-08
7193.2, -3.524e-08
7195.2, -3.585e-08
7197.2, -3.781e-08
7199.2, -3.85e-08
7201.2, -3.858e-08
7203.2, -3.714e-08
7205.2, -3.592e-08
7207.2, -3.74e-08
7209.2, -3.519e-08
7211.2, -3.599e-08
7213.2, -3.507e-08
7215.2, -3.55e-08
7217.2, -3.324e-08
7219.2, -3.35e-08
7221.2, -3.634e-08
7223.2, -3.68e-08
7225.2, -3.912e-08
7227.2, -3.643e-08
7229.2, -3.82e-08
7231.2, -3.606e-08
7233.2, -3.558e-08
7235.2, -4.118e-08
7237.2, -4.058e-08
7239.2, -3.708e-08
7241.2, -3.817e-08
7243.2, -3.497e-08
7245.2, -3.431e-08
7247.2, -3.381e-08
7249.2, -3.698e-08
7251.2, -4.026e-08
7253.2, -4.265e-08
7255.2, -3.421e-08
7257.2, -3.351e-08
7259.3, -3.492e-08
7261.3, -3.795e-08
7263.3, -3.544e-08
7265.3, -3.858e-08
7267.3, -3.911e-08
7269.3, -3.761e-08
7271.3, -3.439e-08
7273.3, -3.385e-08
7275.3, -3.414e-08
7277.3, -3.52e-08
7279.3, -3.716e-08
7281.3, -3.407e-08
7283.3, -3.523e-08
7285.3, -3.459e-08
7287.3, -3.7e-08
7289.3, -3.627e-08
7291.3, -3.639e-08
7293.3, -3.478e-08
7295.3, -3.632e-08
7297.3, -3.559e-08
7299.3, -3.479e-08
7301.3, -3.461e-08
7303.3, -3.521e-08
7305.3, -3.426e-08
7307.3, -3.094e-08
7309.3, -3.425e-08
7311.3, -3.422e-08
7313.3, -3.522e-08
7315.3, -3.578e-08
7317.3, -3.316e-08
7319.3, -3.404e-08
7321.3, -3.651e-08
7323.3, -3.555e-08
7325.3, -3.745e-08
7327.3, -3.545e-08
7329.3, -3.842e-08
7331.3, -3.375e-08
7333.3, -3.932e-08
7335.3, -3.294e-08
7337.3, -3.762e-08
7339.3, -3.715e-08
7341.3, -3.73e-08
7343.3, -3.812e-08
7345.3, -3.681e-08
7347.3, -3.787e-08
7349.3, -3.666e-08
7351.3, -3.682e-08
7353.3, -3.416e-08
7355.3, -3.526e-08
7357.3, -3.545e-08
7359.4, -3.214e-08
7361.4, -3.328e-08
7363.4, -3.363e-08
7365.4, -3.398e-08
7367.4, -3.092e-08
7369.4, -3.623e-08
7371.4, -3.495e-08
7373.4, -3.614e-08
7375.4, -4.228e-08
7377.4, -3.823e-08
7379.4, -3.911e-08
7381.4, -3.982e-08
7383.4, -3.605e-08
7385.4, -3.671e-08
7387.4, -3.636e-08
7389.4, -3.921e-08
7391.4, -3.633e-08
7393.4, -3.785e-08
7395.4, -3.778e-08
7397.4, -3.72e-08
7399.4, -3.64e-08
7401.4, -3.098e-08
7403.4, -3.617e-08
7405.4, -3.485e-08
7407.4, -3.479e-08
7409.4, -3.555e-08
7411.4, -3.401e-08
7413.4, -3.568e-08
7415.4, -4.058e-08
7417.4, -3.946e-08
7419.4, -3.401e-08
7421.4, -3.635e-08
7423.4, -3.654e-08
7425.4, -3.506e-08
7427.4, -3.738e-08
7429.4, -3.416e-08
7431.4, -3.88e-08
7433.4, -3.761e-08
7435.4, -3.546e-08
7437.4, -3.761e-08
7439.4, -3.707e-08
7441.4, -3.925e-08
7443.4, -3.898e-08
7445.4, -3.98e-08
7447.4, -3.88e-08
7449.4, -3.428e-08
7451.4, -3.609e-08
7453.4, -3.822e-08
7455.4, -4.09e-08
7457.4, -4.117e-08
7459.5, -3.73e-08
7461.5, -3.566e-08
7463.5, -3.687e-08
7465.5, -3.893e-08
7467.5, -3.702e-08
7469.5, -3.904e-08
7471.5, -3.99e-08
7473.5, -3.804e-08
7475.5, -4.019e-08
7477.5, -3.882e-08
7479.5, -3.973e-08
7481.5, -3.97e-08
7483.5, -4.223e-08
7485.5, -3.878e-08
7487.5, -3.712e-08
7489.5, -3.635e-08
7491.5, -3.765e-08
7493.5, -3.446e-08
7495.5, -3.615e-08
7497.5, -3.719e-08
7499.5, -3.768e-08
7501.5, -3.729e-08
7503.5, -3.548e-08
7505.5, -3.844e-08
7507.5, -3.748e-08
7509.5, -3.571e-08
7511.5, -3.219e-08
7513.5, -3.425e-08
7515.5, -3.665e-08
7517.5, -3.623e-08
7519.5, -3.524e-08
7521.5, -3.704e-08
7523.5, -3.56e-08
7525.5, -3.494e-08
7527.5, -3.318e-08
7529.5, -3.569e-08
7531.5, -3.394e-08
7533.5, -3.64e-08
7535.5, -3.766e-08
7537.5, -3.667e-08
7539.5, -3.803e-08
7541.5, -3.867e-08
7543.5, -4.069e-08
7545.5, -3.666e-08
7547.5, -4.053e-08
7549.5, -3.795e-08
7551.5, -3.498e-08
7553.5, -4.08e-08
7555.5, -3.884e-08
7557.5, -3.764e-08
7559.6, -3.945e-08
7561.6, -3.891e-08
7563.6, -3.575e-08
7565.6, -3.725e-08
7567.6, -3.724e-08
7569.6, -3.945e-08
7571.6, -3.376e-08
7573.6, -3.022e-08
7575.6, -3.704e-08
7577.6, -3.774e-08
7579.6, -3.247e-08
7581.6, -3.423e-08
7583.6, -3.465e-08
7585.6, -3.632e-08
7587.6, -3.517e-08
7589.6, -3.154e-08
7591.6, -3.159e-08
7593.6, -3.446e-08
7595.6, -3.802e-08
7597.6, -4.015e-08
7599.6, -3.889e-08
7601.6, -3.611e-08
7603.6, -3.776e-08
7605.6, -3.895e-08
7607.6, -3.577e-08
7609.6, -3.561e-08
7611.6, -3.545e-08
7613.6, -3.899e-08
7615.6, -3.766e-08
7617.6, -3.383e-08
7619.6, -3.654e-08
7621.6, -3.536e-08
7623.6, -3.592e-08
7625.6, -3.82e-08
7627.6, -3.737e-08
7629.6, -3.579e-08
7631.6, -3.547e-08
7633.6, -3.389e-08
7635.6, -3.841e-08
7637.6, -3.454e-08
7639.6, -3.16e-08
7641.6, -3.263e-08
7643.6, -3.36e-08
7645.6, -3.384e-08
7647.6, -3.492e-08
7649.6, -3.496e-08
7651.6, -3.366e-08
7653.6, -3.659e-08
7655.6, -3.688e-08
7657.6, -3.875e-08
7659.7, -3.304e-08
7661.7, -3.207e-08
7663.7, -3.476e-08
7665.7, -3.233e-08
7667.7, -3.511e-08
7669.7, -3.508e-08
7671.7, -3.542e-08
7673.7, -3.867e-08
7675.7, -3.644e-08
7677.7, -3.639e-08
7679.7, -3.681e-08
7681.7, -3.438e-08
7683.7, -3.837e-08
7685.7, -3.733e-08
7687.7, -3.749e-08
7689.7, -3.624e-08
7691.7, -3.594e-08
7693.7, -3.397e-08
7695.7, -3.771e-08
7697.7, -3.83e-08
7699.7, -3.598e-08
7701.7, -3.587e-08
7703.7, -3.393e-08
7705.7, -3.712e-08
7707.7, -3.509e-08
7709.7, -3.246e-08
7711.7, -3.724e-08
7713.7, -3.747e-08
7715.7, -3.552e-08
7717.7, -3.546e-08
7719.7, 2.1368e-06
7721.7, 3.7936e-06
7723.7, 3.9327e-06
7725.7, 3.9457e-06
7727.7, 4.0533e-06
7729.7, 4.1777e-06
7731.7, 3.8815e-06
7733.7, 4.3008e-06
7735.7, 4.3435e-06
7737.7, 4.3782e-06
7739.7, 3.9766e-06
7741.7, 4.0612e-06
7743.7, 4.2058e-06
7745.7, 4.1043e-06
7747.7, 4.1286e-06
7749.7, 4.2954e-06
7751.7, 4.19e-06
7753.7, 4.1346e-06
7755.7, 4.0447e-06
7757.7, 4.5528e-06
7759.8, 4.2973e-06
7761.8, 4.227e-06
7763.8, 4.2116e-06
7765.8, 3.9393e-06
7767.8, 4.3217e-06
7769.8, 4.3361e-06
7771.8, 4.1522e-06
7773.8, 4.1611e-06
7775.8, 3.9977e-06
7777.8, 4.0606e-06
7779.8, 4.2507e-06
7781.8, 4.3435e-06
7783.8, 4.1073e-06
7785.8, 4.0262e-06
7787.8, 4.3841e-06
7789.8, 4.157e-06
7791.8, 4.4473e-06
7793.8, 4.3125e-06
7795.8, 4.5157e-06
7797.8, 4.2515e-06
7799.8, 4.1647e-06
7801.8, 4.5033e-06
7803.8, 4.4527e-06
7805.8, 4.4239e-06
7807.8, 4.2766e-06
7809.8, 4.1022e-06
7811.8, 4.4931e-06
7813.8, 4.2003e-06
7815.8, 4.1957e-06
7817.8, 4.0331e-06
7819.8, 4.3078e-06
7821.8, 4.1729e-06
7823.8, 4.2577e-06
7825.8, 4.3247e-06
7827.8, 4.2237e-06
7829.8, 4.4607e-06
7831.8, 4.5318e-06
7833.8, 4.3118e-06
7835.8, 4.1504e-06
7837.8, 4.2797e-06
7839.8, 4.2537e-06
7841.8, 4.2875e-06
7843.8, 4.2762e-06
7845.8, 4.3588e-06
7847.8, 4.4348e-06
7849.8, 4.5506e-06
7851.8, 4.2643e-06
7853.8, 4.3631e-06
7855.8, 4.1636e-06
7857.8, 4.1481e-06
7859.9, 4.2209e-06
7861.9, 4.2503e-06
7863.9, 4.2301e-06
7865.9, 4.4591e-06
7867.9, 4.5978e-06
7869.9, 4.3817e-06
7871.9, 4.2874e-06
7873.9, 4.3388e-06
7875.9, 4.3662e-06
7877.9, 4.2053e-06
7879.9, 4.4228e-06
7881.9, 4.3814e-06
7883.9, 4.1864e-06
7885.9, 4.2839e-06
7887.9, 4.4148e-06
7889.9, 4.2586e-06
7891.9, 4.4408e-06
7893.9, 4.4223e-06
7895.9, 4.3812e-06
7897.9, 4.4186e-06
7899.9, 4.1123e-06
7901.9, 4.3511e-06
7903.9, 4.2141e-06
7905.9, 4.4965e-06
7907.9, 4.2343e-06
7909.9, 4.4694e-06
7911.9, 4.4588e-06
7913.9, 4.3317e-06
7915.9, 4.5004e-06
7917.9, 4.4161e-06
7919.9, 4.2274e-06
7921.9, 4.3059e-06
7923.9, 4.5091e-06
7925.9, 4.4883e-06
7927.9, 4.7229e-06
7929.9, 4.5492e-06
7931.9, 4.5205e-06
7933.9, 4.5461e-06
7935.9, 4.7239e-06
7937.9, 4.442e-06
7939.9, 4.4406e-06
7941.9, 4.2443e-06
7943.9, 4.45e-06
7945.9, 4.4931e-06
7947.9, 4.5189e-06
7949.9, 4.294e-06
7951.9, 4.4687e-06
7953.9, 4.3433e-06
7955.9, 4.6163e-06
7957.9, 4.3194e-06
7960.0, 4.2563e-06
7962.0, 4.5459e-06
7964.0, 4.5623e-06
7966.0, 4.3063e-06
7968.0, 4.4864e-06
7970.0, 4.4196e-06
7972.0, 4.598e-06
7974.0, 4.6581e-06
7976.0, 4.4155e-06
7978.0, 4.6618e-06
7980.0, 4.5507e-06
7982.0, 4.4695e-06
7984.0, 4.428e-06
7986.0, 4.2811e-06
7988.0, 4.5998e-06
7990.0, 4.543e-06
7992.0, 4.3715e-06
7994.0, 4.4374e-06
7996.0, 4.3489e-06
7998.0, 4.2649e-06
8000.0, 4.6869e-06
8002.0, 4.2527e-06
8004.0, 4.4639e-06
8006.0, 4.6909e-06
8008.0, 4.5361e-06
8010.0, 4.4779e-06
8012.0, 4.4288e-06
8014.0, 4.3645e-06
8016.0, 4.6386e-06
8018.0, 4.4906e-06
8020.0, 4.5664e-06
8022.0, 4.5555e-06
8024.0, 4.556e-06
8026.0, 4.601e-06
8028.0, 4.6356e-06
8030.0, 4.5879e-06
8032.0, 4.514e-06
8034.0, 4.4278e-06
8036.0, 4.3363e-06
8038.0, 4.3559e-06
8040.0, 4.5686e-06
8042.0, 4.5714e-06
8044.0, 4.3312e-06
8046.0, 4.406e-06
8048.0, 4.567e-06
8050.0, 4.6019e-06
8052.0, 4.5453e-06
8054.0, 4.5171e-06
8056.0, 4.4902e-06
8058.0, 4.5203e-06
8060.1, 4.68e-06
8062.1, 4.6024e-06
8064.1, 4.5352e-06
8066.1, 4.3729e-06
8068.1, 4.3845e-06
8070.1, 4.334e-06
8072.1, 4.6517e-06
8074.1, 4.4902e-06
8076.1, 4.6604e-06
8078.1, 4.6535e-06
8080.1, 4.5934e-06
8082.1, 4.3378e-06
8084.1, 4.5859e-06
8086.1, 4.1674e-06
8088.1, 4.7268e-06
8090.1, 4.3365e-06
8092.1, 4.2941e-06
8094.1, 4.525e-06
8096.1, 4.6511e-06
8098.1, 4.5583e-06
8100.1, 4.6229e-06
8102.1, 4.6903e-06
8104.1, 4.5119e-06
8106.1, 4.4995e-06
8108.1, 4.3329e-06
8110.1, 4.5667e-06
8112.1, 4.5626e-06
8114.1, 4.7512e-06
8116.1, 4.4709e-06
8118.1, 4.6753e-06
8120.1, 4.5168e-06
8122.1, 4.388e-06
8124.1, 4.4576e-06
8126.1, 4.5268e-06
8128.1, 4.218e-06
8130.1, 4.3611e-06
8132.1, 4.4875e-06
8134.1, 4.4836e-06
8136.1, 4.6751e-06
8138.1, 4.5756e-06
8140.1, 4.5493e-06
8142.1, 4.5444e-06
8144.1, 4.4556e-06
8146.1, 4.4913e-06
8148.1, 4.6893e-06
8150.1, 4.4538e-06
8152.1, 4.5149e-06
8154.1, 4.6011e-06
8156.1, 4.4814e-06
8158.1, 4.4608e-06
8160.2, 4.5785e-06
8162.2, 4.5859e-06
8164.2, 4.3265e-06
8166.2, 4.718e-06
8168.2, 4.4789e-06
8170.2, 4.6203e-06
8172.2, 4.686e-06
8174.2, 4.5525e-06
8176.2, 4.4761e-06
8178.2, 4.5878e-06
8180.2, 4.6221e-06
8182.2, 4.4519e-06
8184.2, 4.5721e-06
8186.2, 4.5039e-06
8188.2, 4.3941e-06
8190.2, 4.6702e-06
8192.2, 4.4877e-06
8194.2, 4.4038e-06
8196.2, 4.6158e-06
8198.2, 4.3577e-06
8200.2, 4.5952e-06
8202.2, 4.5869e-06
8204.2, 4.5051e-06
8206.2, 4.5835e-06
8208.2, 4.4528e-06
8210.2, 4.2478e-06
8212.2, 4.5995e-06
8214.2, 4.4323e-06
8216.2, 4.6937e-06
8218.2, 4.5125e-06
8220.2, 4.3931e-06
8222.2, 4.5112e-06
8224.2, 4.7974e-06
8226.2, 4.532e-06
8228.2, 4.5308e-06
8230.2, 4.6998e-06
8232.2, 4.853e-06
8234.2, 4.4817e-06
8236.2, 4.4139e-06
8238.2, 4.5341e-06
8240.2, 4.6305e-06
8242.2, 4.3977e-06
8244.2, 4.6733e-06
8246.2, 4.6839e-06
8248.2, 4.3608e-06
8250.2, 4.63e-06
8252.2, 4.6223e-06
8254.2, 4.6947e-06
8256.2, 4.5354e-06
8258.2, 4.5002e-06
8260.3, 4.3754e-06
8262.3, 4.6116e-06
8264.3, 4.4127e-06
8266.3, 4.5764e-06
8268.3, 4.6114e-06
8270.3, 4.3328e-06
8272.3, 4.5848e-06
8274.3, 4.7233e-06
8276.3, 4.4017e-06
8278.3, 4.6015e-06
8280.3, 4.6152e-06
8282.3, 4.6762e-06
8284.3, 4.5282e-06
8286.3, 4.4472e-06
8288.3, 4.7709e-06
8290.3, 4.5433e-06
8292.3, 4.565e-06
8294.3, 4.684e-06
8296.3, 4.488e-06
8298.3, 4.3418e-06
8300.3, 4.5512e-06
8302.3, 4.3851e-06
8304.3, 4.5531e-06
8306.3, 4.6314e-06
8308.3, 4.7085e-06
8310.3, 4.0284e-06
8312.3, 4.4034e-06
8314.3, 4.7284e-06
8316.3, 4.4221e-06
8318.3, 4.4275e-06
8320.3, 4.6039e-06
8322.3, 4.5602e-06
8324.3, 4.3391e-06
8326.3, 4.7201e-06
8328.3, 4.6914e-06
8330.3, 4.6283e-06
8332.3, 4.3222e-06
8334.3, 4.7535e-06
8336.3, 4.5769e-06
8338.3, 4.5702e-06
8340.3, 4.4834e-06
8342.3, 4.7221e-06
8344.3, 4.6102e-06
8346.3, 4.5318e-06
8348.3, 4.4071e-06
8350.3, 4.4697e-06
8352.3, 4.4498e-06
8354.3, 4.5881e-06
8356.3, 4.5356e-06
8358.3, 4.6157e-06
8360.4, 4.2101e-06
8362.4, 4.5077e-06
8364.4, 4.5198e-06
8366.4, 4.5274e-06
8368.4, 4.1553e-06
8370.4, 4.6117e-06
8372.4, 4.5357e-06
8374.4, 4.5042e-06
8376.4, 4.5815e-06
8378.4, 4.5124e-06
8380.4, 4.5573e-06
8382.4, 4.4882e-06
8384.4, 4.4472e-06
8386.4, 4.7071e-06
8388.4, 4.2869e-06
8390.4, 4.4122e-06
8392.4, 4.7815e-06
8394.4, 4.7602e-06
8396.4, 4.5356e-06
8398.4, 4.4779e-06
8400.4, 4.7884e-06
8402.4, 4.4089e-06
8404.4, 4.82e-06
8406.4, 4.4829e-06
8408.4, 4.3101e-06
8410.4, 4.5365e-06
8412.4, 4.7043e-06
8414.4, 4.3942e-06
8416.4, 4.4317e-06
8418.4, 4.2438e-06
8420.4, 4.5948e-06
8422.4, 4.7475e-06
8424.4, 4.7e-06
8426.4, 4.4433e-06
8428.4, 4.3727e-06
8430.4, 4.5745e-06
8432.4, 4.4115e-06
8434.4, 4.5294e-06
8436.4, 4.588e-06
8438.4, 4.5791e-06
8440.4, 4.5983e-06
8442.4, 4.5852e-06
8444.4, 4.4387e-06
8446.4, 4.3033e-06
8448.4, 4.5513e-06
8450.4, 4.6061e-06
8452.4, 4.5401e-06
8454.4, 4.4932e-06
8456.4, 4.5596e-06
8458.4, 4.4519e-06
8460.5, 4.4043e-06
8462.5, 4.5318e-06
8464.5, 4.6017e-06
8466.5, 4.5214e-06
8468.5, 4.5747e-06
8470.5, 4.504e-06
8472.5, 4.5578e-06
8474.5, 4.6755e-06
8476.5, 4.4147e-06
8478.5, 4.5048e-06
8480.5, 4.4774e-06
8482.5, 4.5027e-06
8484.5, 4.6002e-06
8486.5, 4.4726e-06
8488.5, 4.654e-06
8490.5, 4.5548e-06
8492.5, 4.4908e-06
8494.5, 4.4993e-06
8496.5, 4.5341e-06
8498.5, 4.5459e-06
8500.5, 4.5313e-06
8502.5, 4.5624e-06
8504.5, 4.6287e-06
8506.5, 4.5471e-06
8508.5, 4.4654e-06
8510.5, 4.4549e-06
8512.5, 4.6923e-06
8514.5, 4.6998e-06
8516.5, 4.3759e-06
8518.5, 4.4589e-06
8520.5, 4.5964e-06
8522.5, 4.6809e-06
8524.5, 4.6347e-06
8526.5, 4.2063e-06
8528.5, 4.7813e-06
8530.5, 4.4072e-06
8532.5, 4.7201e-06
8534.5, 4.389e-06
8536.5, 4.6204e-06
8538.5, 4.6257e-06
8540.5, 4.5671e-06
8542.5, 4.8065e-06
8544.5, 4.5435e-06
8546.5, 4.4743e-06
8548.5, 4.664e-06
8550.5, 4.5008e-06
8552.5, 4.5323e-06
8554.5, 4.4557e-06
8556.5, 4.2542e-06
8558.5, 4.321e-06
8560.6, 4.7696e-06
8562.6, 4.5483e-06
8564.6, 4.4993e-06
8566.6, 4.531e-06
8568.6, 4.6295e-06
8570.6, 4.5837e-06
8572.6, 4.7522e-06
8574.6, 4.5769e-06
8576.6, 4.4618e-06
8578.6, 4.7802e-06
8580.6, 4.441e-06
8582.6, 4.402e-06
8584.6, 4.5892e-06
8586.6, 4.6785e-06
8588.6, 4.6275e-06
8590.6, 4.5391e-06
8592.6, 4.7292e-06
8594.6, 4.5312e-06
8596.6, 4.6027e-06
8598.6, 4.548e-06
8600.6, 4.7523e-06
8602.6, 4.5033e-06
8604.6, 4.666e-06
8606.6, 4.6394e-06
8608.6, 4.5577e-06
8610.6, 4.6648e-06
8612.6, 4.4725e-06
8614.6, 4.4407e-06
8616.6, 4.6317e-06
8618.6, 4.2439e-06
8620.6, 4.4167e-06
8622.6, 4.6064e-06
8624.6, 4.301e-06
8626.6, 4.7178e-06
8628.6, 4.6587e-06
8630.6, 4.5361e-06
8632.6, 4.4216e-06
8634.6, 4.5013e-06
8636.6, 4.5924e-06
8638.6, 4.4767e-06
8640.6, 4.5328e-06
8642.6, 4.4759e-06
8644.6, 4.5661e-06
8646.6, 4.6224e-06
8648.6, 4.4853e-06
8650.6, 4.6275e-06
8652.6, 4.6176e-06
8654.6, 4.3768e-06
8656.6, 4.2756e-06
8658.6, 4.4556e-06
8660.7, 4.5619e-06
8662.7, 4.324e-06
8664.7, 4.4758e-06
8666.7, 4.7087e-06
8668.7, 4.4258e-06
8670.7, 4.5766e-06
8672.7, 4.5994e-06
8674.7, 4.7216e-06
8676.7, 4.564e-06
8678.7, 4.7889e-06
8680.7, 4.3324e-06
8682.7, 4.5202e-06
8684.7, 4.6115e-06
8686.7, 4.5763e-06
8688.7, 4.3871e-06
8690.7, 4.4321e-06
8692.7, 4.534e-06
8694.7, 4.5927e-06
8696.7, 4.4658e-06
8698.7, 4.7713e-06
8700.7, 4.4064e-06
8702.7, 4.3914e-06
8704.7, 4.4273e-06
8706.7, 4.5766e-06
8708.7, 4.4858e-06
8710.7, 4.7073e-06
8712.7, 4.4717e-06
8714.7, 4.4635e-06
8716.7, 4.5944e-06
8718.7, 4.6528e-06
8720.7, 2.3482e-06
8722.7, -2.393e-08
8724.7, -2.834e-08
8726.7, -2.853e-08
8728.7, -2.816e-08
8730.7, -2.785e-08
8732.7, -2.923e-08
8734.7, -2.869e-08
8736.7, -2.947e-08
8738.7, -3.27e-08
8740.7, -3.199e-08
8742.7, -2.865e-08
8744.7, -3.364e-08
8746.7, -3.149e-08
8748.7, -3.156e-08
8750.7, -3.141e-08
8752.7, -3.211e-08
8754.7, -3.202e-08
8756.7, -3.065e-08
8758.7, -3.182e-08
8760.8, -3.018e-08
8762.8, -3.138e-08
8764.8, -3.112e-08
8766.8, -3.159e-08
8768.8, -3.324e-08
8770.8, -3.304e-08
8772.8, -3.09e-08
8774.8, -2.953e-08
8776.8, -2.781e-08
8778.8, -2.909e-08
8780.8, -3.44e-08
8782.8, -3.408e-08
8784.8, -3.374e-08
8786.8, -3.517e-08
8788.8, -3.484e-08
8790.8, -3.474e-08
8792.8, -3.324e-08
8794.8, -3.346e-08
8796.8, -3.654e-08
8798.8, -3.545e-08
8800.8, -3.104e-08
8802.8, -3.454e-08
8804.8, -3.205e-08
8806.8, -3.251e-08
8808.8, -3.32e-08
8810.8, -3.119e-08
8812.8, -3.233e-08
8814.8, -3.106e-08
8816.8, -3.337e-08
8818.8, -3.315e-08
8820.8, -3.241e-08
8822.8, -3.116e-08
8824.8, -3.169e-08
8826.8, -3.088e-08
8828.8, -3.264e-08
8830.8, -3.183e-08
8832.8, -3.077e-08
8834.8, -3.19e-08
8836.8, -3.089e-08
8838.8, -3.222e-08
8840.8, -3.551e-08
8842.8, -3.523e-08
8844.8, -3.29e-08
8846.8, -3.329e-08
8848.8, -3.106e-08
8850.8, -2.981e-08
8852.8, -3.041e-08
8854.8, -3.13e-08
8856.8, -3.279e-08
8858.8, -3.212e-08
8860.9, -3.313e-08
8862.9, -3.495e-08
8864.9, -3.236e-08
8866.9, -3.626e-08
8868.9, -3.222e-08
8870.9, -3.501e-08
8872.9, -3.725e-08
8874.9, -3.562e-08
8876.9, -3.694e-08
8878.9, -3.381e-08
8880.9, -3.492e-08
8882.9, -3.661e-08
8884.9, -3.727e-08
8886.9, -3.505e-08
8888.9, -3.338e-08
8890.9, -3.455e-08
8892.9, -3.382e-08
8894.9, -3.437e-08
8896.9, -3.351e-08
8898.9, -3.604e-08
8900.9, -3.854e-08
8902.9, -3.273e-08
8904.9, -3.72e-08
8906.9, -3.711e-08
8908.9, -3.692e-08
8910.9, -3.431e-08
8912.9, -3.57e-08
8914.9, -3.047e-08
8916.9, -3.221e-08
8918.9, -3.491e-08
8920.9, -3.06e-08
8922.9, -2.966e-08
8924.9, -3.134e-08
8926.9, -3.399e-08
8928.9, -3.313e-08
8930.9, -3.307e-08
8932.9, -3.102e-08
8934.9, -3.038e-08
8936.9, -2.903e-08
8938.9, -2.985e-08
8940.9, -2.945e-08
8942.9, -3.11e-08
8944.9, -3.158e-08
8946.9, -3.056e-08
8948.9, -3.281e-08
8950.9, -3.314e-08
8952.9, -2.732e-08
8954.9, -3.285e-08
8956.9, -3.206e-08
8958.9, -3.388e-08
8961.0, -3.288e-08
8963.0, -3.097e-08
8965.0, -3.76e-08
8967.0, -3.338e-08
8969.0, -3.177e-08
8971.0, -3.574e-08
8973.0, -3.264e-08
8975.0, -3.357e-08
8977.0, -3.337e-08
8979.0, -3.553e-08
8981.0, -3.221e-08
8983.0, -3.04e-08
8985.0, -3.371e-08
8987.0, -3.434e-08
8989.0, -3.148e-08
8991.0, -2.871e-08
8993.0, -3.184e-08
8995.0, -2.985e-08
8997.0, -3.082e-08
8999.0, -2.925e-08
9001.0, -3.08e-08
9003.0, -3.115e-08
9005.0, -3.526e-08
9007.0, -3.258e-08
9009.0, -3.299e-08
9011.0, -3.395e-08
9013.0, -2.898e-08
9015.0, -3.094e-08
9017.0, -3.044e-08
9019.0, -3.159e-08
9021.0, -3.463e-08
9023.0, -3.477e-08
9025.0, -3.247e-08
9027.0, -3.057e-08
9029.0, -3.232e-08
9031.0, -3.441e-08
9033.0, -3.466e-08
9035.0, -3.319e-08
9037.0, -3.169e-08
9039.0, -3.51e-08
9041.0, -3.399e-08
9043.0, -3.683e-08
9045.0, -3.591e-08
9047.0, -3.765e-08
9049.0, -3.819e-08
9051.0, -3.306e-08
9053.0, -3.676e-08
9055.0, -3.269e-08
9057.0, -3.178e-08
9059.0, -3.584e-08
9061.1, -3.496e-08
9063.1, -3.197e-08
9065.1, -3.483e-08
9067.1, -3.79e-08
9069.1, -3.588e-08
9071.1, -3.068e-08
9073.1, -3.14e-08
9075.1, -3.188e-08
9077.1, -3.017e-08
9079.1, -3.172e-08
9081.1, -3.73e-08
9083.1, -3.093e-08
9085.1, -3.506e-08
9087.1, -3.419e-08
9089.1, -3.289e-08
9091.1, -3.387e-08
9093.1, -3.134e-08
9095.1, -3.581e-08
9097.1, -3.104e-08
9099.1, -3.426e-08
9101.1, -3.301e-08
9103.1, -3.172e-08
9105.1, -3.035e-08
9107.1, -3.389e-08
9109.1, -3.501e-08
9111.1, -3.114e-08
9113.1, -3.376e-08
9115.1, -3.683e-08
9117.1, -3.335e-08
9119.1, -3.343e-08
9121.1, -3.202e-08
9123.1, -3.131e-08
9125.1, -3.314e-08
9127.1, -3.101e-08
9129.1, -3.044e-08
9131.1, -3.27e-08
9133.1, -3.524e-08
9135.1, -3.114e-08
9137.1, -3.139e-08
9139.1, -3.098e-08
9141.1, -3.213e-08
9143.1, -2.979e-08
9145.1, -2.84e-08
9147.1, -2.869e-08
9149.1, -2.893e-08
9151.1, -2.953e-08
9153.1, -2.752e-08
9155.1, -2.906e-08
9157.1, -3.312e-08
9159.1, -3.264e-08
9161.2, -3.285e-08
9163.2, -3.554e-08
9165.2, -3.797e-08
9167.2, -3.296e-08
9169.2, -3.723e-08
9171.2, -3.351e-08
9173.2, -3.485e-08
9175.2, -3.266e-08
9177.2, -3.441e-08
9179.2, -3.417e-08
9181.2, -2.757e-08
9183.2, -3.051e-08
9185.2, -3.584e-08
9187.2, -3.609e-08
9189.2, -3.6e-08
9191.2, -3.841e-08
9193.2, -3.192e-08
9195.2, -3.181e-08
9197.2, -3.245e-08
9199.2, -3.016e-08
9201.2, -3.251e-08
9203.2, -3.173e-08
9205.2, -3.267e-08
9207.2, -3.415e-08
9209.2, -3.307e-08
9211.2, -3.313e-08
9213.2, -3.146e-08
9215.2, -3.191e-08
9217.2, -3.368e-08
9219.2, -3.076e-08
9221.2, -3.067e-08
9223.2, -3.189e-08
9225.2, -3.467e-08
9227.2, -3.319e-08
9229.2, -3.334e-08
9231.2, -3.318e-08
9233.2, -3.361e-08
9235.2, -3.16e-08
9237.2, -3.29e-08
9239.2, -3.281e-08
9241.2, -3.4e-08
9243.2, -3.419e-08
9245.2, -3.316e-08
9247.2, -3.222e-08
9249.2, -3.302e-08
9251.2, -3.291e-08
9253.2, -3.213e-08
9255.2, -2.973e-08
9257.2, -3.197e-08
9259.2, -2.659e-08
9261.3, -2.724e-08
9263.3, -3.285e-08
9265.3, -3.043e-08
9267.3, -3.204e-08
9269.3, -3.21e-08
9271.3, -3.441e-08
9273.3, -3.161e-08
9275.3, -3.26e-08
9277.3, -3.502e-08
9279.3, -3.094e-08
9281.3, -2.775e-08
9283.3, -2.88e-08
9285.3, -3.159e-08
9287.3, -3.359e-08
9289.3, -3.179e-08
9291.3, -3.346e-08
9293.3, -2.846e-08
9295.3, -3.195e-08
9297.3, -3.229e-08
9299.3, -3.327e-08
9301.3, -3.358e-08
9303.3, -3.476e-08
9305.3, -3.616e-08
9307.3, -3.619e-08
9309.3, -3.313e-08
9311.3, -3.35e-08
9313.3, -3.133e-08
9315.3, -3.628e-08
9317.3, -3.599e-08
9319.3, -3.653e-08
9321.3, -3.457e-08
9323.3, -3.59e-08
9325.3, -3.634e-08
9327.3, -3.154e-08
9329.3, -3.545e-08
9331.3, -3.282e-08
9333.3, -3.194e-08
9335.3, -3.273e-08
9337.3, -3.525e-08
9339.3, -3.589e-08
9341.3, -3.284e-08
9343.3, -2.87e-08
9345.3, -3.148e-08
9347.3, -2.897e-08
9349.3, -3.023e-08
9351.3, -3.194e-08
9353.3, -2.847e-08
9355.3, -2.922e-08
9357.3, -3.275e-08
9359.3, -2.702e-08
9361.4, -2.87e-08
9363.4, -2.992e-08
9365.4, -2.815e-08
9367.4, -3.016e-08
9369.4, -3.311e-08
9371.4, -3.165e-08
9373.4, -3.374e-08
9375.4, -3.182e-08
9377.4, -3.308e-08
9379.4, -3.2e-08
9381.4, -2.971e-08
9383.4, -3.041e-08
9385.4, -3.457e-08
9387.4, -3.358e-08
9389.4, -3.185e-08
9391.4, -3.005e-08
9393.4, -3.236e-08
9395.4, -3.088e-08
9397.4, -2.932e-08
9399.4, -2.859e-08
9401.4, -3.22e-08
9403.4, -3.139e-08
9405.4, -3.068e-08
9407.4, -2.84e-08
9409.4, -3.164e-08
9411.4, -2.979e-08
9413.4, -3.029e-08
9415.4, -3.146e-08
9417.4, -2.819e-08
9419.4, -2.953e-08
9421.4, -3.313e-08
9423.4, -3.04e-08
9425.4, -3.032e-08
9427.4, -2.907e-08
9429.4, -3.121e-08
9431.4, -2.776e-08
9433.4, -2.777e-08
9435.4, -2.608e-08
9437.4, -2.985e-08
9439.4, -2.915e-08
9441.4, -3.001e-08
9443.4, -3.095e-08
9445.4, -3.211e-08
9447.4, -3.071e-08
9449.4, -3.12e-08
9451.4, -3.041e-08
9453.4, -3.048e-08
9455.4, -3.2e-08
9457.4, -3.302e-08
9459.4, -2.931e-08
9461.5, -3.263e-08
9463.5, -3.191e-08
9465.5, -2.902e-08
9467.5, -2.819e-08
9469.5, -2.568e-08
9471.5, -3.174e-08
9473.5, -2.843e-08
9475.5, -3.095e-08
9477.5, -2.913e-08
9479.5, -2.803e-08
9481.5, -2.719e-08
9483.5, -2.816e-08
9485.5, -3.073e-08
9487.5, -3.153e-08
9489.5, -3.352e-08
9491.5, -3.46e-08
9493.5, -3.238e-08
9495.5, -3.442e-08
9497.5, -3.348e-08
9499.5, -3.354e-08
9501.5, -3.493e-08
9503.5, -2.987e-08
9505.5, -3.163e-08
9507.5, -3.049e-08
9509.5, -3.185e-08
9511.5, -3.358e-08
9513.5, -3.024e-08
9515.5, -2.571e-08
9517.5, -2.826e-08
9519.5, -2.9e-08
9521.5, -2.76e-08
9523.5, -2.639e-08
9525.5, -2.981e-08
9527.5, -3.228e-08
9529.5, -3.052e-08
9531.5, -3.51e-08
9533.5, -3.392e-08
9535.5, -3.431e-08
9537.5, -3.385e-08
9539.5, -3.147e-08
9541.5, -3.152e-08
9543.5, -3.046e-08
9545.5, -2.74e-08
9547.5, -3.097e-08
9549.5, -3.236e-08
9551.5, -3.3e-08
9553.5, -3.067e-08
9555.5, -3.049e-08
9557.5, -3.337e-08
9559.5, -3.11e-08
9561.6, -2.96e-08
9563.6, -3.284e-08
9565.6, -2.963e-08
9567.6, -2.922e-08
9569.6, -2.929e-08
9571.6, -2.7e-08
9573.6, -2.855e-08
9575.6, -3.024e-08
9577.6, -3.229e-08
9579.6, -3.007e-08
9581.6, -2.898e-08
9583.6, -3.06e-08
9585.6, -3.159e-08
9587.6, -2.981e-08
9589.6, -3.167e-08
9591.6, -2.828e-08
9593.6, -2.897e-08
9595.6, -3.389e-08
9597.6, -3.206e-08
9599.6, -3.242e-08
9601.6, -3.085e-08
9603.6, -2.879e-08
9605.6, -2.895e-08
9607.6, -3.088e-08
9609.6, -2.911e-08
9611.6, -2.931e-08
9613.6, -2.862e-08
9615.6, -2.776e-08
9617.6, -2.791e-08
9619.6, -3.167e-08
9621.6, -2.988e-08
9623.6, -3.086e-08
9625.6, -3.286e-08
9627.6, -3.133e-08
9629.6, -3.372e-08
9631.6, -3.081e-08
9633.6, -3.196e-08
9635.6, -2.97e-08
9637.6, -2.809e-08
9639.6, -3.472e-08
9641.6, -3.324e-08
9643.6, -3.225e-08
9645.6, -3.145e-08
9647.6, -3.328e-08
9649.6, -3.305e-08
9651.6, -3.06e-08
9653.6, -3.233e-08
9655.6, -3.121e-08
9657.6, -3.415e-08
9659.6, -3.237e-08
9661.7, -3.203e-08
9663.7, -3.142e-08
9665.7, -2.962e-08
9667.7, -3.298e-08
9669.7, -3.27e-08
9671.7, -2.934e-08
9673.7, -3.375e-08
9675.7, -3.14e-08
9677.7, -3.2e-08
9679.7, -3.111e-08
9681.7, -3.226e-08
9683.7, -3.151e-08
9685.7, -3.399e-08
9687.7, -3.45e-08
9689.7, -3.413e-08
9691.7, -3.157e-08
9693.7, -2.669e-08
9695.7, -2.969e-08
9697.7, -3.103e-08
9699.7, -2.893e-08
9701.7, -3.073e-08
9703.7, -3.015e-08
9705.7, -3.396e-08
9707.7, -3.36e-08
9709.7, -3.39e-08
9711.7, -3.205e-08
9713.7, -2.907e-08
9715.7, -3.233e-08
9717.7, -3.068e-08
9719.7, -3.056e-08
9721.7, -2.763e-08
9723.7, -2.897e-08
9725.7, -3.187e-08
9727.7, -3.032e-08
9729.7, -2.905e-08
9731.7, -2.957e-08
9733.7, -3.305e-08
9735.7, -3.127e-08
9737.7, -3.005e-08
9739.7, -3.178e-08
9741.7, -2.765e-08
9743.7, -3.188e-08
9745.7, -3.019e-08
9747.7, -3.568e-08
9749.7, -3.357e-08
9751.7, -3.312e-08
9753.7, -3.23e-08
9755.7, -3.134e-08
9757.7, -3.224e-08
9759.7, -3.078e-08
9761.8, -3.159e-08
9763.8, -3.214e-08
9765.8, -3.441e-08
9767.8, -3.023e-08
9769.8, -3.421e-08
9771.8, -3.314e-08
9773.8, -3e-08
9775.8, -3.083e-08
9777.8, -3.103e-08
9779.8, -3.047e-08
9781.8, -2.834e-08
9783.8, -2.485e-08
9785.8, -2.809e-08
9787.8, -3.094e-08
9789.8, 2.1861e-06
9791.8, 4.017e-06
9793.8, 4.0038e-06
9795.8, 4.1048e-06
9797.8, 4.0295e-06
9799.8, 4.0237e-06
9801.8, 4.1172e-06
9803.8, 4.0116e-06
9805.8, 4.5073e-06
9807.8, 3.9573e-06
9809.8, 4.311e-06
9811.8, 4.232e-06
9813.8, 4.3045e-06
9815.8, 4.1212e-06
9817.8, 4.4137e-06
9819.8, 4.2542e-06
9821.8, 3.9367e-06
9823.8, 3.9881e-06
9825.8, 3.9966e-06
9827.8, 3.9837e-06
9829.8, 3.8676e-06
9831.8, 4.144e-06
9833.8, 4.3592e-06
9835.8, 4.5722e-06
9837.8, 4.3215e-06
9839.8, 4.5866e-06
9841.8, 4.4583e-06
9843.8, 4.3782e-06
9845.8, 4.3428e-06
9847.8, 4.0958e-06
9849.8, 4.2491e-06
9851.8, 4.0781e-06
9853.8, 4.0092e-06
9855.8, 4.315e-06
9857.8, 4.4119e-06
9859.8, 4.3063e-06
9861.9, 4.307e-06
9863.9, 4.0083e-06
9865.9, 4.0301e-06
9867.9, 4.3377e-06
9869.9, 4.1446e-06
9871.9, 4.2842e-06
9873.9, 4.2232e-06
9875.9, 4.2059e-06
9877.9, 4.1325e-06
9879.9, 4.1239e-06
9881.9, 4.3907e-06
9883.9, 4.3466e-06
9885.9, 4.2295e-06
9887.9, 3.7534e-06
9889.9, 4.3329e-06
9891.9, 4.0737e-06
9893.9, 4.4044e-06
9895.9, 3.8272e-06
9897.9, 4.2749e-06
9899.9, 4.0965e-06
9901.9, 4.1673e-06
9903.9, 4.5096e-06
9905.9, 4.4446e-06
9907.9, 4.3591e-06
9909.9, 4.6148e-06
9911.9, 4.247e-06
9913.9, 4.0222e-06
9915.9, 4.3591e-06
9917.9, 4.5693e-06
9919.9, 4.471e-06
9921.9, 4.4446e-06
9923.9, 4.3596e-06
9925.9, 4.4691e-06
9927.9, 4.5473e-06
9929.9, 4.3338e-06
9931.9, 4.4422e-06
9933.9, 4.2991e-06
9935.9, 4.2825e-06
9937.9, 4.3344e-06
9939.9, 4.1827e-06
9941.9, 4.198e-06
9943.9, 4.3542e-06
9945.9, 4.1932e-06
9947.9, 4.1877e-06
9949.9, 4.5888e-06
9951.9, 4.3041e-06
9953.9, 4.3909e-06
9955.9, 4.1031e-06
9957.9, 4.3575e-06
9959.9, 4.2351e-06
9962.0, 4.1976e-06
9964.0, 4.4917e-06
9966.0, 4.5628e-06
9968.0, 4.1797e-06
9970.0, 4.5392e-06
9972.0, 4.4539e-06
9974.0, 4.4172e-06
9976.0, 4.1383e-06
9978.0, 4.1622e-06
9980.0, 4.4211e-06
9982.0, 3.9946e-06
9984.0, 4.3375e-06
9986.0, 4.2104e-06
9988.0, 4.317e-06
9990.0, 4.4963e-06
9992.0, 4.0802e-06
9994.0, 4.4039e-06
9996.0, 3.9744e-06
9998.0, 4.1557e-06
10000.0, 4.4627e-06
10002.0, 4.4974e-06
10004.0, 4.4867e-06
10006.0, 4.4493e-06
10008.0, 4.4039e-06
10010.0, 4.5429e-06
10012.0, 4.3382e-06
10014.0, 4.7212e-06
10016.0, 4.3753e-06
10018.0, 4.4029e-06
10020.0, 4.4685e-06
10022.0, 4.3327e-06
10024.0, 4.603e-06
10026.0, 4.4012e-06
10028.0, 4.5906e-06
10030.0, 4.7104e-06
10032.0, 4.5127e-06
10034.0, 4.3971e-06
10036.0, 4.5397e-06
10038.0, 4.4017e-06
10040.0, 4.4945e-06
10042.0, 4.3563e-06
10044.0, 4.5212e-06
10046.0, 4.5569e-06
10048.0, 4.6419e-06
10050.0, 4.3301e-06
10052.0, 4.8096e-06
10054.0, 4.3395e-06
10056.0, 4.4115e-06
10058.0, 4.4279e-06
10060.0, 4.3569e-06
10062.0, 4.2525e-06
10064.0, 4.5479e-06
10066.0, 4.3947e-06
10068.0, 4.588e-06
10070.0, 4.4126e-06
10072.0, 4.4391e-06
10074.0, 4.1633e-06
10076.0, 4.5401e-06
10078.0, 4.2827e-06
10080.0, 4.5457e-06
10082.0, 4.6117e-06
10084.0, 4.5841e-06
10086.0, 4.3229e-06
10088.0, 4.1218e-06
10090.0, 4.607e-06
10092.0, 4.6506e-06
10094.0, 4.5923e-06
10096.0, 4.4433e-06
10098.0, 4.567e-06
10100.0, 4.3998e-06
10102.0, 4.5358e-06
10104.0, 4.3254e-06
10106.0, 4.4165e-06
10108.0, 4.2978e-06
10110.0, 4.5558e-06
10112.0, 4.5228e-06
10114.0, 4.5828e-06
10116.0, 4.5774e-06
10118.0, 4.2202e-06
10120.0, 4.5263e-06
10122.0, 4.5116e-06
10124.0, 4.4797e-06
10126.0, 4.7156e-06
10128.0, 4.5068e-06
10130.0, 4.5141e-06
10132.0, 4.4771e-06
10134.0, 4.6934e-06
10136.0, 4.5036e-06
10138.0, 4.6498e-06
10140.0, 4.4302e-06
10142.0, 4.67e-06
10144.0, 4.5878e-06
10146.0, 4.4039e-06
10148.0, 4.4559e-06
10150.0, 4.4953e-06
10152.0, 4.515e-06
10154.0, 4.4025e-06
10156.0, 4.2218e-06
10158.0, 4.6512e-06
10160.0, 4.2002e-06
10162.0, 4.3107e-06
10164.0, 4.4474e-06
10166.0, 4.2663e-06
10168.0, 4.6556e-06
10170.0, 4.2085e-06
10172.0, 3.9229e-06
10174.0, 4.5607e-06
10176.0, 4.6063e-06
10178.0, 4.4358e-06
10180.0, 4.4791e-06
10182.0, 4.486e-06
10184.0, 4.7502e-06
10186.0, 4.4937e-06
10188.0, 4.5334e-06
10190.0, 4.6237e-06
10192.0, 4.5948e-06
10194.0, 4.3414e-06
10196.0, 4.4619e-06
10198.0, 4.3882e-06
10200.0, 4.3193e-06
10202.0, 4.0422e-06
10204.0, 4.3903e-06
10206.0, 4.2667e-06
10208.0, 4.2853e-06
10210.0, 4.3897e-06
10212.0, 4.307e-06
10214.0, 4.5082e-06
10216.0, 4.3491e-06
10218.0, 4.6691e-06
10220.0, 4.619e-06
10222.0, 4.4956e-06
10224.0, 4.6713e-06
10226.0, 4.447e-06
10228.0, 4.1918e-06
10230.0, 4.458e-06
10232.0, 4.6512e-06
10234.0, 4.5244e-06
10236.0, 4.5354e-06
10238.0, 4.4086e-06
10240.0, 4.5251e-06
10242.0, 4.5151e-06
10244.0, 4.6394e-06
10246.0, 4.5367e-06
10248.0, 4.4439e-06
10250.0, 4.6912e-06
10252.0, 4.4363e-06
10254.0, 4.4178e-06
10256.0, 4.2121e-06
10258.0, 4.5455e-06
10260.0, 4.1684e-06
10262.0, 4.5173e-06
10264.0, 4.3672e-06
10266.0, 4.5423e-06
10268.0, 4.688e-06
10270.0, 4.439e-06
10272.0, 4.6261e-06
10274.0, 4.5738e-06
10276.0, 4.4266e-06
10278.0, 4.4447e-06
10280.0, 4.1656e-06
10282.0, 4.3542e-06
10284.0, 4.7234e-06
10286.0, 4.4845e-06
10288.0, 4.4338e-06
10290.0, 4.5623e-06
10292.0, 4.4782e-06
10294.0, 4.4128e-06
10296.0, 4.5983e-06
10298.0, 4.6377e-06
10300.0, 4.511e-06
10302.0, 4.5367e-06
10304.0, 4.5953e-06
10306.0, 4.5523e-06
10308.0, 4.5662e-06
10310.0, 4.6242e-06
10312.0, 4.463e-06
10314.0, 4.5403e-06
10316.0, 4.4913e-06
10318.0, 4.4596e-06
10320.0, 4.4728e-06
10322.0, 4.6462e-06
10324.0, 4.6076e-06
10326.0, 4.4826e-06
10328.0, 4.5946e-06
10330.0, 4.4712e-06
10332.0, 4.6777e-06
10334.0, 4.4048e-06
10336.0, 4.5606e-06
10338.0, 4.468e-06
10340.0, 4.5665e-06
10342.0, 4.5159e-06
10344.0, 4.6373e-06
10346.0, 4.4878e-06
10348.0, 4.521e-06
10350.0, 4.4901e-06
10352.0, 4.6686e-06
10354.0, 4.6518e-06
10356.0, 4.4874e-06
10358.0, 4.5995e-06
10360.0, 4.3947e-06
10362.0, 4.441e-06
10364.0, 4.4828e-06
10366.0, 4.7018e-06
10368.0, 4.5766e-06
10370.0, 4.4543e-06
10372.0, 4.5939e-06
10374.0, 4.3665e-06
10376.0, 4.5921e-06
10378.0, 4.4709e-06
10380.0, 4.559e-06
10382.0, 4.5115e-06
10384.0, 4.6205e-06
10386.0, 4.2699e-06
10388.0, 4.2396e-06
10390.0, 4.3328e-06
10392.0, 4.1785e-06
10394.0, 4.4558e-06
10396.0, 4.6358e-06
10398.0, 4.5813e-06
10400.0, 4.6951e-06
10402.0, 4.3509e-06
10404.0, 4.4983e-06
10406.0, 4.0467e-06
10408.0, 4.4252e-06
10410.0, 4.4797e-06
10412.0, 4.1725e-06
10414.0, 4.7837e-06
10416.0, 4.4331e-06
10418.0, 4.5407e-06
10420.0, 4.5664e-06
10422.0, 4.4316e-06
10424.0, 4.4188e-06
10426.0, 4.4174e-06
10428.0, 4.4561e-06
10430.0, 4.5092e-06
10432.0, 4.3494e-06
10434.0, 4.4214e-06
10436.0, 4.4202e-06
10438.0, 4.6643e-06
10440.0, 4.6741e-06
10442.0, 4.3814e-06
10444.0, 4.631e-06
10446.0, 4.4274e-06
10448.0, 4.5143e-06
10450.0, 4.504e-06
10452.0, 4.5626e-06
10454.0, 4.7379e-06
10456.0, 4.6481e-06
10458.0, 4.2746e-06
10460.0, 4.3812e-06
10462.0, 4.3389e-06
10464.0, 4.3405e-06
10466.0, 4.5428e-06
10468.0, 4.5838e-06
10470.0, 4.4432e-06
10472.0, 4.5998e-06
10474.0, 4.5645e-06
10476.0, 4.5831e-06
10478.0, 4.5674e-06
10480.0, 4.6021e-06
10482.0, 4.315e-06
10484.0, 4.5101e-06
10486.0, 4.2509e-06
10488.0, 4.4507e-06
10490.0, 4.2098e-06
10492.0, 4.5015e-06
10494.0, 4.4955e-06
10496.0, 4.5091e-06
10498.0, 4.483e-06
10500.0, 4.3349e-06
10502.0, 4.3808e-06
10504.0, 4.6466e-06
10506.0, 4.8124e-06
10508.0, 4.4952e-06
10510.0, 4.8206e-06
10513.0, 4.5481e-06
10515.0, 4.5464e-06
10517.0, 4.4726e-06
10519.0, 4.4801e-06
10521.0, 4.5587e-06
10523.0, 4.1073e-06
10525.0, 4.5971e-06
10527.0, 4.5957e-06
10529.0, 4.4902e-06
10531.0, 4.42e-06
10533.0, 4.6052e-06
10535.0, 4.6618e-06
10537.0, 4.3118e-06
10539.0, 4.5327e-06
10541.0, 4.4322e-06
10543.0, 4.4988e-06
10545.0, 4.4057e-06
10547.0, 4.6461e-06
10549.0, 4.5323e-06
10551.0, 4.5855e-06
10553.0, 4.4497e-06
10555.0, 4.6835e-06
10557.0, 4.7718e-06
10559.0, 4.5121e-06
10561.0, 4.4551e-06
10563.0, 4.5721e-06
10565.0, 4.5298e-06
10567.0, 4.9521e-06
10569.0, 4.5445e-06
10571.0, 4.512e-06
10573.0, 4.5078e-06
10575.0, 4.4796e-06
10577.0, 4.2934e-06
10579.0, 4.4785e-06
10581.0, 4.4171e-06
10583.0, 4.6441e-06
10585.0, 4.6034e-06
10587.0, 4.4996e-06
10589.0, 4.2877e-06
10591.0, 4.2591e-06
10593.0, 4.3902e-06
10595.0, 4.4336e-06
10597.0, 4.67e-06
10599.0, 4.6347e-06
10601.0, 4.3983e-06
10603.0, 4.3343e-06
10605.0, 4.4854e-06
10607.0, 4.662e-06
10609.0, 4.6204e-06
10611.0, 4.6526e-06
10613.0, 4.6366e-06
10615.0, 4.5963e-06
10617.0, 4.6065e-06
10619.0, 4.618e-06
10621.0, 4.3988e-06
10623.0, 4.562e-06
10625.0, 4.5999e-06
10627.0, 4.6219e-06
10629.0, 4.6375e-06
10631.0, 4.3292e-06
10633.0, 4.4141e-06
10635.0, 4.6105e-06
10637.0, 4.4926e-06
10639.0, 4.5789e-06
10641.0, 4.5887e-06
10643.0, 4.482e-06
10645.0, 4.282e-06
10647.0, 4.5362e-06
10649.0, 4.4459e-06
10651.0, 4.2449e-06
10653.0, 4.538e-06
10655.0, 4.699e-06
10657.0, 4.4963e-06
10659.0, 4.6743e-06
10661.0, 4.5106e-06
10663.0, 4.5053e-06
10665.0, 4.5461e-06
10667.0, 4.2954e-06
10669.0, 4.4878e-06
10671.0, 4.5682e-06
10673.0, 4.6672e-06
10675.0, 4.4715e-06
10677.0, 4.6375e-06
10679.0, 4.5993e-06
10681.0, 4.511e-06
10683.0, 4.3491e-06
10685.0, 4.653e-06
10687.0, 4.6667e-06
10689.0, 4.4975e-06
10691.0, 4.6002e-06
10693.0, 4.5376e-06
10695.0, 4.7108e-06
10697.0, 4.5569e-06
10699.0, 4.4759e-06
10701.0, 4.5099e-06
10703.0, 4.6102e-06
10705.0, 4.5558e-06
10707.0, 4.3325e-06
10709.0, 4.6663e-06
10711.0, 4.703e-06
10713.0, 4.6307e-06
10715.0, 4.6716e-06
10717.0, 4.6136e-06
10719.0, 4.8132e-06
10721.0, 4.4021e-06
10723.0, 4.4581e-06
10725.0, 4.5962e-06
10727.0, 4.5368e-06
10729.0, 4.7568e-06
10731.0, 4.5273e-06
10733.0, 4.638e-06
10735.0, 4.7026e-06
10737.0, 4.618e-06
10739.0, 4.5188e-06
10741.0, 4.5805e-06
10743.0, 4.4985e-06
10745.0, 4.4142e-06
10747.0, 4.4564e-06
10749.0, 4.6333e-06
10751.0, 4.444e-06
10753.0, 4.665e-06
10755.0, 4.6866e-06
10757.0, 4.6366e-06
10759.0, 4.3577e-06
10761.0, 4.4252e-06
10763.0, 4.5156e-06
10765.0, 4.5661e-06
10767.0, 4.6943e-06
10769.0, 4.6629e-06
10771.0, 4.6378e-06
10773.0, 4.3945e-06
10775.0, 4.3909e-06
10777.0, 4.4866e-06
10779.0, 4.7574e-06
10781.0, 4.3456e-06
10783.0, 4.5775e-06
10785.0, 4.5528e-06
10787.0, 4.6102e-06
10789.0, 4.6614e-06
10791.0, 2.216e-06
10793.0, -2.285e-08
10795.0, -2.799e-08
10797.0, -2.692e-08
10799.0, -2.785e-08
10801.0, -2.911e-08
10803.0, -3.045e-08
10805.0, -2.877e-08
10807.0, -2.94e-08
10809.0, -2.509e-08
10811.0, -2.976e-08
10813.0, -2.764e-08
10815.0, -2.624e-08
10817.0, -2.549e-08
10819.0, -2.551e-08
10821.0, -2.809e-08
10823.0, -3.184e-08
10825.0, -2.875e-08
10827.0, -2.728e-08
10829.0, -3.104e-08
10831.0, -2.883e-08
10833.0, -3.01e-08
10835.0, -2.966e-08
10837.0, -2.998e-08
10839.0, -3.095e-08
10841.0, -3.127e-08
10843.0, -3.131e-08
10845.0, -2.774e-08
10847.0, -2.796e-08
10849.0, -2.77e-08
10851.0, -2.866e-08
10853.0, -2.953e-08
10855.0, -2.981e-08
10857.0, -2.78e-08
10859.0, -3.075e-08
10861.0, -2.748e-08
10863.0, -2.859e-08
10865.0, -3.145e-08
10867.0, -3.031e-08
10869.0, -3.095e-08
10871.0, -3.032e-08
10873.0, -2.839e-08
10875.0, -2.686e-08
10877.0, -2.784e-08
10879.0, -2.88e-08
10881.0, -2.801e-08
10883.0, -2.992e-08
10885.0, -3.159e-08
10887.0, -2.995e-08
10889.0, -2.677e-08
10891.0, -2.855e-08
10893.0, -2.797e-08
10895.0, -2.678e-08
10897.0, -2.69e-08
10899.0, -2.848e-08
10901.0, -2.978e-08
10903.0, -3.2e-08
10905.0, -2.766e-08
10907.0, -3.041e-08
10909.0, -2.741e-08
10911.0, -2.7e-08
10913.0, -2.783e-08
10915.0, -2.441e-08
10917.0, -2.821e-08
10919.0, -2.546e-08
10921.0, -2.726e-08
10923.0, -2.903e-08
10925.0, -2.649e-08
10927.0, -2.932e-08
10929.0, -3.029e-08
10931.0, -2.823e-08
10933.0, -3.174e-08
10935.0, -2.877e-08
10937.0, -3.046e-08
10939.0, -2.94e-08
10941.0, -3.006e-08
10943.0, -3.13e-08
10945.0, -3.095e-08
10947.0, -3.02e-08
10949.0, -3.121e-08
10951.0, -2.649e-08
10953.0, -3.319e-08
10955.0, -2.957e-08
10957.0, -2.843e-08
10959.0, -2.868e-08
10961.0, -2.58e-08
10963.0, -2.827e-08
10965.0, -2.487e-08
10967.0, -2.737e-08
10969.0, -3.263e-08
10971.0, -3.202e-08
10973.0, -3.166e-08
10975.0, -3.255e-08
10977.0, -2.748e-08
10979.0, -3.116e-08
10981.0, -3.23e-08
10983.0, -3.11e-08
10985.0, -3.159e-08
10987.0, -3.008e-08
10989.0, -3.204e-08
10991.0, -3.226e-08
10993.0, -3.172e-08
10995.0, -3.362e-08
10997.0, -3.191e-08
10999.0, -2.917e-08
11001.0, -2.86e-08
11003.0, -2.928e-08
11005.0, -2.873e-08
11007.0, -3.145e-08
11009.0, -3.301e-08
