Time sep (ms?), Current (A)
0.0, -3.647e-08
2.002, -3.779e-08
4.004, -3.574e-08
6.006, -3.358e-08
8.008, -3.319e-08
10.01, -3.554e-08
12.012, -4.012e-08
14.014, -3.601e-08
16.016, -4.082e-08
18.018, -3.651e-08
20.02, -3.704e-08
22.022, -3.728e-08
24.024, -3.125e-08
26.026, -3.301e-08
28.028, -3.51e-08
30.03, -3.769e-08
32.032, -3.719e-08
34.034, -3.537e-08
36.036, -3.971e-08
38.038, -3.743e-08
40.04, -3.855e-08
42.042, -3.727e-08
44.044, -3.808e-08
46.046, -3.731e-08
48.048, -3.771e-08
50.05, -4.028e-08
52.052, -3.86e-08
54.054, -3.792e-08
56.056, -3.742e-08
58.058, -3.697e-08
60.06, -3.749e-08
62.062, -3.897e-08
64.064, -3.648e-08
66.066, -3.813e-08
68.068, -4.157e-08
70.07, -4.044e-08
72.072, -3.623e-08
74.074, -3.723e-08
76.076, -3.582e-08
78.078, -3.508e-08
80.08, -3.686e-08
82.082, -3.459e-08
84.084, -3.388e-08
86.086, -3.311e-08
88.088, -3.66e-08
90.09, -3.835e-08
92.092, -3.692e-08
94.094, -3.274e-08
96.096, -3.475e-08
98.098, -3.556e-08
100.1, -3.277e-08
102.1, -3.253e-08
104.1, -3.57e-08
106.11, -3.595e-08
108.11, -3.828e-08
110.11, -3.766e-08
112.11, -3.658e-08
114.11, -3.814e-08
116.12, -3.704e-08
118.12, -3.626e-08
120.12, -3.6e-08
122.12, -3.727e-08
124.12, -3.349e-08
126.13, -3.583e-08
128.13, -3.25e-08
130.13, -3.974e-08
132.13, -3.665e-08
134.13, -3.76e-08
136.14, -3.519e-08
138.14, -3.196e-08
140.14, -3.704e-08
142.14, -3.529e-08
144.14, -3.377e-08
146.15, -3.272e-08
148.15, -3.626e-08
150.15, -3.806e-08
152.15, -3.72e-08
154.15, -3.928e-08
156.16, -3.53e-08
158.16, -4.507e-08
160.16, -3.801e-08
162.16, -3.718e-08
164.16, -3.819e-08
166.17, -3.879e-08
168.17, -3.879e-08
170.17, -3.706e-08
172.17, -3.64e-08
174.17, -3.747e-08
176.18, -3.683e-08
178.18, -3.734e-08
180.18, -3.801e-08
182.18, -3.744e-08
184.18, -3.864e-08
186.19, -3.605e-08
188.19, -3.557e-08
190.19, -3.516e-08
192.19, -3.471e-08
194.19, -3.588e-08
196.2, -4.163e-08
198.2, -4.115e-08
200.2, -3.715e-08
202.2, -3.613e-08
204.2, -4e-08
206.21, -3.8e-08
208.21, -4.269e-08
210.21, -4.213e-08
212.21, -4.126e-08
214.21, -3.955e-08
216.22, -3.817e-08
218.22, -3.932e-08
220.22, -3.788e-08
222.22, -3.819e-08
224.22, -4.134e-08
226.23, -3.681e-08
228.23, -3.825e-08
230.23, -3.773e-08
232.23, -3.508e-08
234.23, -3.354e-08
236.24, -3.689e-08
238.24, -3.919e-08
240.24, -3.566e-08
242.24, -3.378e-08
244.24, -3.738e-08
246.25, -3.489e-08
248.25, -3.52e-08
250.25, -3.87e-08
252.25, -3.745e-08
254.25, -3.506e-08
256.26, -3.531e-08
258.26, -3.527e-08
260.26, -3.52e-08
262.26, -3.823e-08
264.26, -3.679e-08
266.27, -3.306e-08
268.27, -3.749e-08
270.27, -3.433e-08
272.27, -3.605e-08
274.27, -3.574e-08
276.28, -3.694e-08
278.28, -3.472e-08
280.28, -3.819e-08
282.28, -3.75e-08
284.28, -3.366e-08
286.29, -3.564e-08
288.29, -3.661e-08
290.29, -3.672e-08
292.29, -3.888e-08
294.29, -3.729e-08
296.3, -3.98e-08
298.3, -3.866e-08
300.3, -3.898e-08
302.3, -3.598e-08
304.3, -3.843e-08
306.31, -3.318e-08
308.31, -3.58e-08
310.31, -3.344e-08
312.31, -3.585e-08
314.31, -3.786e-08
316.32, -3.558e-08
318.32, -3.722e-08
320.32, -3.66e-08
322.32, -3.388e-08
324.32, -3.638e-08
326.33, -3.72e-08
328.33, -3.819e-08
330.33, -3.601e-08
332.33, -3.622e-08
334.33, -3.905e-08
336.34, -3.912e-08
338.34, -3.913e-08
340.34, -3.773e-08
342.34, -3.646e-08
344.34, -3.602e-08
346.35, -3.821e-08
348.35, -3.799e-08
350.35, -3.688e-08
352.35, -3.9e-08
354.35, -3.552e-08
356.36, -3.345e-08
358.36, -3.673e-08
360.36, -3.79e-08
362.36, -3.638e-08
364.36, -3.44e-08
366.37, -3.5e-08
368.37, -3.801e-08
370.37, -3.832e-08
372.37, -3.765e-08
374.37, -3.929e-08
376.38, -3.835e-08
378.38, -3.968e-08
380.38, -3.435e-08
382.38, -3.589e-08
384.38, -3.34e-08
386.39, -3.557e-08
388.39, -3.601e-08
390.39, -3.914e-08
392.39, -4.01e-08
394.39, -3.583e-08
396.4, -3.381e-08
398.4, -3.765e-08
400.4, -3.707e-08
402.4, -3.556e-08
404.4, -3.581e-08
406.41, -3.809e-08
408.41, -3.642e-08
410.41, -3.706e-08
412.41, -3.333e-08
414.41, -3.793e-08
416.42, -3.325e-08
418.42, -3.304e-08
420.42, -3.512e-08
422.42, -3.547e-08
424.42, -3.613e-08
426.43, -3.445e-08
428.43, -3.92e-08
430.43, -3.373e-08
432.43, -3.284e-08
434.43, -3.4e-08
436.44, -3.628e-08
438.44, -3.298e-08
440.44, -3.246e-08
442.44, -3.47e-08
444.44, -3.287e-08
446.45, -3.414e-08
448.45, -3.232e-08
450.45, -3.688e-08
452.45, -3.529e-08
454.45, -3.548e-08
456.46, -3.356e-08
458.46, -3.696e-08
460.46, -3.576e-08
462.46, -3.276e-08
464.46, -2.889e-08
466.47, -3.342e-08
468.47, -3.437e-08
470.47, -3.543e-08
472.47, -3.157e-08
474.47, -3.189e-08
476.48, -3.338e-08
478.48, -3.326e-08
480.48, -3.476e-08
482.48, -3.211e-08
484.48, -3.273e-08
486.49, -3.018e-08
488.49, -3.282e-08
490.49, -3.378e-08
492.49, -3.564e-08
494.49, -3.486e-08
496.5, -3.23e-08
498.5, -3.561e-08
500.5, -3.704e-08
502.5, -3.617e-08
504.5, -3.524e-08
506.51, -3.749e-08
508.51, -3.822e-08
510.51, -3.52e-08
512.51, -3.736e-08
514.51, -3.442e-08
516.52, -3.58e-08
518.52, -3.495e-08
520.52, -3.917e-08
522.52, -4.102e-08
524.52, -3.96e-08
526.53, -4.002e-08
528.53, -4.056e-08
530.53, -4.226e-08
532.53, -3.715e-08
534.53, -3.746e-08
536.54, -3.312e-08
538.54, -3.801e-08
540.54, -3.227e-08
542.54, -3.613e-08
544.54, -3.451e-08
546.55, -3.768e-08
548.55, -3.675e-08
550.55, -3.586e-08
552.55, -3.332e-08
554.55, -3.49e-08
556.56, -3.704e-08
558.56, -3.385e-08
560.56, -3.436e-08
562.56, -3.182e-08
564.56, -3.381e-08
566.57, -3.147e-08
568.57, -3.443e-08
570.57, -3.556e-08
572.57, -3.742e-08
574.57, -3.279e-08
576.58, -3.574e-08
578.58, -4.007e-08
580.58, -3.563e-08
582.58, -3.539e-08
584.58, -3.138e-08
586.59, -3.472e-08
588.59, -3.608e-08
590.59, -3.783e-08
592.59, -3.485e-08
594.59, -3.411e-08
596.6, -3.217e-08
598.6, -3.301e-08
600.6, -3.413e-08
602.6, -3.692e-08
604.6, -3e-08
606.61, -3.433e-08
608.61, -3.454e-08
610.61, -3.578e-08
612.61, -3.41e-08
614.61, -3.357e-08
616.62, -3.566e-08
618.62, -3.188e-08
620.62, -3.361e-08
622.62, -3.466e-08
624.62, -2.954e-08
626.63, -3.25e-08
628.63, -3.359e-08
630.63, -3.379e-08
632.63, -3.077e-08
634.63, -3.077e-08
636.64, -3.269e-08
638.64, -2.986e-08
640.64, -3.643e-08
642.64, -3.417e-08
644.64, -2.8e-08
646.65, -3.11e-08
648.65, -3.236e-08
650.65, -3.056e-08
652.65, -3.282e-08
654.65, -2.921e-08
656.66, -3.214e-08
658.66, -3.061e-08
660.66, -3.497e-08
662.66, -3.578e-08
664.66, -3.409e-08
666.67, -3.144e-08
668.67, -2.906e-08
670.67, -3.249e-08
672.67, -3.653e-08
674.67, -3.477e-08
676.68, -3.477e-08
678.68, -3.312e-08
680.68, -3.553e-08
682.68, -3.318e-08
684.68, -3.456e-08
686.69, -4.097e-08
688.69, -3.86e-08
690.69, -3.61e-08
692.69, -3.532e-08
694.69, -3.521e-08
696.7, -3.247e-08
698.7, -3.535e-08
700.7, -3.566e-08
702.7, -3.726e-08
704.7, -3.6e-08
706.71, -3.231e-08
708.71, -3.425e-08
710.71, -3.432e-08
712.71, -3.368e-08
714.71, -3.439e-08
716.72, -3.308e-08
718.72, -3.306e-08
720.72, -3.539e-08
722.72, -3.1e-08
724.72, -3.293e-08
726.73, -3.387e-08
728.73, -3.719e-08
730.73, -3.655e-08
732.73, -3.709e-08
734.73, -3.61e-08
736.74, -3.473e-08
738.74, -3.528e-08
740.74, -3.721e-08
742.74, -3.768e-08
744.74, -3.607e-08
746.75, -3.172e-08
748.75, -3.684e-08
750.75, -3.593e-08
752.75, -3.796e-08
754.75, -3.759e-08
756.76, -3.337e-08
758.76, -3.27e-08
760.76, -3.535e-08
762.76, -3.905e-08
764.76, -3.259e-08
766.77, -3.615e-08
768.77, -3.41e-08
770.77, -3.597e-08
772.77, -3.452e-08
774.77, -3.489e-08
776.78, -3.26e-08
778.78, -3.452e-08
780.78, -3.654e-08
782.78, -3.633e-08
784.78, -3.157e-08
786.79, -3.549e-08
788.79, -3.475e-08
790.79, -3.729e-08
792.79, -3.166e-08
794.79, -3.258e-08
796.8, -3.187e-08
798.8, -3.326e-08
800.8, -3.923e-08
802.8, -3.737e-08
804.8, -3.867e-08
806.81, -3.383e-08
808.81, -3.389e-08
810.81, -3.605e-08
812.81, -3.83e-08
814.81, -3.801e-08
816.82, -3.705e-08
818.82, -3.799e-08
820.82, -3.913e-08
822.82, -3.754e-08
824.82, -3.876e-08
826.83, -3.696e-08
828.83, -3.695e-08
830.83, -3.631e-08
832.83, -3.664e-08
834.83, -3.868e-08
836.84, -3.851e-08
838.84, -3.911e-08
840.84, -3.897e-08
842.84, -3.765e-08
844.84, -3.676e-08
846.85, -3.639e-08
848.85, -3.857e-08
850.85, -3.723e-08
852.85, -3.99e-08
854.85, -3.593e-08
856.86, -3.738e-08
858.86, -3.711e-08
860.86, -3.791e-08
862.86, -3.888e-08
864.86, -3.906e-08
866.87, -3.813e-08
868.87, -4.202e-08
870.87, -3.846e-08
872.87, -3.899e-08
874.87, -4.181e-08
876.88, -3.911e-08
878.88, -4.025e-08
880.88, -3.909e-08
882.88, -4.109e-08
884.88, -3.408e-08
886.89, -3.544e-08
888.89, -3.79e-08
890.89, -3.597e-08
892.89, -4.054e-08
894.89, -3.804e-08
896.9, -3.836e-08
898.9, -3.85e-08
900.9, -3.958e-08
902.9, -4.105e-08
904.9, -3.797e-08
906.91, -3.704e-08
908.91, -4.132e-08
910.91, -3.39e-08
912.91, -3.535e-08
914.91, -3.449e-08
916.92, -3.778e-08
918.92, -3.659e-08
920.92, -3.814e-08
922.92, -3.682e-08
924.92, -3.6e-08
926.93, -2.957e-08
928.93, -3.242e-08
930.93, -3.442e-08
932.93, -3.675e-08
934.93, -3.177e-08
936.94, -3.585e-08
938.94, -3.497e-08
940.94, -3.639e-08
942.94, -3.443e-08
944.94, -3.625e-08
946.95, -3.9e-08
948.95, -3.792e-08
950.95, -3.581e-08
952.95, -3.443e-08
954.95, -3.166e-08
956.96, -3.645e-08
958.96, -3.359e-08
960.96, -3.374e-08
962.96, -3.235e-08
964.96, -3.262e-08
966.97, -3.254e-08
968.97, -3.303e-08
970.97, -3.541e-08
972.97, -3.535e-08
974.97, -3.564e-08
976.98, -3.733e-08
978.98, -3.746e-08
980.98, -3.544e-08
982.98, -3.7e-08
984.98, -3.47e-08
986.99, -3.971e-08
988.99, -3.939e-08
990.99, -3.727e-08
992.99, -3.841e-08
994.99, -3.647e-08
997.0, -3.459e-08
999.0, -3.662e-08
1001.0, -3.665e-08
1003.0, -3.505e-08
1005.0, -3.425e-08
1007.0, -3.279e-08
1009.0, -3.612e-08
1011.0, -3.263e-08
1013.0, -3.1e-08
1015.0, -3.109e-08
1017.0, -3.461e-08
1019.0, -3.215e-08
1021.0, -3.637e-08
1023.0, -3.471e-08
1025.0, -3.035e-08
1027.0, -3.358e-08
1029.0, -3.484e-08
1031.0, -3.45e-08
1033.0, -3.533e-08
1035.0, -3.169e-08
1037.0, -3.518e-08
1039.0, 1.3344e-07
1041.0, 5.7064e-07
1043.0, 5.8127e-07
1045.0, 5.0277e-07
1047.0, 5.4502e-07
1049.0, 5.1768e-07
1051.0, 4.9226e-07
1053.1, 5.607e-07
1055.1, 5.0003e-07
1057.1, 5.5049e-07
1059.1, 5.9185e-07
1061.1, 6.0813e-07
1063.1, 6.0643e-07
1065.1, 4.7346e-07
1067.1, 5.3452e-07
1069.1, 5.928e-07
1071.1, 5.9079e-07
1073.1, 5.4047e-07
1075.1, 5.8544e-07
1077.1, 5.7443e-07
1079.1, 5.3643e-07
1081.1, 4.8902e-07
1083.1, 5.525e-07
1085.1, 5.5731e-07
1087.1, 5.9022e-07
1089.1, 6.253e-07
1091.1, 6.1463e-07
1093.1, 5.9615e-07
1095.1, 5.8906e-07
1097.1, 5.5103e-07
1099.1, 5.7259e-07
1101.1, 6.207e-07
1103.1, 5.9883e-07
1105.1, 5.4954e-07
1107.1, 5.2295e-07
1109.1, 5.8355e-07
1111.1, 5.8445e-07
1113.1, 5.423e-07
1115.1, 6.0709e-07
1117.1, 6.4083e-07
1119.1, 4.9814e-07
1121.1, 5.6106e-07
1123.1, 5.4312e-07
1125.1, 6.0129e-07
1127.1, 5.9817e-07
1129.1, 5.8537e-07
1131.1, 5.8675e-07
1133.1, 5.4647e-07
1135.1, 6.5898e-07
1137.1, 5.8699e-07
1139.1, 6.3417e-07
1141.1, 6.1378e-07
1143.1, 5.2619e-07
1145.1, 6.1534e-07
1147.1, 6.1437e-07
1149.1, 5.767e-07
1151.1, 6.0768e-07
1153.2, 5.6845e-07
1155.2, 5.4846e-07
1157.2, 5.5191e-07
1159.2, 5.8711e-07
1161.2, 5.7206e-07
1163.2, 6.3401e-07
1165.2, 5.6191e-07
1167.2, 6.1899e-07
1169.2, 6.3032e-07
1171.2, 5.7223e-07
1173.2, 5.3173e-07
1175.2, 6.771e-07
1177.2, 6.2309e-07
1179.2, 5.5528e-07
1181.2, 6.4957e-07
1183.2, 6.4158e-07
1185.2, 6.1901e-07
1187.2, 6.0731e-07
1189.2, 6.1578e-07
1191.2, 6.1797e-07
1193.2, 6.3042e-07
1195.2, 6.0723e-07
1197.2, 6.1676e-07
1199.2, 6.2957e-07
1201.2, 6.3017e-07
1203.2, 6.6783e-07
1205.2, 6.2185e-07
1207.2, 5.6654e-07
1209.2, 4.9231e-07
1211.2, 5.2921e-07
1213.2, 6.1657e-07
1215.2, 6.2909e-07
1217.2, 6.4022e-07
1219.2, 6.2917e-07
1221.2, 6.3625e-07
1223.2, 6.2792e-07
1225.2, 6.0206e-07
1227.2, 5.7436e-07
1229.2, 5.5524e-07
1231.2, 5.9185e-07
1233.2, 5.9573e-07
1235.2, 5.6265e-07
1237.2, 6.0245e-07
1239.2, 6.0931e-07
1241.2, 5.9445e-07
1243.2, 5.4833e-07
1245.2, 5.3032e-07
1247.2, 6.226e-07
1249.2, 5.5652e-07
1251.2, 5.7631e-07
1253.3, 5.5471e-07
1255.3, 6.1478e-07
1257.3, 6.6188e-07
1259.3, 5.9654e-07
1261.3, 6.0935e-07
1263.3, 5.879e-07
1265.3, 6.396e-07
1267.3, 6.8097e-07
1269.3, 5.6735e-07
1271.3, 6.1682e-07
1273.3, 5.7808e-07
1275.3, 6.6829e-07
1277.3, 6.8598e-07
1279.3, 5.8449e-07
1281.3, 6.4017e-07
1283.3, 6.7766e-07
1285.3, 6.1324e-07
1287.3, 5.9381e-07
1289.3, 5.7417e-07
1291.3, 6.7405e-07
1293.3, 6.3711e-07
1295.3, 4.6322e-07
1297.3, 5.0332e-07
1299.3, 5.826e-07
1301.3, 6.6193e-07
1303.3, 6.3425e-07
1305.3, 6.0981e-07
1307.3, 6.2861e-07
1309.3, 5.808e-07
1311.3, 6.9398e-07
1313.3, 6.1561e-07
1315.3, 7.3066e-07
1317.3, 6.4676e-07
1319.3, 6.5992e-07
1321.3, 6.2969e-07
1323.3, 6.0635e-07
1325.3, 5.8487e-07
1327.3, 5.8291e-07
1329.3, 5.2943e-07
1331.3, 6.3149e-07
1333.3, 6.3415e-07
1335.3, 6.2376e-07
1337.3, 6.2367e-07
1339.3, 7.0592e-07
1341.3, 6.5183e-07
1343.3, 5.9453e-07
1345.3, 6.2235e-07
1347.3, 5.8659e-07
1349.3, 5.4591e-07
1351.3, 6.4558e-07
1353.4, 5.7626e-07
1355.4, 6.2247e-07
1357.4, 6.6969e-07
1359.4, 6.0299e-07
1361.4, 5.4919e-07
1363.4, 6.2045e-07
1365.4, 5.5989e-07
1367.4, 6.2691e-07
1369.4, 6.3239e-07
1371.4, 5.4702e-07
1373.4, 6.5871e-07
1375.4, 6.1333e-07
1377.4, 6.3012e-07
1379.4, 5.6085e-07
1381.4, 6.373e-07
1383.4, 7.1384e-07
1385.4, 6.5067e-07
1387.4, 5.8078e-07
1389.4, 5.6918e-07
1391.4, 5.3551e-07
1393.4, 6.1282e-07
1395.4, 6.5798e-07
1397.4, 6.5225e-07
1399.4, 6.7278e-07
1401.4, 5.9655e-07
1403.4, 6.3442e-07
1405.4, 6.7528e-07
1407.4, 6.5339e-07
1409.4, 6.0277e-07
1411.4, 5.6216e-07
1413.4, 6.2938e-07
1415.4, 6.4314e-07
1417.4, 6.4485e-07
1419.4, 6.2837e-07
1421.4, 5.5513e-07
1423.4, 6.2563e-07
1425.4, 6.3778e-07
1427.4, 6.0487e-07
1429.4, 5.9892e-07
1431.4, 5.8098e-07
1433.4, 5.9108e-07
1435.4, 5.7372e-07
1437.4, 6.5901e-07
1439.4, 6.1502e-07
1441.4, 6.1265e-07
1443.4, 6.3167e-07
1445.4, 6.4424e-07
1447.4, 6.3314e-07
1449.4, 6.4867e-07
1451.4, 6.1328e-07
1453.5, 5.9062e-07
1455.5, 6.5345e-07
1457.5, 6.5447e-07
1459.5, 6.396e-07
1461.5, 6.0133e-07
1463.5, 6.4127e-07
1465.5, 6.868e-07
1467.5, 5.8254e-07
1469.5, 6.4827e-07
1471.5, 6.1127e-07
1473.5, 6.5871e-07
1475.5, 5.8753e-07
1477.5, 6.7881e-07
1479.5, 6.9226e-07
1481.5, 5.7338e-07
1483.5, 6.854e-07
1485.5, 5.9284e-07
1487.5, 6.1273e-07
1489.5, 6.1942e-07
1491.5, 6.6218e-07
1493.5, 7.146e-07
1495.5, 6.294e-07
1497.5, 6.5019e-07
1499.5, 6.7741e-07
1501.5, 6.5205e-07
1503.5, 6.007e-07
1505.5, 6.098e-07
1507.5, 6.3709e-07
1509.5, 6.3879e-07
1511.5, 6.6833e-07
1513.5, 6.5236e-07
1515.5, 5.7649e-07
1517.5, 6.9648e-07
1519.5, 6.2322e-07
1521.5, 6.0361e-07
1523.5, 6.7366e-07
1525.5, 7.304e-07
1527.5, 6.2691e-07
1529.5, 5.7503e-07
1531.5, 5.7137e-07
1533.5, 6.7634e-07
1535.5, 6.0576e-07
1537.5, 6.0439e-07
1539.5, 6.2267e-07
1541.5, 6.0216e-07
1543.5, 5.9864e-07
1545.5, 6.7361e-07
1547.5, 6.0909e-07
1549.5, 6.2477e-07
1551.5, 6.7558e-07
1553.6, 6.0824e-07
1555.6, 5.7307e-07
1557.6, 5.9842e-07
1559.6, 5.3956e-07
1561.6, 6.8158e-07
1563.6, 6.4616e-07
1565.6, 5.7045e-07
1567.6, 6.9896e-07
1569.6, 6.3837e-07
1571.6, 6.2595e-07
1573.6, 6.307e-07
1575.6, 6.2413e-07
1577.6, 6.1353e-07
1579.6, 6.6732e-07
1581.6, 6.1556e-07
1583.6, 5.7195e-07
1585.6, 6.6561e-07
1587.6, 6.7257e-07
1589.6, 6.1551e-07
1591.6, 6.3126e-07
1593.6, 6.2369e-07
1595.6, 6.1693e-07
1597.6, 6.7308e-07
1599.6, 6.8202e-07
1601.6, 6.0577e-07
1603.6, 6.6066e-07
1605.6, 5.9945e-07
1607.6, 6.6945e-07
1609.6, 6.6928e-07
1611.6, 6.034e-07
1613.6, 6.4952e-07
1615.6, 5.9355e-07
1617.6, 6.5336e-07
1619.6, 5.8006e-07
1621.6, 5.5328e-07
1623.6, 6.5986e-07
1625.6, 6.1487e-07
1627.6, 6.3801e-07
1629.6, 5.558e-07
1631.6, 6.7944e-07
1633.6, 6.6102e-07
1635.6, 5.8415e-07
1637.6, 5.4915e-07
1639.6, 5.9426e-07
1641.6, 6.377e-07
1643.6, 6.8695e-07
1645.6, 5.5113e-07
1647.6, 6.7939e-07
1649.6, 6.736e-07
1651.6, 6.4765e-07
1653.7, 5.7159e-07
1655.7, 5.5706e-07
1657.7, 6.3437e-07
1659.7, 7.3402e-07
1661.7, 6.9855e-07
1663.7, 6.4547e-07
1665.7, 6.1127e-07
1667.7, 6.2156e-07
1669.7, 6.6953e-07
1671.7, 6.1901e-07
1673.7, 6.333e-07
1675.7, 5.9909e-07
1677.7, 6.0004e-07
1679.7, 6.4581e-07
1681.7, 6.5805e-07
1683.7, 6.4764e-07
1685.7, 6.817e-07
1687.7, 6.0686e-07
1689.7, 6.075e-07
1691.7, 6.3771e-07
1693.7, 6.0577e-07
1695.7, 6.5194e-07
1697.7, 6.9834e-07
1699.7, 6.6427e-07
1701.7, 6.3769e-07
1703.7, 6.2851e-07
1705.7, 6.2085e-07
1707.7, 6.5839e-07
1709.7, 6.1343e-07
1711.7, 5.8751e-07
1713.7, 5.7455e-07
1715.7, 6.281e-07
1717.7, 6.6413e-07
1719.7, 5.9879e-07
1721.7, 6.6465e-07
1723.7, 6.8685e-07
1725.7, 7.1988e-07
1727.7, 6.249e-07
1729.7, 5.782e-07
1731.7, 7.0339e-07
1733.7, 7.2936e-07
1735.7, 5.9818e-07
1737.7, 7.0043e-07
1739.7, 6.2549e-07
1741.7, 6.2119e-07
1743.7, 6.6611e-07
1745.7, 6.516e-07
1747.7, 6.5195e-07
1749.7, 5.8365e-07
1751.7, 5.7503e-07
1753.8, 6.1299e-07
1755.8, 6.6422e-07
1757.8, 6.6396e-07
1759.8, 6.3738e-07
1761.8, 6.6194e-07
1763.8, 5.7446e-07
1765.8, 6.3999e-07
1767.8, 6.0056e-07
1769.8, 6.8398e-07
1771.8, 7.1851e-07
1773.8, 7.0698e-07
1775.8, 6.3585e-07
1777.8, 6.5091e-07
1779.8, 5.6531e-07
1781.8, 6.3491e-07
1783.8, 6.4714e-07
1785.8, 6.4007e-07
1787.8, 5.9778e-07
1789.8, 6.3898e-07
1791.8, 6.6188e-07
1793.8, 6.1808e-07
1795.8, 6.3698e-07
1797.8, 6.1567e-07
1799.8, 6.0156e-07
1801.8, 6.712e-07
1803.8, 5.8997e-07
1805.8, 6.4656e-07
1807.8, 6.1909e-07
1809.8, 6.0152e-07
1811.8, 7.2501e-07
1813.8, 6.7437e-07
1815.8, 6.2147e-07
1817.8, 6.4807e-07
1819.8, 6.1989e-07
1821.8, 6.5015e-07
1823.8, 6.6796e-07
1825.8, 6.4623e-07
1827.8, 6.593e-07
1829.8, 7.0304e-07
1831.8, 6.4939e-07
1833.8, 7.095e-07
1835.8, 6.1838e-07
1837.8, 6.604e-07
1839.8, 5.9575e-07
1841.8, 5.9379e-07
1843.8, 6.5288e-07
1845.8, 7.141e-07
1847.8, 5.7984e-07
1849.8, 6.3618e-07
1851.8, 6.8589e-07
1853.9, 6.3382e-07
1855.9, 5.7601e-07
1857.9, 6.1708e-07
1859.9, 6.2486e-07
1861.9, 6.7538e-07
1863.9, 6.0785e-07
1865.9, 6.5323e-07
1867.9, 6.4052e-07
1869.9, 6.29e-07
1871.9, 6.7809e-07
1873.9, 6.4006e-07
1875.9, 6.7234e-07
1877.9, 6.7123e-07
1879.9, 6.6975e-07
1881.9, 6.4264e-07
1883.9, 6.0924e-07
1885.9, 5.8619e-07
1887.9, 6.7014e-07
1889.9, 7.0372e-07
1891.9, 6.1359e-07
1893.9, 6.5519e-07
1895.9, 6.6611e-07
1897.9, 5.786e-07
1899.9, 5.8699e-07
1901.9, 5.2358e-07
1903.9, 5.4309e-07
1905.9, 6.8466e-07
1907.9, 6.6731e-07
1909.9, 6.5036e-07
1911.9, 5.4218e-07
1913.9, 6.4209e-07
1915.9, 6.083e-07
1917.9, 6.3842e-07
1919.9, 6.3354e-07
1921.9, 7.3618e-07
1923.9, 7.0038e-07
1925.9, 6.2501e-07
1927.9, 6.6784e-07
1929.9, 6.8596e-07
1931.9, 6.3509e-07
1933.9, 6.843e-07
1935.9, 5.8434e-07
1937.9, 6.547e-07
1939.9, 6.3062e-07
1941.9, 6.2341e-07
1943.9, 6.8813e-07
1945.9, 6.5022e-07
1947.9, 6.9034e-07
1949.9, 6.6631e-07
1951.9, 6.3604e-07
1954.0, 7.0358e-07
1956.0, 6.1914e-07
1958.0, 6.4147e-07
1960.0, 6.3444e-07
1962.0, 6.0214e-07
1964.0, 6.172e-07
1966.0, 6.3985e-07
1968.0, 6.6429e-07
1970.0, 6.5746e-07
1972.0, 7.0849e-07
1974.0, 6.3045e-07
1976.0, 6.6959e-07
1978.0, 6.3225e-07
1980.0, 6.1685e-07
1982.0, 6.3791e-07
1984.0, 5.9923e-07
1986.0, 6.3784e-07
1988.0, 6.5609e-07
1990.0, 6.7533e-07
1992.0, 7.1899e-07
1994.0, 6.4307e-07
1996.0, 6.9312e-07
1998.0, 6.3215e-07
2000.0, 6.2256e-07
2002.0, 5.773e-07
2004.0, 5.8351e-07
2006.0, 6.1147e-07
2008.0, 5.9185e-07
2010.0, 7.165e-07
2012.0, 5.8307e-07
2014.0, 5.7967e-07
2016.0, 6.8444e-07
2018.0, 6.8767e-07
2020.0, 7.2579e-07
2022.0, 6.385e-07
2024.0, 6.5299e-07
2026.0, 6.9903e-07
2028.0, 6.7643e-07
2030.0, 6.4866e-07
2032.0, 5.6206e-07
2034.0, 6.5328e-07
2036.0, 7.0757e-07
2038.0, 6.4988e-07
2040.0, 3.7989e-07
2042.0, -3.272e-08
2044.0, -3.47e-08
2046.0, -3.383e-08
2048.0, -3.518e-08
2050.0, -3.685e-08
2052.0, -3.611e-08
2054.1, -3.372e-08
2056.1, -3.769e-08
2058.1, -3.305e-08
2060.1, -3.465e-08
2062.1, -3.25e-08
2064.1, -3.435e-08
2066.1, -3.229e-08
2068.1, -3.255e-08
2070.1, -3.28e-08
2072.1, -3.083e-08
2074.1, -3.381e-08
2076.1, -3.356e-08
2078.1, -3.549e-08
2080.1, -3.3e-08
2082.1, -3.166e-08
2084.1, -3.205e-08
2086.1, -3.319e-08
2088.1, -3.235e-08
2090.1, -3.364e-08
2092.1, -3.483e-08
2094.1, -3.462e-08
2096.1, -3.444e-08
2098.1, -3.657e-08
2100.1, -3.48e-08
2102.1, -3.582e-08
2104.1, -3.664e-08
2106.1, -3.778e-08
2108.1, -3.587e-08
2110.1, -3.34e-08
2112.1, -3.538e-08
2114.1, -3.574e-08
2116.1, -3.567e-08
2118.1, -3.069e-08
2120.1, -3.466e-08
2122.1, -3.348e-08
2124.1, -3.408e-08
2126.1, -3.588e-08
2128.1, -3.581e-08
2130.1, -3.383e-08
2132.1, -3.375e-08
2134.1, -3.748e-08
2136.1, -3.734e-08
2138.1, -3.746e-08
2140.1, -3.6e-08
2142.1, -3.697e-08
2144.1, -4.114e-08
2146.1, -3.982e-08
2148.1, -3.917e-08
2150.1, -3.848e-08
2152.1, -3.634e-08
2154.2, -3.82e-08
2156.2, -3.849e-08
2158.2, -3.55e-08
2160.2, -3.607e-08
2162.2, -3.862e-08
2164.2, -4.165e-08
2166.2, -3.528e-08
2168.2, -3.669e-08
2170.2, -3.714e-08
2172.2, -3.677e-08
2174.2, -3.755e-08
2176.2, -3.707e-08
2178.2, -4.023e-08
2180.2, -4.039e-08
2182.2, -4.001e-08
2184.2, -4.061e-08
2186.2, -3.961e-08
2188.2, -3.971e-08
2190.2, -3.831e-08
2192.2, -3.687e-08
2194.2, -3.762e-08
2196.2, -3.785e-08
2198.2, -3.583e-08
2200.2, -3.527e-08
2202.2, -3.952e-08
2204.2, -3.726e-08
2206.2, -3.639e-08
2208.2, -3.684e-08
2210.2, -3.457e-08
2212.2, -3.85e-08
2214.2, -3.969e-08
2216.2, -3.652e-08
2218.2, -3.649e-08
2220.2, -3.394e-08
2222.2, -3.734e-08
2224.2, -3.791e-08
2226.2, -3.445e-08
2228.2, -3.912e-08
2230.2, -3.375e-08
2232.2, -3.853e-08
2234.2, -3.626e-08
2236.2, -3.623e-08
2238.2, -3.727e-08
2240.2, -3.462e-08
2242.2, -3.882e-08
2244.2, -3.813e-08
2246.2, -3.867e-08
2248.2, -3.75e-08
2250.2, -3.53e-08
2252.2, -3.763e-08
2254.3, -3.627e-08
2256.3, -3.912e-08
2258.3, -3.452e-08
2260.3, -3.45e-08
2262.3, -3.902e-08
2264.3, -4.076e-08
2266.3, -3.412e-08
2268.3, -3.217e-08
2270.3, -3.479e-08
2272.3, -3.852e-08
2274.3, -3.833e-08
2276.3, -3.454e-08
2278.3, -3.331e-08
2280.3, -3.569e-08
2282.3, -3.452e-08
2284.3, -3.44e-08
2286.3, -3.461e-08
2288.3, -3.377e-08
2290.3, -3.501e-08
2292.3, -3.52e-08
2294.3, -3.453e-08
2296.3, -3.209e-08
2298.3, -3.489e-08
2300.3, -3.636e-08
2302.3, -3.531e-08
2304.3, -3.489e-08
2306.3, -3.651e-08
2308.3, -3.56e-08
2310.3, -3.431e-08
2312.3, -3.491e-08
2314.3, -3.727e-08
2316.3, -3.432e-08
2318.3, -3.928e-08
2320.3, -3.734e-08
2322.3, -3.903e-08
2324.3, -4.076e-08
2326.3, -4.065e-08
2328.3, -3.811e-08
2330.3, -3.631e-08
2332.3, -4.017e-08
2334.3, -4.158e-08
2336.3, -3.833e-08
2338.3, -3.999e-08
2340.3, -3.695e-08
2342.3, -4.151e-08
2344.3, -4.163e-08
2346.3, -3.814e-08
2348.3, -3.756e-08
2350.3, -4.261e-08
2352.3, -4.18e-08
2354.4, -3.927e-08
2356.4, -3.894e-08
2358.4, -3.961e-08
2360.4, -4.187e-08
2362.4, -3.949e-08
2364.4, -3.742e-08
2366.4, -3.824e-08
2368.4, -4.119e-08
2370.4, -3.522e-08
2372.4, -3.767e-08
2374.4, -3.645e-08
2376.4, -3.42e-08
2378.4, -3.394e-08
2380.4, -3.634e-08
2382.4, -3.68e-08
2384.4, -3.607e-08
2386.4, -4.018e-08
2388.4, -3.982e-08
2390.4, -3.925e-08
2392.4, -4.261e-08
2394.4, -4.398e-08
2396.4, -4.023e-08
2398.4, -3.67e-08
2400.4, -3.474e-08
2402.4, -3.725e-08
2404.4, -3.503e-08
2406.4, -4.154e-08
2408.4, -4.086e-08
2410.4, -4.228e-08
2412.4, -4.112e-08
2414.4, -4.361e-08
2416.4, -4.067e-08
2418.4, -3.749e-08
2420.4, -3.483e-08
2422.4, -3.637e-08
2424.4, -3.904e-08
2426.4, -3.581e-08
2428.4, -4.15e-08
2430.4, -3.847e-08
2432.4, -3.705e-08
2434.4, -3.694e-08
2436.4, -3.635e-08
2438.4, -3.458e-08
2440.4, -3.791e-08
2442.4, -3.879e-08
2444.4, -3.824e-08
2446.4, -3.867e-08
2448.4, -3.643e-08
2450.4, -4.106e-08
2452.4, -4.268e-08
2454.5, -3.914e-08
2456.5, -4.061e-08
2458.5, -3.411e-08
2460.5, -3.412e-08
2462.5, -3.951e-08
2464.5, -3.53e-08
2466.5, -3.532e-08
2468.5, -3.82e-08
2470.5, -3.56e-08
2472.5, -3.753e-08
2474.5, -3.781e-08
2476.5, -3.704e-08
2478.5, -3.58e-08
2480.5, -3.872e-08
2482.5, -3.712e-08
2484.5, -3.641e-08
2486.5, -3.752e-08
2488.5, -3.338e-08
2490.5, -3.769e-08
2492.5, -3.579e-08
2494.5, -3.645e-08
2496.5, -3.765e-08
2498.5, -3.854e-08
2500.5, -3.78e-08
2502.5, -4.115e-08
2504.5, -4.384e-08
2506.5, -3.922e-08
2508.5, -3.856e-08
2510.5, -3.672e-08
2512.5, -3.963e-08
2514.5, -3.959e-08
2516.5, -3.796e-08
2518.5, -3.96e-08
2520.5, -4.094e-08
2522.5, -3.79e-08
2524.5, -3.847e-08
2526.5, -3.635e-08
2528.5, -3.543e-08
2530.5, -3.251e-08
2532.5, -3.081e-08
2534.5, -3.874e-08
2536.5, -3.52e-08
2538.5, -3.775e-08
2540.5, -3.521e-08
2542.5, -3.833e-08
2544.5, -3.921e-08
2546.5, -3.558e-08
2548.5, -3.546e-08
2550.5, -3.363e-08
2552.5, -3.329e-08
2554.6, -3.449e-08
2556.6, -3.402e-08
2558.6, -3.506e-08
2560.6, -3.478e-08
2562.6, -3.3e-08
2564.6, -3.63e-08
2566.6, -3.57e-08
2568.6, -3.456e-08
2570.6, -3.206e-08
2572.6, -3.271e-08
2574.6, -3.359e-08
2576.6, -3.344e-08
2578.6, -3.411e-08
2580.6, -3.5e-08
2582.6, -3.728e-08
2584.6, -3.772e-08
2586.6, -3.587e-08
2588.6, -3.643e-08
2590.6, -3.609e-08
2592.6, -3.554e-08
2594.6, -3.667e-08
2596.6, -3.566e-08
2598.6, -3.82e-08
2600.6, -3.452e-08
2602.6, -3.74e-08
2604.6, -3.287e-08
2606.6, -3.275e-08
2608.6, -3.312e-08
2610.6, -3.381e-08
2612.6, -3.67e-08
2614.6, -3.653e-08
2616.6, -3.571e-08
2618.6, -3.837e-08
2620.6, -3.802e-08
2622.6, -3.887e-08
2624.6, -3.784e-08
2626.6, -3.775e-08
2628.6, -3.829e-08
2630.6, -4.239e-08
2632.6, -4.228e-08
2634.6, -3.946e-08
2636.6, -3.978e-08
2638.6, -3.841e-08
2640.6, -3.81e-08
2642.6, -3.607e-08
2644.6, -3.958e-08
2646.6, -3.949e-08
2648.6, -3.832e-08
2650.6, -3.884e-08
2652.6, -3.729e-08
2654.7, -3.845e-08
2656.7, -3.661e-08
2658.7, -3.787e-08
2660.7, -3.77e-08
2662.7, -3.93e-08
2664.7, -3.898e-08
2666.7, -3.87e-08
2668.7, -4.007e-08
2670.7, -3.668e-08
2672.7, -3.699e-08
2674.7, -3.548e-08
2676.7, -3.602e-08
2678.7, -3.429e-08
2680.7, -3.742e-08
2682.7, -3.388e-08
2684.7, -3.369e-08
2686.7, -3.628e-08
2688.7, -3.265e-08
2690.7, -3.532e-08
2692.7, -3.568e-08
2694.7, -3.648e-08
2696.7, -3.451e-08
2698.7, -3.733e-08
2700.7, -3.757e-08
2702.7, -3.482e-08
2704.7, -3.792e-08
2706.7, -3.9e-08
2708.7, -3.631e-08
2710.7, -3.58e-08
2712.7, -3.851e-08
2714.7, -3.671e-08
2716.7, -3.757e-08
2718.7, -3.674e-08
2720.7, -3.315e-08
2722.7, -3.535e-08
2724.7, -3.922e-08
2726.7, -3.3e-08
2728.7, -3.538e-08
2730.7, -3.53e-08
2732.7, -3.52e-08
2734.7, -3.611e-08
2736.7, -3.116e-08
2738.7, -3.32e-08
2740.7, -3.126e-08
2742.7, -3.135e-08
2744.7, -3.303e-08
2746.7, -3.016e-08
2748.7, -2.998e-08
2750.7, -2.931e-08
2752.7, -3.286e-08
2754.8, -2.984e-08
2756.8, -3.149e-08
2758.8, -2.617e-08
2760.8, -3.036e-08
2762.8, -2.768e-08
2764.8, -3.123e-08
2766.8, -3.414e-08
2768.8, -3.577e-08
2770.8, -3.197e-08
2772.8, -3.569e-08
2774.8, -3.117e-08
2776.8, -3.223e-08
2778.8, -3.095e-08
2780.8, -3.146e-08
2782.8, -3.22e-08
2784.8, -2.979e-08
2786.8, -3.039e-08
2788.8, -2.783e-08
2790.8, -3.273e-08
2792.8, -3.063e-08
2794.8, -3.08e-08
2796.8, -2.873e-08
2798.8, -3.193e-08
2800.8, -3.212e-08
2802.8, -3.316e-08
2804.8, -2.957e-08
2806.8, -2.967e-08
2808.8, -2.832e-08
2810.8, -2.771e-08
2812.8, -2.882e-08
2814.8, -2.796e-08
2816.8, -3.214e-08
2818.8, -3.107e-08
2820.8, -2.946e-08
2822.8, -3.023e-08
2824.8, -3.164e-08
2826.8, -2.933e-08
2828.8, -3.188e-08
2830.8, -3.007e-08
2832.8, -3.287e-08
2834.8, -3.371e-08
2836.8, -3.024e-08
2838.8, -3.013e-08
2840.8, -3.121e-08
2842.8, -3.193e-08
2844.8, -3.241e-08
2846.8, -3.583e-08
2848.8, -3.382e-08
2850.8, -3.227e-08
2852.8, -3.384e-08
2854.9, -3.354e-08
2856.9, -3.381e-08
2858.9, -3.254e-08
2860.9, -3.387e-08
2862.9, -3.31e-08
2864.9, -3.085e-08
2866.9, -3.136e-08
2868.9, -2.808e-08
2870.9, -2.992e-08
2872.9, -3.166e-08
2874.9, -3.327e-08
2876.9, -3.299e-08
2878.9, -3.729e-08
2880.9, -3.653e-08
2882.9, -3.41e-08
2884.9, -3.462e-08
2886.9, -3.593e-08
2888.9, -3.656e-08
2890.9, -2.855e-08
2892.9, -3.617e-08
2894.9, -3.781e-08
2896.9, -3.122e-08
2898.9, -3.52e-08
2900.9, -3.399e-08
2902.9, -3.628e-08
2904.9, -3.417e-08
2906.9, -3.463e-08
2908.9, -3.361e-08
2910.9, -3.422e-08
2912.9, -3.607e-08
2914.9, -3.258e-08
2916.9, -3.523e-08
2918.9, -3.152e-08
2920.9, -3.472e-08
2922.9, -3.013e-08
2924.9, -3.213e-08
2926.9, -2.914e-08
2928.9, -3.24e-08
2930.9, -3.044e-08
2932.9, -2.913e-08
2934.9, -3.11e-08
2936.9, -2.765e-08
2938.9, -3.19e-08
2940.9, -2.856e-08
2942.9, -3.336e-08
2944.9, -3.445e-08
2946.9, -3.429e-08
2948.9, -3.055e-08
2950.9, -3.38e-08
2952.9, -3.512e-08
2955.0, -3.42e-08
2957.0, -3.433e-08
2959.0, -3.147e-08
2961.0, -3.201e-08
2963.0, -3.465e-08
2965.0, -3.44e-08
2967.0, -3.32e-08
2969.0, -3.117e-08
2971.0, -3.525e-08
2973.0, -3.4e-08
2975.0, -3.338e-08
2977.0, -3.461e-08
2979.0, -3.45e-08
2981.0, -3.787e-08
2983.0, -3.368e-08
2985.0, -3.419e-08
2987.0, -3.561e-08
2989.0, -3.837e-08
2991.0, -3.618e-08
2993.0, -3.824e-08
2995.0, -3.773e-08
2997.0, -3.895e-08
2999.0, -3.987e-08
3001.0, -3.841e-08
3003.0, -3.629e-08
3005.0, -3.41e-08
3007.0, -3.57e-08
3009.0, -3.565e-08
3011.0, -3.483e-08
3013.0, -3.308e-08
3015.0, -3.41e-08
3017.0, -3.408e-08
3019.0, -3.543e-08
3021.0, -3.489e-08
3023.0, -3.717e-08
3025.0, -4.01e-08
3027.0, -3.839e-08
3029.0, -3.746e-08
3031.0, -4.123e-08
3033.0, -4.075e-08
3035.0, -3.615e-08
3037.0, -3.678e-08
3039.0, -3.523e-08
3041.0, -3.614e-08
3043.0, -3.616e-08
3045.0, -3.462e-08
3047.0, -3.689e-08
3049.0, -3.64e-08
3051.0, -3.592e-08
3053.0, -4.054e-08
3055.1, -3.644e-08
3057.1, -3.623e-08
3059.1, -3.362e-08
3061.1, -3.891e-08
3063.1, -3.903e-08
3065.1, -3.821e-08
3067.1, -3.767e-08
3069.1, 2.6631e-07
3071.1, 6.008e-07
3073.1, 5.2735e-07
3075.1, 5.6182e-07
3077.1, 6.0868e-07
3079.1, 6.0582e-07
3081.1, 5.0836e-07
3083.1, 6.396e-07
3085.1, 5.6646e-07
3087.1, 5.8857e-07
3089.1, 5.4599e-07
3091.1, 4.9253e-07
3093.1, 5.4328e-07
3095.1, 6.0646e-07
3097.1, 6.604e-07
3099.1, 6.1662e-07
3101.1, 6.2419e-07
3103.1, 6.5166e-07
3105.1, 6.3082e-07
3107.1, 5.6415e-07
3109.1, 6.869e-07
3111.1, 5.6097e-07
3113.1, 5.4688e-07
3115.1, 5.8145e-07
3117.1, 5.9364e-07
3119.1, 5.7271e-07
3121.1, 6.2636e-07
3123.1, 6.3835e-07
3125.1, 5.8908e-07
3127.1, 5.2396e-07
3129.1, 6.3193e-07
3131.1, 5.6993e-07
3133.1, 6.5615e-07
3135.1, 5.7966e-07
3137.1, 5.9823e-07
3139.1, 5.8926e-07
3141.1, 5.4195e-07
3143.1, 5.2749e-07
3145.1, 6.2193e-07
3147.1, 6.2607e-07
3149.1, 5.6194e-07
3151.1, 5.9979e-07
3153.1, 6.5559e-07
3155.2, 5.7841e-07
3157.2, 5.7597e-07
3159.2, 5.8386e-07
3161.2, 6.0859e-07
3163.2, 5.8831e-07
3165.2, 5.7441e-07
3167.2, 6.5158e-07
3169.2, 6.4563e-07
3171.2, 5.8527e-07
3173.2, 5.9366e-07
3175.2, 5.7473e-07
3177.2, 6.6273e-07
3179.2, 6.1863e-07
3181.2, 5.5456e-07
3183.2, 5.3098e-07
3185.2, 5.5852e-07
3187.2, 5.9582e-07
3189.2, 5.5202e-07
3191.2, 6.3663e-07
3193.2, 6.4019e-07
3195.2, 6.4443e-07
3197.2, 5.2179e-07
3199.2, 5.8149e-07
3201.2, 6.5951e-07
3203.2, 5.5546e-07
3205.2, 5.7156e-07
3207.2, 6.5137e-07
3209.2, 6.0451e-07
3211.2, 6.812e-07
3213.2, 6.2426e-07
3215.2, 5.3787e-07
3217.2, 6.8823e-07
3219.2, 5.5635e-07
3221.2, 6.0495e-07
3223.2, 6.0737e-07
3225.2, 6.6231e-07
3227.2, 6.6392e-07
3229.2, 6.6728e-07
3231.2, 6.4469e-07
3233.2, 5.3762e-07
3235.2, 6.3982e-07
3237.2, 6.0149e-07
3239.2, 6.3159e-07
3241.2, 6.3867e-07
3243.2, 5.7055e-07
3245.2, 5.7045e-07
3247.2, 5.8899e-07
3249.2, 6.5729e-07
3251.2, 5.6748e-07
3253.2, 6.4806e-07
3255.3, 6.264e-07
3257.3, 6.1169e-07
3259.3, 7.032e-07
3261.3, 5.6002e-07
3263.3, 6.7393e-07
3265.3, 5.9591e-07
3267.3, 6.8316e-07
3269.3, 5.9972e-07
3271.3, 7.3694e-07
3273.3, 6.6961e-07
3275.3, 6.7234e-07
3277.3, 6.824e-07
3279.3, 6.8185e-07
3281.3, 7.3092e-07
3283.3, 6.3938e-07
3285.3, 6.0782e-07
3287.3, 6.2607e-07
3289.3, 6.5747e-07
3291.3, 6.2478e-07
3293.3, 5.9345e-07
3295.3, 6.0825e-07
3297.3, 6.7899e-07
3299.3, 6.2367e-07
3301.3, 6.1508e-07
3303.3, 6.299e-07
3305.3, 6.1954e-07
3307.3, 5.8386e-07
3309.3, 6.2185e-07
3311.3, 6.3155e-07
3313.3, 7.229e-07
3315.3, 6.0726e-07
3317.3, 6.8807e-07
3319.3, 5.5323e-07
3321.3, 6.3637e-07
3323.3, 5.5596e-07
3325.3, 5.7757e-07
3327.3, 5.9324e-07
3329.3, 5.7842e-07
3331.3, 6.6994e-07
3333.3, 6.7461e-07
3335.3, 6.6377e-07
3337.3, 6.8073e-07
3339.3, 5.7436e-07
3341.3, 7.1572e-07
3343.3, 6.501e-07
3345.3, 6.8367e-07
3347.3, 5.1892e-07
3349.3, 7.4715e-07
3351.3, 5.4324e-07
3353.3, 6.8945e-07
3355.4, 6.2056e-07
3357.4, 6.2387e-07
3359.4, 6.8856e-07
3361.4, 6.908e-07
3363.4, 5.9865e-07
3365.4, 6.0935e-07
3367.4, 6.0846e-07
3369.4, 7.0885e-07
3371.4, 6.5247e-07
3373.4, 6.3435e-07
3375.4, 6.7595e-07
3377.4, 6.0498e-07
3379.4, 6.007e-07
3381.4, 6.1868e-07
3383.4, 6.213e-07
3385.4, 6.3364e-07
3387.4, 6.7724e-07
3389.4, 6.022e-07
3391.4, 6.0142e-07
3393.4, 6.2796e-07
3395.4, 6.8548e-07
3397.4, 5.3794e-07
3399.4, 6.7046e-07
3401.4, 5.9715e-07
3403.4, 7.1194e-07
3405.4, 6.4988e-07
3407.4, 6.9182e-07
3409.4, 5.9871e-07
3411.4, 6.345e-07
3413.4, 6.8508e-07
3415.4, 5.9834e-07
3417.4, 6.0569e-07
3419.4, 6.3226e-07
3421.4, 6.3974e-07
3423.4, 7.338e-07
3425.4, 6.5643e-07
3427.4, 5.9994e-07
3429.4, 6.8204e-07
3431.4, 6.3351e-07
3433.4, 6.5099e-07
3435.4, 6.425e-07
3437.4, 7.2453e-07
3439.4, 6.0146e-07
3441.4, 6.2599e-07
3443.4, 5.8353e-07
3445.4, 5.9124e-07
3447.4, 5.7852e-07
3449.4, 6.4064e-07
3451.4, 6.9461e-07
3453.4, 6.0193e-07
3455.5, 6.7537e-07
3457.5, 6.655e-07
3459.5, 6.5597e-07
3461.5, 6.076e-07
3463.5, 5.9163e-07
3465.5, 6.8252e-07
3467.5, 6.0452e-07
3469.5, 6.7775e-07
3471.5, 6.6584e-07
3473.5, 6.1311e-07
3475.5, 6.0511e-07
3477.5, 6.2011e-07
3479.5, 6.4142e-07
3481.5, 6.2446e-07
3483.5, 5.7997e-07
3485.5, 6.9214e-07
3487.5, 7.1716e-07
3489.5, 6.8491e-07
3491.5, 7.142e-07
3493.5, 6.4069e-07
3495.5, 6.7041e-07
3497.5, 6.9323e-07
3499.5, 6.4166e-07
3501.5, 5.1724e-07
3503.5, 6.1742e-07
3505.5, 6.0396e-07
3507.5, 6.0098e-07
3509.5, 6.3107e-07
3511.5, 6.3071e-07
3513.5, 6.7903e-07
3515.5, 6.5449e-07
3517.5, 5.9586e-07
3519.5, 6.6015e-07
3521.5, 6.4704e-07
3523.5, 5.6943e-07
3525.5, 7.2766e-07
3527.5, 6.8938e-07
3529.5, 6.3151e-07
3531.5, 7.1572e-07
3533.5, 6.647e-07
3535.5, 6.2555e-07
3537.5, 5.9021e-07
3539.5, 5.9078e-07
3541.5, 6.4094e-07
3543.5, 6.4472e-07
3545.5, 6.1624e-07
3547.5, 6.8354e-07
3549.5, 6.9353e-07
3551.5, 6.7482e-07
3553.5, 6.8375e-07
3555.6, 6.1387e-07
3557.6, 5.3261e-07
3559.6, 5.928e-07
3561.6, 7.0891e-07
3563.6, 5.9579e-07
3565.6, 6.0236e-07
3567.6, 7.2065e-07
3569.6, 7.1953e-07
3571.6, 6.2589e-07
3573.6, 6.9044e-07
3575.6, 6.5008e-07
3577.6, 6.7284e-07
3579.6, 5.4033e-07
3581.6, 6.5135e-07
3583.6, 6.6566e-07
3585.6, 5.9578e-07
3587.6, 6.9332e-07
3589.6, 7.0444e-07
3591.6, 6.0212e-07
3593.6, 5.5424e-07
3595.6, 6.211e-07
3597.6, 6.4325e-07
3599.6, 7.1285e-07
3601.6, 6.7623e-07
3603.6, 6.3682e-07
3605.6, 7.2906e-07
3607.6, 6.4548e-07
3609.6, 5.7879e-07
3611.6, 6.2878e-07
3613.6, 6.7411e-07
3615.6, 6.4859e-07
3617.6, 5.9326e-07
3619.6, 6.1813e-07
3621.6, 6.4672e-07
3623.6, 5.8969e-07
3625.6, 6.2193e-07
3627.6, 6.5077e-07
3629.6, 5.9677e-07
3631.6, 6.0613e-07
3633.6, 7.0329e-07
3635.6, 5.659e-07
3637.6, 6.7858e-07
3639.6, 6.0116e-07
3641.6, 7.952e-07
3643.6, 6.3849e-07
3645.6, 6.6953e-07
3647.6, 5.6606e-07
3649.6, 6.5366e-07
3651.6, 6.7926e-07
3653.6, 6.3502e-07
3655.7, 7.0408e-07
3657.7, 6.3264e-07
3659.7, 5.9636e-07
3661.7, 6.8795e-07
3663.7, 6.6265e-07
3665.7, 6.6321e-07
3667.7, 6.9863e-07
3669.7, 6.1788e-07
3671.7, 6.0161e-07
3673.7, 6.7778e-07
3675.7, 6.174e-07
3677.7, 5.7734e-07
3679.7, 6.8513e-07
3681.7, 6.4752e-07
3683.7, 6.201e-07
3685.7, 6.9426e-07
3687.7, 6.8963e-07
3689.7, 6.6421e-07
3691.7, 7.363e-07
3693.7, 6.0426e-07
3695.7, 6.4102e-07
3697.7, 6.8591e-07
3699.7, 6.2099e-07
3701.7, 7.3532e-07
3703.7, 6.7404e-07
3705.7, 6.4649e-07
3707.7, 5.9982e-07
3709.7, 6.2739e-07
3711.7, 6.0231e-07
3713.7, 6.6007e-07
3715.7, 6.5238e-07
3717.7, 6.2018e-07
3719.7, 6.504e-07
3721.7, 6.3477e-07
3723.7, 6.1264e-07
3725.7, 6.2249e-07
3727.7, 6.5338e-07
3729.7, 6.6026e-07
3731.7, 6.2193e-07
3733.7, 6.534e-07
3735.7, 5.8644e-07
3737.7, 6.2429e-07
3739.7, 5.7916e-07
3741.7, 6.2752e-07
3743.7, 6.3995e-07
3745.7, 6.2008e-07
3747.7, 6.0362e-07
3749.7, 6.3784e-07
3751.7, 6.6066e-07
3753.7, 6.7628e-07
3755.8, 6.4066e-07
3757.8, 6.7291e-07
3759.8, 6.965e-07
3761.8, 6.113e-07
3763.8, 7.4904e-07
3765.8, 6.3304e-07
3767.8, 6.3965e-07
3769.8, 6.7691e-07
3771.8, 6.1429e-07
3773.8, 6.282e-07
3775.8, 6.3527e-07
3777.8, 6.964e-07
3779.8, 6.4399e-07
3781.8, 6.9087e-07
3783.8, 6.3088e-07
3785.8, 5.7949e-07
3787.8, 6.2986e-07
3789.8, 6.1696e-07
3791.8, 6.328e-07
3793.8, 6.7118e-07
3795.8, 6.4422e-07
3797.8, 7.6021e-07
3799.8, 5.9262e-07
3801.8, 6.3063e-07
3803.8, 6.9525e-07
3805.8, 5.932e-07
3807.8, 5.9226e-07
3809.8, 6.846e-07
3811.8, 7.1434e-07
3813.8, 7.3439e-07
3815.8, 6.3969e-07
3817.8, 6.448e-07
3819.8, 6.3405e-07
3821.8, 6.1068e-07
3823.8, 6.9336e-07
3825.8, 6.0441e-07
3827.8, 6.7799e-07
3829.8, 5.8546e-07
3831.8, 5.8098e-07
3833.8, 6.5119e-07
3835.8, 7.342e-07
3837.8, 6.558e-07
3839.8, 7.0873e-07
3841.8, 6.5085e-07
3843.8, 6.3937e-07
3845.8, 6.7492e-07
3847.8, 5.8672e-07
3849.8, 6.8595e-07
3851.8, 5.7786e-07
3853.8, 6.3194e-07
3855.9, 7.0165e-07
3857.9, 6.7532e-07
3859.9, 6.5943e-07
3861.9, 5.6519e-07
3863.9, 7.1469e-07
3865.9, 6.4361e-07
3867.9, 5.9171e-07
3869.9, 7.0938e-07
3871.9, 6.9912e-07
3873.9, 6.5478e-07
3875.9, 6.7879e-07
3877.9, 6.5964e-07
3879.9, 6.7928e-07
3881.9, 6.5776e-07
3883.9, 6.5918e-07
3885.9, 6.5845e-07
3887.9, 7.4632e-07
3889.9, 6.3239e-07
3891.9, 7.0771e-07
3893.9, 6.3225e-07
3895.9, 6.2905e-07
3897.9, 5.8569e-07
3899.9, 6.9348e-07
3901.9, 6.8218e-07
3903.9, 6.1334e-07
3905.9, 6.7158e-07
3907.9, 7.4947e-07
3909.9, 6.4902e-07
3911.9, 6.9989e-07
3913.9, 7.0245e-07
3915.9, 6.3869e-07
3917.9, 6.9478e-07
3919.9, 6.2214e-07
3921.9, 6.055e-07
3923.9, 6.3165e-07
3925.9, 6.6348e-07
3927.9, 6.3045e-07
3929.9, 6.7061e-07
3931.9, 7.0302e-07
3933.9, 6.01e-07
3935.9, 6.8068e-07
3937.9, 6.2975e-07
3939.9, 6.9054e-07
3941.9, 6.3952e-07
3943.9, 6.9118e-07
3945.9, 6.2647e-07
3947.9, 6.636e-07
3949.9, 6.1495e-07
3951.9, 6.5315e-07
3953.9, 6.3418e-07
3956.0, 7.0612e-07
3958.0, 6.6764e-07
3960.0, 6.5329e-07
3962.0, 6.4067e-07
3964.0, 6.3846e-07
3966.0, 6.0009e-07
3968.0, 5.6816e-07
3970.0, 7.418e-07
3972.0, 6.6383e-07
3974.0, 6.8734e-07
3976.0, 6.871e-07
3978.0, 6.7151e-07
3980.0, 7.2671e-07
3982.0, 7.1396e-07
3984.0, 6.3034e-07
3986.0, 6.8676e-07
3988.0, 7.3241e-07
3990.0, 6.9101e-07
3992.0, 6.5883e-07
3994.0, 6.0084e-07
3996.0, 6.9989e-07
3998.0, 7.2052e-07
4000.0, 6.8996e-07
4002.0, 5.9177e-07
4004.0, 6.8975e-07
4006.0, 6.337e-07
4008.0, 7.2798e-07
4010.0, 5.7756e-07
4012.0, 6.2471e-07
4014.0, 6.1575e-07
4016.0, 6.2599e-07
4018.0, 7.0552e-07
4020.0, 6.0522e-07
4022.0, 6.7148e-07
4024.0, 6.5944e-07
4026.0, 7.0466e-07
4028.0, 6.4347e-07
4030.0, 6.4323e-07
4032.0, 5.5339e-07
4034.0, 6.0862e-07
4036.0, 6.5192e-07
4038.0, 5.4133e-07
4040.0, 6.4377e-07
4042.0, 6.3632e-07
4044.0, 6.988e-07
4046.0, 7.5196e-07
4048.0, 5.8355e-07
4050.0, 6.2967e-07
4052.0, 5.4804e-07
4054.0, 6.9329e-07
4056.1, 6.3816e-07
4058.1, 6.5755e-07
4060.1, 6.3086e-07
4062.1, 6.5187e-07
4064.1, 5.7176e-07
4066.1, 7.0557e-07
4068.1, 6.8648e-07
4070.1, 2.967e-07
4072.1, -3.798e-08
4074.1, -3.841e-08
4076.1, -3.878e-08
4078.1, -3.481e-08
4080.1, -3.534e-08
4082.1, -3.812e-08
4084.1, -3.899e-08
4086.1, -4.088e-08
4088.1, -3.845e-08
4090.1, -3.81e-08
4092.1, -3.584e-08
4094.1, -3.797e-08
4096.1, -3.671e-08
4098.1, -3.802e-08
4100.1, -3.969e-08
4102.1, -3.707e-08
4104.1, -3.504e-08
4106.1, -3.788e-08
4108.1, -3.494e-08
4110.1, -3.161e-08
4112.1, -3.261e-08
4114.1, -3.556e-08
4116.1, -3.368e-08
4118.1, -3.412e-08
4120.1, -3.641e-08
4122.1, -3.785e-08
4124.1, -3.762e-08
4126.1, -3.508e-08
4128.1, -3.802e-08
4130.1, -3.383e-08
4132.1, -3.423e-08
4134.1, -3.406e-08
4136.1, -3.656e-08
4138.1, -3.704e-08
4140.1, -3.599e-08
4142.1, -3.136e-08
4144.1, -3.561e-08
4146.1, -3.578e-08
4148.1, -3.763e-08
4150.1, -3.643e-08
4152.1, -3.595e-08
4154.1, -3.217e-08
4156.2, -3.472e-08
4158.2, -3.654e-08
4160.2, -3.678e-08
4162.2, -3.416e-08
4164.2, -3.45e-08
4166.2, -3.442e-08
4168.2, -3.574e-08
4170.2, -3.371e-08
4172.2, -3.374e-08
4174.2, -3.536e-08
4176.2, -3.282e-08
4178.2, -3.338e-08
4180.2, -3.358e-08
4182.2, -3.563e-08
4184.2, -4.041e-08
4186.2, -3.51e-08
4188.2, -3.194e-08
4190.2, -2.88e-08
4192.2, -3.106e-08
4194.2, -3.713e-08
4196.2, -3.546e-08
4198.2, -3.562e-08
4200.2, -3.49e-08
4202.2, -3.502e-08
4204.2, -3.61e-08
4206.2, -3.787e-08
4208.2, -3.899e-08
4210.2, -3.635e-08
4212.2, -3.974e-08
4214.2, -3.646e-08
4216.2, -3.701e-08
4218.2, -3.427e-08
4220.2, -3.607e-08
4222.2, -3.751e-08
4224.2, -3.686e-08
4226.2, -3.767e-08
4228.2, -3.761e-08
4230.2, -3.678e-08
4232.2, -3.045e-08
4234.2, -3.576e-08
4236.2, -3.559e-08
4238.2, -3.624e-08
4240.2, -3.694e-08
4242.2, -3.646e-08
4244.2, -3.511e-08
4246.2, -3.536e-08
4248.2, -3.755e-08
4250.2, -3.815e-08
4252.2, -3.746e-08
4254.2, -3.893e-08
4256.3, -3.79e-08
4258.3, -3.787e-08
4260.3, -3.997e-08
4262.3, -3.982e-08
4264.3, -4.212e-08
4266.3, -4.115e-08
4268.3, -4.397e-08
4270.3, -4.315e-08
4272.3, -4.152e-08
4274.3, -4.46e-08
4276.3, -4.054e-08
4278.3, -4.257e-08
4280.3, -4.002e-08
4282.3, -4.043e-08
4284.3, -3.811e-08
4286.3, -4.132e-08
4288.3, -3.927e-08
4290.3, -3.839e-08
4292.3, -3.656e-08
4294.3, -3.857e-08
4296.3, -3.783e-08
4298.3, -3.818e-08
4300.3, -3.595e-08
4302.3, -3.376e-08
4304.3, -3.567e-08
4306.3, -3.446e-08
4308.3, -3.882e-08
4310.3, -3.439e-08
4312.3, -3.838e-08
4314.3, -4.062e-08
4316.3, -3.788e-08
4318.3, -3.691e-08
4320.3, -3.996e-08
4322.3, -3.611e-08
4324.3, -3.644e-08
4326.3, -3.773e-08
4328.3, -3.413e-08
4330.3, -3.852e-08
4332.3, -3.829e-08
4334.3, -4.041e-08
4336.3, -3.958e-08
4338.3, -4.15e-08
4340.3, -3.785e-08
4342.3, -3.942e-08
4344.3, -3.939e-08
4346.3, -3.834e-08
4348.3, -3.92e-08
4350.3, -4.168e-08
4352.3, -3.824e-08
4354.3, -3.981e-08
4356.4, -4.04e-08
4358.4, -4.095e-08
4360.4, -3.504e-08
4362.4, -3.892e-08
4364.4, -3.78e-08
4366.4, -3.471e-08
4368.4, -3.723e-08
4370.4, -3.747e-08
4372.4, -3.791e-08
4374.4, -3.973e-08
4376.4, -3.853e-08
4378.4, -3.714e-08
4380.4, -3.759e-08
4382.4, -3.61e-08
4384.4, -3.695e-08
4386.4, -3.789e-08
4388.4, -3.639e-08
4390.4, -3.925e-08
4392.4, -3.483e-08
4394.4, -3.568e-08
4396.4, -3.538e-08
4398.4, -3.634e-08
4400.4, -3.867e-08
4402.4, -3.967e-08
4404.4, -3.657e-08
4406.4, -3.827e-08
4408.4, -3.519e-08
4410.4, -3.392e-08
4412.4, -3.509e-08
4414.4, -4.059e-08
4416.4, -3.765e-08
4418.4, -4.113e-08
4420.4, -3.683e-08
4422.4, -3.844e-08
4424.4, -3.848e-08
4426.4, -4e-08
4428.4, -3.977e-08
4430.4, -4.019e-08
4432.4, -3.711e-08
4434.4, -3.706e-08
4436.4, -3.325e-08
4438.4, -3.903e-08
4440.4, -3.724e-08
4442.4, -3.647e-08
4444.4, -3.352e-08
4446.4, -3.789e-08
4448.4, -3.84e-08
4450.4, -3.269e-08
4452.4, -3.493e-08
4454.4, -3.807e-08
4456.5, -3.9e-08
4458.5, -3.922e-08
4460.5, -3.736e-08
4462.5, -3.574e-08
4464.5, -3.341e-08
4466.5, -3.673e-08
4468.5, -3.83e-08
4470.5, -3.102e-08
4472.5, -3.273e-08
4474.5, -3.501e-08
4476.5, -3.326e-08
4478.5, -3.671e-08
4480.5, -3.669e-08
4482.5, -3.696e-08
4484.5, -3.8e-08
4486.5, -3.769e-08
4488.5, -3.825e-08
4490.5, -3.707e-08
4492.5, -3.394e-08
4494.5, -3.79e-08
4496.5, -3.859e-08
4498.5, -3.737e-08
4500.5, -4.037e-08
4502.5, -3.606e-08
4504.5, -3.563e-08
4506.5, -3.464e-08
4508.5, -3.156e-08
4510.5, -3.567e-08
4512.5, -3.739e-08
4514.5, -3.667e-08
4516.5, -3.682e-08
4518.5, -3.695e-08
4520.5, -3.076e-08
4522.5, -3.43e-08
4524.5, -3.741e-08
4526.5, -3.611e-08
4528.5, -3.752e-08
4530.5, -3.526e-08
4532.5, -3.39e-08
4534.5, -3.708e-08
4536.5, -3.551e-08
4538.5, -3.495e-08
4540.5, -3.099e-08
4542.5, -3.68e-08
4544.5, -3.624e-08
4546.5, -3.346e-08
4548.5, -3.165e-08
4550.5, -3.115e-08
4552.5, -3.397e-08
4554.5, -3.288e-08
4556.6, -3.384e-08
4558.6, -3.593e-08
4560.6, -3.232e-08
4562.6, -3.369e-08
4564.6, -3.491e-08
4566.6, -3.336e-08
4568.6, -3.029e-08
4570.6, -3.457e-08
4572.6, -3.187e-08
4574.6, -3.618e-08
4576.6, -3.159e-08
4578.6, -3.231e-08
4580.6, -2.777e-08
4582.6, -3.188e-08
4584.6, -3.569e-08
4586.6, -3.649e-08
4588.6, -3.451e-08
4590.6, -3.991e-08
4592.6, -3.638e-08
4594.6, -3.793e-08
4596.6, -3.755e-08
4598.6, -3.229e-08
4600.6, -3.116e-08
4602.6, -3.224e-08
4604.6, -3.517e-08
4606.6, -3.269e-08
4608.6, -3.14e-08
4610.6, -3.152e-08
4612.6, -2.917e-08
4614.6, -3.266e-08
4616.6, -3.716e-08
4618.6, -3.67e-08
4620.6, -3.177e-08
4622.6, -3.22e-08
4624.6, -3.324e-08
4626.6, -3.19e-08
4628.6, -3.639e-08
4630.6, -3.592e-08
4632.6, -3.489e-08
4634.6, -3.366e-08
4636.6, -3.313e-08
4638.6, -3.388e-08
4640.6, -3.106e-08
4642.6, -3.592e-08
4644.6, -3.632e-08
4646.6, -3.4e-08
4648.6, -3.575e-08
4650.6, -3.319e-08
4652.6, -3.142e-08
4654.6, -3.396e-08
4656.7, -3.357e-08
4658.7, -3.415e-08
4660.7, -3.448e-08
4662.7, -3.608e-08
4664.7, -3.598e-08
4666.7, -3.593e-08
4668.7, -3.893e-08
4670.7, -3.791e-08
4672.7, -3.597e-08
4674.7, -3.94e-08
4676.7, -3.593e-08
4678.7, -3.836e-08
4680.7, -3.611e-08
4682.7, -3.885e-08
4684.7, -3.584e-08
4686.7, -3.859e-08
4688.7, -3.82e-08
4690.7, -3.62e-08
4692.7, -3.495e-08
4694.7, -3.717e-08
4696.7, -3.771e-08
4698.7, -3.546e-08
4700.7, -3.82e-08
4702.7, -3.376e-08
4704.7, -3.943e-08
4706.7, -3.907e-08
4708.7, -3.826e-08
4710.7, -3.5e-08
4712.7, -3.504e-08
4714.7, -3.796e-08
4716.7, -3.648e-08
4718.7, -3.782e-08
4720.7, -3.386e-08
4722.7, -3.646e-08
4724.7, -3.308e-08
4726.7, -3.637e-08
4728.7, -3.596e-08
4730.7, -3.042e-08
4732.7, -3.348e-08
4734.7, -3.321e-08
4736.7, -3.102e-08
4738.7, -3.69e-08
4740.7, -3.808e-08
4742.7, -3.69e-08
4744.7, -3.676e-08
4746.7, -3.613e-08
4748.7, -3.536e-08
4750.7, -3.561e-08
4752.7, -3.439e-08
4754.7, -3.604e-08
4756.8, -3.491e-08
4758.8, -3.197e-08
4760.8, -3.222e-08
4762.8, -3.237e-08
4764.8, -3.216e-08
4766.8, -3.231e-08
4768.8, -3.674e-08
4770.8, -3.307e-08
4772.8, -3.386e-08
4774.8, -3e-08
4776.8, -3.462e-08
4778.8, -3.667e-08
4780.8, -3.706e-08
4782.8, -3.754e-08
4784.8, -3.648e-08
4786.8, -3.43e-08
4788.8, -3.351e-08
4790.8, -3.361e-08
4792.8, -3.437e-08
4794.8, -3.536e-08
4796.8, -3.542e-08
4798.8, -3.657e-08
4800.8, -3.357e-08
4802.8, -3.207e-08
4804.8, -3.178e-08
4806.8, -3.171e-08
4808.8, -3.453e-08
4810.8, -3.743e-08
4812.8, -3.683e-08
4814.8, -3.21e-08
4816.8, -3.705e-08
4818.8, -3.395e-08
4820.8, -3.433e-08
4822.8, -3.264e-08
4824.8, -3.455e-08
4826.8, -3.439e-08
4828.8, -3.449e-08
4830.8, -3.657e-08
4832.8, -3.562e-08
4834.8, -3.244e-08
4836.8, -3.388e-08
4838.8, -3.324e-08
4840.8, -3.123e-08
4842.8, -3.583e-08
4844.8, -3.595e-08
4846.8, -3.732e-08
4848.8, -3.639e-08
4850.8, -3.541e-08
4852.8, -3.286e-08
4854.8, -3.863e-08
4856.9, -3.912e-08
4858.9, -3.61e-08
4860.9, -3.747e-08
4862.9, -3.651e-08
4864.9, -3.589e-08
4866.9, -3.573e-08
4868.9, -3.743e-08
4870.9, -3.835e-08
4872.9, -3.382e-08
4874.9, -3.714e-08
4876.9, -3.843e-08
4878.9, -3.72e-08
4880.9, -3.668e-08
4882.9, -3.872e-08
4884.9, -3.343e-08
4886.9, -3.557e-08
4888.9, -3.39e-08
4890.9, -3.975e-08
4892.9, -3.809e-08
4894.9, -3.543e-08
4896.9, -3.593e-08
4898.9, -3.78e-08
4900.9, -3.566e-08
4902.9, -3.268e-08
4904.9, -3.244e-08
4906.9, -3.54e-08
4908.9, -3.789e-08
4910.9, -3.82e-08
4912.9, -3.61e-08
4914.9, -3.782e-08
4916.9, -3.68e-08
4918.9, -3.82e-08
4920.9, -3.256e-08
4922.9, -3.15e-08
4924.9, -3.273e-08
4926.9, -3.277e-08
4928.9, -3.666e-08
4930.9, -3.581e-08
4932.9, -3.374e-08
4934.9, -3.22e-08
4936.9, -3.424e-08
4938.9, -3.711e-08
4940.9, -3.383e-08
4942.9, -3.537e-08
4944.9, -3.643e-08
4946.9, -3.633e-08
4948.9, -3.795e-08
4950.9, -3.831e-08
4952.9, -3.416e-08
4954.9, -3.577e-08
4957.0, -3.309e-08
4959.0, -3.506e-08
4961.0, -3.427e-08
4963.0, -3.501e-08
4965.0, -3.552e-08
4967.0, -3.796e-08
4969.0, -3.723e-08
4971.0, -3.726e-08
4973.0, -3.685e-08
4975.0, -3.58e-08
4977.0, -3.914e-08
4979.0, -4.182e-08
4981.0, -3.976e-08
4983.0, -3.779e-08
4985.0, -3.726e-08
4987.0, -3.748e-08
4989.0, -3.474e-08
4991.0, -3.338e-08
4993.0, -3.824e-08
4995.0, -3.775e-08
4997.0, -3.609e-08
4999.0, -3.679e-08
5001.0, -3.695e-08
5003.0, -3.657e-08
5005.0, -3.922e-08
5007.0, -3.316e-08
5009.0, -3.61e-08
5011.0, -3.865e-08
5013.0, -3.232e-08
5015.0, -3.302e-08
5017.0, -3e-08
5019.0, -3.199e-08
5021.0, -3.454e-08
5023.0, -3.519e-08
5025.0, -3.382e-08
5027.0, -3.034e-08
5029.0, -3.108e-08
5031.0, -3.394e-08
5033.0, -3.281e-08
5035.0, -3.338e-08
5037.0, -3.444e-08
5039.0, -3.693e-08
5041.0, -3.414e-08
5043.0, -3.372e-08
5045.0, -3.173e-08
5047.0, -3.759e-08
5049.0, -3.557e-08
5051.0, -3.35e-08
5053.0, -3.303e-08
5055.0, -3.274e-08
5057.1, -3.791e-08
5059.1, -3.543e-08
5061.1, -3.219e-08
5063.1, -3.427e-08
5065.1, -3.552e-08
5067.1, -3.622e-08
5069.1, -3.604e-08
5071.1, -3.773e-08
5073.1, -3.579e-08
5075.1, -3.306e-08
5077.1, -3.444e-08
5079.1, -3.799e-08
5081.1, -3.349e-08
5083.1, -3.506e-08
5085.1, -3.433e-08
5087.1, -3.503e-08
5089.1, -3.789e-08
5091.1, -3.594e-08
5093.1, -3.461e-08
5095.1, -3.409e-08
5097.1, -3.769e-08
5099.1, -3.26e-08
5101.1, -3.109e-08
5103.1, -2.911e-08
5105.1, -2.661e-08
5107.1, -3.187e-08
5109.1, -3.164e-08
5111.1, -3.157e-08
5113.1, -2.894e-08
5115.1, -2.859e-08
5117.1, -3.254e-08
5119.1, -3.349e-08
5121.1, -3.058e-08
5123.1, -3.366e-08
5125.1, -3.348e-08
5127.1, -3.317e-08
5129.1, -4.108e-08
5131.1, -3.584e-08
5133.1, -3.379e-08
5135.1, 6.4676e-07
5137.1, 4.776e-07
5139.1, 6.3578e-07
5141.1, 5.0569e-07
5143.1, 6.5504e-07
5145.1, 6.1625e-07
5147.1, 5.8663e-07
5149.1, 5.6999e-07
5151.1, 4.9507e-07
5153.1, 5.5176e-07
5155.1, 6.2764e-07
5157.2, 6.0822e-07
5159.2, 5.7824e-07
5161.2, 6.3443e-07
5163.2, 5.2833e-07
5165.2, 5.3911e-07
5167.2, 5.6737e-07
5169.2, 6.63e-07
5171.2, 5.5243e-07
5173.2, 5.8863e-07
5175.2, 4.9606e-07
5177.2, 5.6221e-07
5179.2, 5.8822e-07
5181.2, 6.1121e-07
5183.2, 5.3526e-07
5185.2, 5.6337e-07
5187.2, 5.9047e-07
5189.2, 5.6554e-07
5191.2, 4.1405e-07
5193.2, 5.211e-07
5195.2, 5.3005e-07
5197.2, 6.2124e-07
5199.2, 4.6334e-07
5201.2, 6.1591e-07
5203.2, 5.9201e-07
5205.2, 5.6926e-07
5207.2, 5.5741e-07
5209.2, 5.4405e-07
5211.2, 5.8469e-07
5213.2, 5.4528e-07
5215.2, 5.1804e-07
5217.2, 6.3094e-07
5219.2, 5.6591e-07
5221.2, 5.7667e-07
5223.2, 5.963e-07
5225.2, 6.4471e-07
5227.2, 6.4282e-07
5229.2, 5.5102e-07
5231.2, 5.6065e-07
5233.2, 5.6408e-07
5235.2, 6.232e-07
5237.2, 6.7757e-07
5239.2, 5.5052e-07
5241.2, 6.5407e-07
5243.2, 5.8677e-07
5245.2, 5.8873e-07
5247.2, 5.5192e-07
5249.2, 5.8909e-07
5251.2, 4.9164e-07
5253.2, 5.7748e-07
5255.2, 5.7711e-07
5257.3, 6.8295e-07
5259.3, 6.1313e-07
5261.3, 5.3649e-07
5263.3, 6.7998e-07
5265.3, 5.9619e-07
5267.3, 6.4156e-07
5269.3, 5.5671e-07
5271.3, 5.3117e-07
5273.3, 5.5886e-07
5275.3, 5.8704e-07
5277.3, 5.4905e-07
5279.3, 5.616e-07
5281.3, 5.5192e-07
5283.3, 6.2203e-07
5285.3, 5.7984e-07
5287.3, 6.8133e-07
5289.3, 6.4176e-07
5291.3, 6.7331e-07
5293.3, 5.4623e-07
5295.3, 5.7265e-07
5297.3, 6.3685e-07
5299.3, 6.0527e-07
5301.3, 6.1361e-07
5303.3, 6.4598e-07
5305.3, 5.6976e-07
5307.3, 6.7801e-07
5309.3, 6.1988e-07
5311.3, 6.0438e-07
5313.3, 6.132e-07
5315.3, 6.1657e-07
5317.3, 6.3798e-07
5319.3, 6.074e-07
5321.3, 5.9362e-07
5323.3, 6.2023e-07
5325.3, 6.0954e-07
5327.3, 5.6812e-07
5329.3, 6.3455e-07
5331.3, 5.9703e-07
5333.3, 5.9414e-07
5335.3, 5.1906e-07
5337.3, 5.7516e-07
5339.3, 6.1624e-07
5341.3, 6.6999e-07
5343.3, 6.0193e-07
5345.3, 6.2111e-07
5347.3, 6.2099e-07
5349.3, 5.7508e-07
5351.3, 6.2425e-07
5353.3, 5.9296e-07
5355.3, 7.4042e-07
5357.4, 6.5757e-07
5359.4, 6.1529e-07
5361.4, 6.2346e-07
5363.4, 6.7782e-07
5365.4, 5.4465e-07
5367.4, 5.7722e-07
5369.4, 6.3918e-07
5371.4, 6.1607e-07
5373.4, 6.7708e-07
5375.4, 6.024e-07
5377.4, 6.2991e-07
5379.4, 5.7204e-07
5381.4, 6.0935e-07
5383.4, 5.9102e-07
5385.4, 5.7844e-07
5387.4, 6.2732e-07
5389.4, 6.5928e-07
5391.4, 5.6227e-07
5393.4, 5.915e-07
5395.4, 6.8608e-07
5397.4, 5.7701e-07
5399.4, 6.6961e-07
5401.4, 6.8865e-07
5403.4, 6.7521e-07
5405.4, 6.8393e-07
5407.4, 5.9727e-07
5409.4, 6.5837e-07
5411.4, 6.0165e-07
5413.4, 5.1779e-07
5415.4, 6.8991e-07
5417.4, 6.3751e-07
5419.4, 6.8065e-07
5421.4, 6.5687e-07
5423.4, 6.0918e-07
5425.4, 6.9885e-07
5427.4, 7.373e-07
5429.4, 6.3048e-07
5431.4, 5.9453e-07
5433.4, 6.5018e-07
5435.4, 6.0757e-07
5437.4, 6.1572e-07
5439.4, 6.0807e-07
5441.4, 6.2832e-07
5443.4, 6.8055e-07
5445.4, 6.2713e-07
5447.4, 6.2174e-07
5449.4, 6.194e-07
5451.4, 6.4292e-07
5453.4, 6.9797e-07
5455.4, 7.2977e-07
5457.5, 6.4197e-07
5459.5, 5.6058e-07
5461.5, 7.3019e-07
5463.5, 6.0459e-07
5465.5, 6.2949e-07
5467.5, 5.9925e-07
5469.5, 5.9666e-07
5471.5, 6.4874e-07
5473.5, 5.5125e-07
5475.5, 7.1218e-07
5477.5, 5.9994e-07
5479.5, 6.5873e-07
5481.5, 6.0213e-07
5483.5, 6.5673e-07
5485.5, 6.3261e-07
5487.5, 6.7208e-07
5489.5, 5.8172e-07
5491.5, 6.2019e-07
5493.5, 6.6295e-07
5495.5, 7.4635e-07
5497.5, 6.3836e-07
5499.5, 6.3664e-07
5501.5, 6.249e-07
5503.5, 5.3904e-07
5505.5, 6.6152e-07
5507.5, 5.8301e-07
5509.5, 5.3724e-07
5511.5, 7.3951e-07
5513.5, 6.1378e-07
5515.5, 5.7262e-07
5517.5, 6.1754e-07
5519.5, 5.7713e-07
5521.5, 6.2489e-07
5523.5, 6.9727e-07
5525.5, 6.7089e-07
5527.5, 6.9179e-07
5529.5, 5.4748e-07
5531.5, 6.5541e-07
5533.5, 5.8303e-07
5535.5, 6.6579e-07
5537.5, 6.0037e-07
5539.5, 7.2519e-07
5541.5, 5.4467e-07
5543.5, 6.0921e-07
5545.5, 6.7957e-07
5547.5, 5.9446e-07
5549.5, 6.7792e-07
5551.5, 6.1466e-07
5553.5, 5.9957e-07
5555.5, 6.1706e-07
5557.6, 5.5423e-07
5559.6, 7.4543e-07
5561.6, 6.7981e-07
5563.6, 7.2969e-07
5565.6, 5.2719e-07
5567.6, 6.1683e-07
5569.6, 6.1138e-07
5571.6, 6.4925e-07
5573.6, 6.1341e-07
5575.6, 6.3159e-07
5577.6, 5.9328e-07
5579.6, 5.9783e-07
5581.6, 5.713e-07
5583.6, 6.0289e-07
5585.6, 6.089e-07
5587.6, 5.1101e-07
5589.6, 6.542e-07
5591.6, 6.6044e-07
5593.6, 6.6746e-07
5595.6, 5.8866e-07
5597.6, 6.388e-07
5599.6, 5.3867e-07
5601.6, 6.4112e-07
5603.6, 6.555e-07
5605.6, 6.9052e-07
5607.6, 6.6699e-07
5609.6, 5.6912e-07
5611.6, 5.6691e-07
5613.6, 6.8427e-07
5615.6, 6.5562e-07
5617.6, 5.9219e-07
5619.6, 6.1693e-07
5621.6, 6.3464e-07
5623.6, 6.33e-07
5625.6, 6.3334e-07
5627.6, 6.1126e-07
5629.6, 5.5678e-07
5631.6, 6.5444e-07
5633.6, 6.2546e-07
5635.6, 6.1949e-07
5637.6, 6.2703e-07
5639.6, 6.333e-07
5641.6, 6.2433e-07
5643.6, 6.1154e-07
5645.6, 6.685e-07
5647.6, 6.1118e-07
5649.6, 5.7902e-07
5651.6, 7.2096e-07
5653.6, 6.7984e-07
5655.6, 7.1571e-07
5657.7, 5.6042e-07
5659.7, 5.959e-07
5661.7, 6.6166e-07
5663.7, 6.4309e-07
5665.7, 6.3606e-07
5667.7, 6.3958e-07
5669.7, 7.165e-07
5671.7, 6.3836e-07
5673.7, 5.6809e-07
5675.7, 5.9515e-07
5677.7, 6.4363e-07
5679.7, 6.2436e-07
5681.7, 5.7406e-07
5683.7, 6.3889e-07
5685.7, 7.0028e-07
5687.7, 6.663e-07
5689.7, 6.6592e-07
5691.7, 6.5982e-07
5693.7, 6.4066e-07
5695.7, 6.4172e-07
5697.7, 6.3008e-07
5699.7, 6.8359e-07
5701.7, 6.4979e-07
5703.7, 6.2823e-07
5705.7, 6.7851e-07
5707.7, 5.8736e-07
5709.7, 6.5067e-07
5711.7, 7.1366e-07
5713.7, 5.9999e-07
5715.7, 6.0606e-07
5717.7, 6.4028e-07
5719.7, 6.5555e-07
5721.7, 6.5695e-07
5723.7, 6.2689e-07
5725.7, 6.6872e-07
5727.7, 6.4091e-07
5729.7, 6.4876e-07
5731.7, 6.8847e-07
5733.7, 6.7182e-07
5735.7, 6.6283e-07
5737.7, 6.4595e-07
5739.7, 6.4173e-07
5741.7, 6.59e-07
5743.7, 7.0258e-07
5745.7, 6.0967e-07
5747.7, 6.6015e-07
5749.7, 6.7118e-07
5751.7, 6.7449e-07
5753.7, 6.692e-07
5755.7, 6.6023e-07
5757.8, 5.9608e-07
5759.8, 5.6391e-07
5761.8, 6.726e-07
5763.8, 6.2732e-07
5765.8, 6.3752e-07
5767.8, 6.9492e-07
5769.8, 7.0237e-07
5771.8, 7.0021e-07
5773.8, 6.0461e-07
5775.8, 5.9004e-07
5777.8, 6.4946e-07
5779.8, 6.876e-07
5781.8, 6.4016e-07
5783.8, 6.5454e-07
5785.8, 5.3882e-07
5787.8, 5.8718e-07
5789.8, 6.283e-07
5791.8, 6.1377e-07
5793.8, 6.6327e-07
5795.8, 6.5891e-07
5797.8, 6.8828e-07
5799.8, 6.055e-07
5801.8, 5.7758e-07
5803.8, 6.1169e-07
5805.8, 6.4201e-07
5807.8, 5.2455e-07
5809.8, 6.1517e-07
5811.8, 6.2844e-07
5813.8, 6.165e-07
5815.8, 7.455e-07
5817.8, 6.1127e-07
5819.8, 7.1469e-07
5821.8, 6.2252e-07
5823.8, 6.1244e-07
5825.8, 7.2937e-07
5827.8, 6.5503e-07
5829.8, 6.0808e-07
5831.8, 5.996e-07
5833.8, 5.7464e-07
5835.8, 6.3969e-07
5837.8, 6.4694e-07
5839.8, 6.7302e-07
5841.8, 6.5864e-07
5843.8, 6.1016e-07
5845.8, 6.0486e-07
5847.8, 6.5442e-07
5849.8, 5.8816e-07
5851.8, 6.4013e-07
5853.8, 5.9583e-07
5855.8, 7.0043e-07
5857.9, 6.6776e-07
5859.9, 6.2848e-07
5861.9, 5.6054e-07
5863.9, 5.7569e-07
5865.9, 6.8984e-07
5867.9, 6.4353e-07
5869.9, 6.1421e-07
5871.9, 6.41e-07
5873.9, 6.554e-07
5875.9, 6.355e-07
5877.9, 6.87e-07
5879.9, 6.4269e-07
5881.9, 6.3727e-07
5883.9, 5.8526e-07
5885.9, 6.4639e-07
5887.9, 5.8619e-07
5889.9, 7.1539e-07
5891.9, 6.0013e-07
5893.9, 6.4741e-07
5895.9, 6.4329e-07
5897.9, 6.227e-07
5899.9, 6.9938e-07
5901.9, 6.7422e-07
5903.9, 5.7565e-07
5905.9, 7.099e-07
5907.9, 6.0922e-07
5909.9, 6.5415e-07
5911.9, 6.5906e-07
5913.9, 6.5311e-07
5915.9, 6.5443e-07
5917.9, 6.0905e-07
5919.9, 6.6619e-07
5921.9, 7.0117e-07
5923.9, 6.8339e-07
5925.9, 6.376e-07
5927.9, 6.9019e-07
5929.9, 6.6189e-07
5931.9, 7.2395e-07
5933.9, 6.8685e-07
5935.9, 6.2781e-07
5937.9, 6.1105e-07
5939.9, 6.4124e-07
5941.9, 6.0159e-07
5943.9, 7.407e-07
5945.9, 6.7214e-07
5947.9, 6.7338e-07
5949.9, 6.2166e-07
5951.9, 6.7077e-07
5953.9, 6.3341e-07
5955.9, 6.8555e-07
5958.0, 6.3184e-07
5960.0, 6.7267e-07
5962.0, 6.7684e-07
5964.0, 6.5882e-07
5966.0, 7.0069e-07
5968.0, 6.7451e-07
5970.0, 5.775e-07
5972.0, 7.0234e-07
5974.0, 6.1938e-07
5976.0, 6.4156e-07
5978.0, 6.8551e-07
5980.0, 6.6482e-07
5982.0, 6.6481e-07
5984.0, 5.9442e-07
5986.0, 6.1964e-07
5988.0, 6.6906e-07
5990.0, 5.2718e-07
5992.0, 6.3059e-07
5994.0, 7.1421e-07
5996.0, 5.9817e-07
5998.0, 7.2884e-07
6000.0, 6.4022e-07
6002.0, 7.1573e-07
6004.0, 6.7864e-07
6006.0, 6.2529e-07
6008.0, 6.813e-07
6010.0, 6.6961e-07
6012.0, 6.4452e-07
6014.0, 6.3034e-07
6016.0, 5.9974e-07
6018.0, 5.7509e-07
6020.0, 6.1886e-07
6022.0, 6.4609e-07
6024.0, 6.3103e-07
6026.0, 5.7315e-07
6028.0, 6.8845e-07
6030.0, 6.7082e-07
6032.0, 6.7784e-07
6034.0, 6.9272e-07
6036.0, 6.7795e-07
6038.0, 6.4649e-07
6040.0, 6.149e-07
6042.0, 6.9369e-07
6044.0, 6.7002e-07
6046.0, 5.8587e-07
6048.0, 6.9994e-07
6050.0, 7.1046e-07
6052.0, 6.1355e-07
6054.0, 5.8154e-07
6056.0, 6.95e-07
6058.1, 6.1077e-07
6060.1, 6.9279e-07
6062.1, 5.9896e-07
6064.1, 7.3996e-07
6066.1, 5.8763e-07
6068.1, 6.4222e-07
6070.1, 6.4785e-07
6072.1, 6.6038e-07
6074.1, 5.9181e-07
6076.1, 6.3062e-07
6078.1, 6.5671e-07
6080.1, 6.5889e-07
6082.1, 6.7914e-07
6084.1, 7.4948e-07
6086.1, 5.5912e-07
6088.1, 6.5716e-07
6090.1, 6.7597e-07
6092.1, 5.9187e-07
6094.1, 6.5827e-07
6096.1, 6.0963e-07
6098.1, 5.9771e-07
6100.1, 6.48e-07
6102.1, 7.0009e-07
6104.1, 5.7783e-07
6106.1, 7.4778e-07
6108.1, 5.9543e-07
6110.1, 5.382e-07
6112.1, 6.0429e-07
6114.1, 6.1025e-07
6116.1, 6.8675e-07
6118.1, 5.503e-07
6120.1, 6.006e-07
6122.1, 6.0298e-07
6124.1, 6.2554e-07
6126.1, 6.5294e-07
6128.1, 6.4538e-07
6130.1, 6.2081e-07
6132.1, 6.5707e-07
6134.1, 6.636e-07
6136.1, -3.103e-08
6138.1, -3.462e-08
6140.1, -3.749e-08
6142.1, -3.566e-08
6144.1, -3.387e-08
6146.1, -3.352e-08
6148.1, -3.401e-08
6150.1, -3.679e-08
6152.1, -3.763e-08
6154.1, -3.609e-08
6156.1, -3.307e-08
6158.2, -3.986e-08
6160.2, -3.784e-08
6162.2, -3.7e-08
6164.2, -3.333e-08
6166.2, -3.131e-08
6168.2, -3.432e-08
6170.2, -3.391e-08
6172.2, -3.748e-08
6174.2, -3.688e-08
6176.2, -3.703e-08
6178.2, -3.867e-08
6180.2, -3.558e-08
6182.2, -3.392e-08
6184.2, -3.74e-08
6186.2, -3.662e-08
6188.2, -3.568e-08
6190.2, -3.613e-08
6192.2, -3.858e-08
6194.2, -3.268e-08
6196.2, -3.308e-08
6198.2, -3.213e-08
6200.2, -3.543e-08
6202.2, -3.387e-08
6204.2, -3.377e-08
6206.2, -3.719e-08
6208.2, -3.735e-08
6210.2, -3.625e-08
6212.2, -3.611e-08
6214.2, -3.584e-08
6216.2, -3.301e-08
6218.2, -3.558e-08
6220.2, -3.373e-08
6222.2, -3.182e-08
6224.2, -3.193e-08
6226.2, -3.371e-08
6228.2, -3.317e-08
6230.2, -3.275e-08
6232.2, -3.743e-08
6234.2, -3.325e-08
6236.2, -3.522e-08
6238.2, -3.305e-08
6240.2, -3.139e-08
6242.2, -3.58e-08
6244.2, -3.621e-08
6246.2, -3.297e-08
6248.2, -3.625e-08
6250.2, -3.683e-08
6252.2, -3.764e-08
6254.2, -3.483e-08
6256.2, -3.807e-08
6258.3, -3.748e-08
6260.3, -3.404e-08
6262.3, -3.565e-08
6264.3, -3.401e-08
6266.3, -3.185e-08
6268.3, -3.494e-08
6270.3, -3.471e-08
6272.3, -3.588e-08
6274.3, -3.467e-08
6276.3, -3.452e-08
6278.3, -3.324e-08
6280.3, -3.31e-08
6282.3, -3.476e-08
6284.3, -3.361e-08
6286.3, -3.518e-08
6288.3, -3.281e-08
6290.3, -3.367e-08
6292.3, -3.543e-08
6294.3, -3.207e-08
6296.3, -3.336e-08
6298.3, -3.331e-08
6300.3, -3.167e-08
6302.3, -3.502e-08
6304.3, -3.392e-08
6306.3, -3.245e-08
6308.3, -3.158e-08
6310.3, -3.064e-08
6312.3, -2.968e-08
6314.3, -3.287e-08
6316.3, -3.338e-08
6318.3, -3.413e-08
6320.3, -3.521e-08
6322.3, -3.546e-08
6324.3, -3.429e-08
6326.3, -3.59e-08
6328.3, -3.27e-08
6330.3, -3.379e-08
6332.3, -3.173e-08
6334.3, -3.318e-08
6336.3, -3.382e-08
6338.3, -3.696e-08
6340.3, -3.538e-08
6342.3, -3.261e-08
6344.3, -3.339e-08
6346.3, -3.423e-08
6348.3, -3.438e-08
6350.3, -3.388e-08
6352.3, -3.526e-08
6354.3, -3.702e-08
6356.3, -3.358e-08
6358.4, -3.627e-08
6360.4, -3.487e-08
6362.4, -3.626e-08
6364.4, -3.307e-08
6366.4, -3.51e-08
6368.4, -3.703e-08
6370.4, -3.401e-08
6372.4, -3.647e-08
6374.4, -3.744e-08
6376.4, -3.525e-08
6378.4, -3.602e-08
6380.4, -3.838e-08
6382.4, -3.549e-08
6384.4, -3.495e-08
6386.4, -3.52e-08
6388.4, -3.597e-08
6390.4, -3.587e-08
6392.4, -3.713e-08
6394.4, -3.76e-08
6396.4, -3.669e-08
6398.4, -3.74e-08
6400.4, -3.727e-08
6402.4, -3.56e-08
6404.4, -3.741e-08
6406.4, -3.904e-08
6408.4, -3.72e-08
6410.4, -3.608e-08
6412.4, -3.419e-08
6414.4, -3.531e-08
6416.4, -3.6e-08
6418.4, -3.605e-08
6420.4, -3.305e-08
6422.4, -3.353e-08
6424.4, -3.387e-08
6426.4, -3.328e-08
6428.4, -3.775e-08
6430.4, -3.539e-08
6432.4, -3.227e-08
6434.4, -3.676e-08
6436.4, -3.319e-08
6438.4, -3.56e-08
6440.4, -3.465e-08
6442.4, -3.68e-08
6444.4, -3.538e-08
6446.4, -3.79e-08
6448.4, -3.43e-08
6450.4, -3.493e-08
6452.4, -3.776e-08
6454.4, -3.54e-08
6456.4, -3.75e-08
6458.5, -3.914e-08
6460.5, -3.95e-08
6462.5, -3.759e-08
6464.5, -3.672e-08
6466.5, -3.628e-08
6468.5, -3.649e-08
6470.5, -4.061e-08
6472.5, -3.755e-08
6474.5, -3.771e-08
6476.5, -3.711e-08
6478.5, -3.735e-08
6480.5, -3.923e-08
6482.5, -3.709e-08
6484.5, -3.357e-08
6486.5, -3.784e-08
6488.5, -3.581e-08
6490.5, -3.713e-08
6492.5, -4.013e-08
6494.5, -3.571e-08
6496.5, -3.563e-08
6498.5, -3.586e-08
6500.5, -3.838e-08
6502.5, -3.659e-08
6504.5, -3.385e-08
6506.5, -3.78e-08
6508.5, -3.409e-08
6510.5, -3.577e-08
6512.5, -3.323e-08
6514.5, -3.892e-08
6516.5, -3.414e-08
6518.5, -3.748e-08
6520.5, -3.594e-08
6522.5, -3.479e-08
6524.5, -3.654e-08
6526.5, -3.487e-08
6528.5, -3.467e-08
6530.5, -3.274e-08
6532.5, -3.141e-08
6534.5, -2.872e-08
6536.5, -3.058e-08
6538.5, -3.278e-08
6540.5, -3.242e-08
6542.5, -3.267e-08
6544.5, -3.29e-08
6546.5, -3.396e-08
6548.5, -2.987e-08
6550.5, -3.382e-08
6552.5, -2.657e-08
6554.5, -3.281e-08
6556.5, -3.405e-08
6558.6, -3.276e-08
6560.6, -3.503e-08
6562.6, -3.41e-08
6564.6, -3.275e-08
6566.6, -2.797e-08
6568.6, -3.32e-08
6570.6, -3.298e-08
6572.6, -3.264e-08
6574.6, -3.359e-08
6576.6, -3.534e-08
6578.6, -3.53e-08
6580.6, -3.561e-08
6582.6, -3.364e-08
6584.6, -2.914e-08
6586.6, -3.097e-08
6588.6, -3.244e-08
6590.6, -3.311e-08
6592.6, -3.163e-08
6594.6, -3.099e-08
6596.6, -2.806e-08
6598.6, -3.064e-08
6600.6, -3.091e-08
6602.6, -3.153e-08
6604.6, -2.987e-08
6606.6, -2.594e-08
6608.6, -2.951e-08
6610.6, -2.933e-08
6612.6, -2.833e-08
6614.6, -2.826e-08
6616.6, -3.06e-08
6618.6, -3.105e-08
6620.6, -3.006e-08
6622.6, -2.998e-08
6624.6, -2.967e-08
6626.6, -3.003e-08
6628.6, -2.733e-08
6630.6, -2.625e-08
6632.6, -3.007e-08
6634.6, -2.965e-08
6636.6, -3.339e-08
6638.6, -3.098e-08
6640.6, -3.224e-08
6642.6, -3.018e-08
6644.6, -2.952e-08
6646.6, -3.194e-08
6648.6, -3.027e-08
6650.6, -3.511e-08
6652.6, -3.419e-08
6654.6, -3.44e-08
6656.6, -3.254e-08
6658.7, -3.047e-08
6660.7, -3.233e-08
6662.7, -3.095e-08
6664.7, -3.259e-08
6666.7, -3.22e-08
6668.7, -3.107e-08
6670.7, -2.965e-08
6672.7, -3.002e-08
6674.7, -2.921e-08
6676.7, -2.954e-08
6678.7, -3.083e-08
6680.7, -3.026e-08
6682.7, -3.282e-08
6684.7, -2.964e-08
6686.7, -3.043e-08
6688.7, -3.195e-08
6690.7, -3.081e-08
6692.7, -3.253e-08
6694.7, -2.901e-08
6696.7, -2.986e-08
6698.7, -3.147e-08
6700.7, -3.057e-08
6702.7, -3.266e-08
6704.7, -3.012e-08
6706.7, -2.542e-08
6708.7, -3.197e-08
6710.7, -3.173e-08
6712.7, -3.675e-08
6714.7, -3.339e-08
6716.7, -3.17e-08
6718.7, -3.14e-08
6720.7, -3.053e-08
6722.7, -2.571e-08
6724.7, -3e-08
6726.7, -2.932e-08
6728.7, -3.294e-08
6730.7, -3.121e-08
6732.7, -2.793e-08
6734.7, -3.176e-08
6736.7, -3.145e-08
6738.7, -3.133e-08
6740.7, -3.051e-08
6742.7, -3.075e-08
6744.7, -2.804e-08
6746.7, -2.78e-08
6748.7, -2.465e-08
6750.7, -3.231e-08
6752.7, -2.497e-08
6754.7, -2.76e-08
6756.7, -3.022e-08
6758.8, -3.258e-08
6760.8, -3.007e-08
6762.8, -2.966e-08
6764.8, -2.709e-08
6766.8, -2.697e-08
6768.8, -2.657e-08
6770.8, -2.666e-08
6772.8, -2.569e-08
6774.8, -2.959e-08
6776.8, -3.042e-08
6778.8, -3.042e-08
6780.8, -3.352e-08
6782.8, -3.327e-08
6784.8, -3.018e-08
6786.8, -2.672e-08
6788.8, -3.277e-08
6790.8, -3.427e-08
6792.8, -3.23e-08
6794.8, -3.258e-08
6796.8, -3.082e-08
6798.8, -3.266e-08
6800.8, -3.091e-08
6802.8, -3.131e-08
6804.8, -3.147e-08
6806.8, -3.319e-08
6808.8, -3.284e-08
6810.8, -3.357e-08
6812.8, -3.458e-08
6814.8, -3.667e-08
6816.8, -3.386e-08
6818.8, -3.415e-08
6820.8, -3.226e-08
6822.8, -3.279e-08
6824.8, -2.816e-08
6826.8, -3.155e-08
6828.8, -3.222e-08
6830.8, -3.412e-08
6832.8, -3.497e-08
6834.8, -3.556e-08
6836.8, -3.344e-08
6838.8, -3.247e-08
6840.8, -3.369e-08
6842.8, -3.25e-08
6844.8, -3.229e-08
6846.8, -3.274e-08
6848.8, -2.941e-08
6850.8, -3.469e-08
6852.8, -3.308e-08
6854.8, -2.881e-08
6856.8, -3.224e-08
6858.9, -3.659e-08
6860.9, -3.544e-08
6862.9, -3.354e-08
6864.9, -3.139e-08
6866.9, -3.609e-08
6868.9, -3.164e-08
6870.9, -3.37e-08
6872.9, -3.723e-08
6874.9, -3.393e-08
6876.9, -3.341e-08
6878.9, -3.449e-08
6880.9, -3.507e-08
6882.9, -3.487e-08
6884.9, -3.516e-08
6886.9, -3.302e-08
6888.9, -3.303e-08
6890.9, -3.168e-08
6892.9, -3.274e-08
6894.9, -2.812e-08
6896.9, -3.156e-08
6898.9, -3.028e-08
6900.9, -3.123e-08
6902.9, -3.264e-08
6904.9, -3.141e-08
6906.9, -3.386e-08
6908.9, -3.473e-08
6910.9, -3.736e-08
6912.9, -3.348e-08
6914.9, -3.341e-08
6916.9, -3.54e-08
6918.9, -3.02e-08
6920.9, -2.986e-08
6922.9, -3.042e-08
6924.9, -3.138e-08
6926.9, -3.211e-08
6928.9, -3.199e-08
6930.9, -3.217e-08
6932.9, -3.229e-08
6934.9, -3.235e-08
6936.9, -2.694e-08
6938.9, -3.144e-08
6940.9, -3.315e-08
6942.9, -3.136e-08
6944.9, -2.792e-08
6946.9, -2.932e-08
6948.9, -3.19e-08
6950.9, -2.91e-08
6952.9, -3.065e-08
6954.9, -3.215e-08
6956.9, -3.442e-08
6959.0, -3.188e-08
6961.0, -3.541e-08
6963.0, -3.556e-08
6965.0, -3.287e-08
6967.0, -3.216e-08
6969.0, -3.332e-08
6971.0, -3.102e-08
6973.0, -3.252e-08
6975.0, -3.006e-08
6977.0, -3.271e-08
6979.0, -3e-08
6981.0, -3.041e-08
6983.0, -3.067e-08
6985.0, -3.143e-08
6987.0, -3.086e-08
6989.0, -2.875e-08
6991.0, -3.019e-08
6993.0, -3.08e-08
6995.0, -2.964e-08
6997.0, -3.339e-08
6999.0, -3.104e-08
7001.0, -3.417e-08
7003.0, -3.333e-08
7005.0, -3.037e-08
7007.0, -3.233e-08
7009.0, -2.806e-08
7011.0, -2.902e-08
7013.0, -2.975e-08
7015.0, -2.992e-08
7017.0, -3.068e-08
7019.0, -2.996e-08
7021.0, -3.475e-08
7023.0, -3.373e-08
7025.0, -3.054e-08
7027.0, -3.027e-08
7029.0, -3.66e-08
7031.0, -3.102e-08
7033.0, -3.315e-08
7035.0, -3.19e-08
7037.0, -2.794e-08
7039.0, -2.996e-08
7041.0, -3.06e-08
7043.0, -3.07e-08
7045.0, -3.217e-08
7047.0, -3.138e-08
7049.0, -2.989e-08
7051.0, -3.254e-08
7053.0, -2.947e-08
7055.0, -3.07e-08
7057.0, -2.856e-08
7059.1, -3.065e-08
7061.1, -2.752e-08
7063.1, -2.786e-08
7065.1, -3.027e-08
7067.1, -3.146e-08
7069.1, -3.374e-08
7071.1, -3.147e-08
7073.1, -2.862e-08
7075.1, -2.996e-08
7077.1, -2.601e-08
7079.1, -2.332e-08
7081.1, -2.737e-08
7083.1, -2.758e-08
7085.1, -2.487e-08
7087.1, -2.962e-08
7089.1, -3.115e-08
7091.1, -2.958e-08
7093.1, -2.911e-08
7095.1, -2.928e-08
7097.1, -2.989e-08
7099.1, -2.951e-08
7101.1, -3.389e-08
7103.1, -3.699e-08
7105.1, -3.465e-08
7107.1, -2.905e-08
7109.1, -2.903e-08
7111.1, -3.4e-08
7113.1, -3.516e-08
7115.1, -3.208e-08
7117.1, -3.315e-08
7119.1, -3.417e-08
7121.1, -3.823e-08
7123.1, -3.272e-08
7125.1, -3.253e-08
7127.1, -3.52e-08
7129.1, -3.273e-08
7131.1, -3.376e-08
7133.1, -3.043e-08
7135.1, -3.12e-08
7137.1, -3.143e-08
7139.1, -3.069e-08
7141.1, -3.019e-08
7143.1, -3.073e-08
7145.1, -3.176e-08
7147.1, -3.32e-08
7149.1, -3.425e-08
7151.1, -3.538e-08
7153.1, -3.496e-08
7155.1, -3.421e-08
7157.1, -3.361e-08
7159.2, -3.42e-08
7161.2, -3.301e-08
7163.2, -3.261e-08
7165.2, -3.403e-08
7167.2, -3.369e-08
7169.2, -3.467e-08
7171.2, -3.641e-08
7173.2, -3.651e-08
7175.2, -3.577e-08
7177.2, -3.655e-08
7179.2, -3.286e-08
7181.2, -3.297e-08
7183.2, -3.533e-08
7185.2, -3.612e-08
7187.2, -3.643e-08
7189.2, 6.6368e-07
7191.2, 5.0464e-07
7193.2, 5.2542e-07
7195.2, 5.6893e-07
7197.2, 6.1466e-07
7199.2, 5.8908e-07
7201.2, 4.7934e-07
7203.2, 5.3877e-07
7205.2, 5.2816e-07
7207.2, 5.1846e-07
7209.2, 5.3085e-07
7211.2, 6.6265e-07
7213.2, 5.4321e-07
7215.2, 5.0295e-07
7217.2, 5.2071e-07
7219.2, 5.8414e-07
7221.2, 5.7976e-07
7223.2, 5.5329e-07
7225.2, 5.2747e-07
7227.2, 5.8748e-07
7229.2, 5.926e-07
7231.2, 5.2716e-07
7233.2, 5.5287e-07
7235.2, 5.1754e-07
7237.2, 5.8021e-07
7239.2, 6.0757e-07
7241.2, 5.6251e-07
7243.2, 4.9858e-07
7245.2, 5.735e-07
7247.2, 5.7608e-07
7249.2, 5.8143e-07
7251.2, 6.2821e-07
7253.2, 5.4809e-07
7255.2, 6.0624e-07
7257.2, 5.809e-07
7259.3, 4.9898e-07
7261.3, 5.1175e-07
7263.3, 5.8185e-07
7265.3, 6.6923e-07
7267.3, 5.327e-07
7269.3, 5.8605e-07
7271.3, 5.5055e-07
7273.3, 6.2057e-07
7275.3, 6.4022e-07
7277.3, 5.2321e-07
7279.3, 5.1273e-07
7281.3, 6.2154e-07
7283.3, 6.4956e-07
7285.3, 6.0877e-07
7287.3, 5.741e-07
7289.3, 6.4564e-07
7291.3, 6.5354e-07
7293.3, 6.2417e-07
7295.3, 5.0718e-07
7297.3, 6.4751e-07
7299.3, 5.8865e-07
7301.3, 6.879e-07
7303.3, 6.3091e-07
7305.3, 6.0573e-07
7307.3, 5.8103e-07
7309.3, 5.3672e-07
7311.3, 6.4005e-07
7313.3, 6.9633e-07
7315.3, 5.2372e-07
7317.3, 5.9759e-07
7319.3, 4.4595e-07
7321.3, 5.86e-07
7323.3, 5.4761e-07
7325.3, 5.4075e-07
7327.3, 6.8543e-07
7329.3, 6.103e-07
7331.3, 5.5967e-07
7333.3, 6.384e-07
7335.3, 6.4704e-07
7337.3, 5.3345e-07
7339.3, 5.1505e-07
7341.3, 5.7481e-07
7343.3, 6.2576e-07
7345.3, 6.1775e-07
7347.3, 6.5775e-07
7349.3, 6.529e-07
7351.3, 6.8789e-07
7353.3, 5.5822e-07
7355.3, 5.5634e-07
7357.3, 6.3415e-07
7359.4, 6.1377e-07
7361.4, 6.7393e-07
7363.4, 5.3375e-07
7365.4, 6.8342e-07
7367.4, 6.3688e-07
7369.4, 5.1312e-07
7371.4, 5.6573e-07
7373.4, 6.0263e-07
7375.4, 6.1324e-07
7377.4, 6.5345e-07
7379.4, 6.061e-07
7381.4, 6.1561e-07
7383.4, 6.4446e-07
7385.4, 6.4663e-07
7387.4, 5.4727e-07
7389.4, 5.6909e-07
7391.4, 5.8725e-07
7393.4, 6.0699e-07
7395.4, 6.9069e-07
7397.4, 7.0405e-07
7399.4, 5.235e-07
7401.4, 6.7136e-07
7403.4, 5.0337e-07
7405.4, 6.9283e-07
7407.4, 5.894e-07
7409.4, 5.7573e-07
7411.4, 5.614e-07
7413.4, 6.4613e-07
7415.4, 6.3591e-07
7417.4, 5.8837e-07
7419.4, 6.192e-07
7421.4, 7.0707e-07
7423.4, 5.6639e-07
7425.4, 5.6626e-07
7427.4, 5.5704e-07
7429.4, 5.969e-07
7431.4, 6.5894e-07
7433.4, 7.2091e-07
7435.4, 5.4918e-07
7437.4, 6.8593e-07
7439.4, 5.9135e-07
7441.4, 6.349e-07
7443.4, 5.5666e-07
7445.4, 6.211e-07
7447.4, 6.5132e-07
7449.4, 5.1414e-07
7451.4, 6.6021e-07
7453.4, 6.059e-07
7455.4, 6.8238e-07
7457.4, 5.9348e-07
7459.5, 6.3524e-07
7461.5, 6.6482e-07
7463.5, 6.3974e-07
7465.5, 5.8037e-07
7467.5, 6.1597e-07
7469.5, 6.1957e-07
7471.5, 6.0199e-07
7473.5, 5.8238e-07
7475.5, 5.9828e-07
7477.5, 5.8647e-07
7479.5, 7.1506e-07
7481.5, 6.2141e-07
7483.5, 6.4371e-07
7485.5, 6.6157e-07
7487.5, 6.1243e-07
7489.5, 5.9701e-07
7491.5, 6.318e-07
7493.5, 6.6723e-07
7495.5, 5.3359e-07
7497.5, 6.1114e-07
7499.5, 6.2307e-07
7501.5, 5.7781e-07
7503.5, 6.5529e-07
7505.5, 6.9075e-07
7507.5, 6.8572e-07
7509.5, 5.927e-07
7511.5, 6.2341e-07
7513.5, 5.7718e-07
7515.5, 5.8655e-07
7517.5, 6.493e-07
7519.5, 6.3264e-07
7521.5, 5.7861e-07
7523.5, 7.0151e-07
7525.5, 6.7343e-07
7527.5, 5.9208e-07
7529.5, 5.95e-07
7531.5, 6.5247e-07
7533.5, 6.4119e-07
7535.5, 6.5752e-07
7537.5, 6.4706e-07
7539.5, 6.7e-07
7541.5, 5.3698e-07
7543.5, 7.1956e-07
7545.5, 5.9946e-07
7547.5, 6.2847e-07
7549.5, 6.738e-07
7551.5, 6.2314e-07
7553.5, 6.3579e-07
7555.5, 6.3075e-07
7557.5, 5.6516e-07
7559.6, 6.5382e-07
7561.6, 5.8651e-07
7563.6, 6.724e-07
7565.6, 5.7141e-07
7567.6, 6.2138e-07
7569.6, 6.7491e-07
7571.6, 5.7429e-07
7573.6, 5.2239e-07
7575.6, 7.0712e-07
7577.6, 6.6607e-07
7579.6, 5.9799e-07
7581.6, 6.0059e-07
7583.6, 6.5697e-07
7585.6, 5.7763e-07
7587.6, 6.6517e-07
7589.6, 6.2307e-07
7591.6, 6.2492e-07
7593.6, 6.9053e-07
7595.6, 6.4555e-07
7597.6, 6.1307e-07
7599.6, 5.7712e-07
7601.6, 5.8538e-07
7603.6, 6.2473e-07
7605.6, 6.8416e-07
7607.6, 5.9666e-07
7609.6, 6.0834e-07
7611.6, 6.2811e-07
7613.6, 5.6681e-07
7615.6, 7.4888e-07
7617.6, 6.4174e-07
7619.6, 5.421e-07
7621.6, 6.4493e-07
7623.6, 5.6098e-07
7625.6, 6.3361e-07
7627.6, 5.738e-07
7629.6, 6.2932e-07
7631.6, 6.8357e-07
7633.6, 6.0804e-07
7635.6, 5.1006e-07
7637.6, 7.2018e-07
7639.6, 5.7483e-07
7641.6, 6.317e-07
7643.6, 6.4161e-07
7645.6, 6.713e-07
7647.6, 6.0591e-07
7649.6, 7.2255e-07
7651.6, 5.6144e-07
7653.6, 6.7166e-07
7655.6, 6.3271e-07
7657.6, 5.9952e-07
7659.7, 6.0356e-07
7661.7, 6.5788e-07
7663.7, 7.0125e-07
7665.7, 6.5593e-07
7667.7, 6.8777e-07
7669.7, 6.3869e-07
7671.7, 6.3358e-07
7673.7, 7.3721e-07
7675.7, 5.9578e-07
7677.7, 5.6409e-07
7679.7, 6.0995e-07
7681.7, 6.4577e-07
7683.7, 6.3894e-07
7685.7, 6.0998e-07
7687.7, 6.4611e-07
7689.7, 6.2454e-07
7691.7, 6.0454e-07
7693.7, 6.1611e-07
7695.7, 5.7904e-07
7697.7, 6.2203e-07
7699.7, 5.6852e-07
7701.7, 6.0953e-07
7703.7, 6.7538e-07
7705.7, 6.8178e-07
7707.7, 5.9279e-07
7709.7, 5.6367e-07
7711.7, 5.9708e-07
7713.7, 6.4624e-07
7715.7, 6.2658e-07
7717.7, 5.7353e-07
7719.7, 7.0868e-07
7721.7, 5.7358e-07
7723.7, 5.6637e-07
7725.7, 6.4753e-07
7727.7, 5.5596e-07
7729.7, 6.6604e-07
7731.7, 6.4084e-07
7733.7, 6.05e-07
7735.7, 6.6563e-07
7737.7, 5.6292e-07
7739.7, 5.8699e-07
7741.7, 7.4281e-07
7743.7, 6.0203e-07
7745.7, 6.5488e-07
7747.7, 6.7486e-07
7749.7, 6.7145e-07
7751.7, 6.7097e-07
7753.7, 6.6437e-07
7755.7, 6.1242e-07
7757.7, 7.1192e-07
7759.8, 6.1622e-07
7761.8, 5.8571e-07
7763.8, 6.1087e-07
7765.8, 6.3107e-07
7767.8, 6.3914e-07
7769.8, 6.2052e-07
7771.8, 5.5434e-07
7773.8, 6.3088e-07
7775.8, 5.9893e-07
7777.8, 6.2438e-07
7779.8, 6.0884e-07
7781.8, 6.3905e-07
7783.8, 6.8054e-07
7785.8, 6.2092e-07
7787.8, 6.2489e-07
7789.8, 6.5774e-07
7791.8, 7.1421e-07
7793.8, 5.99e-07
7795.8, 6.582e-07
7797.8, 6.7261e-07
7799.8, 5.5396e-07
7801.8, 6.5919e-07
7803.8, 7.1739e-07
7805.8, 7.1867e-07
7807.8, 6.3398e-07
7809.8, 6.7618e-07
7811.8, 6.5064e-07
7813.8, 5.9357e-07
7815.8, 6.42e-07
7817.8, 6.4784e-07
7819.8, 6.3184e-07
7821.8, 7.3809e-07
7823.8, 6.562e-07
7825.8, 6.5828e-07
7827.8, 6.4543e-07
7829.8, 6.8615e-07
7831.8, 6.7262e-07
7833.8, 6.5201e-07
7835.8, 7.0503e-07
7837.8, 6.196e-07
7839.8, 6.0501e-07
7841.8, 6.5448e-07
7843.8, 6.4762e-07
7845.8, 6.6415e-07
7847.8, 6.1537e-07
7849.8, 6.2013e-07
7851.8, 7.3865e-07
7853.8, 6.5488e-07
7855.8, 6.7406e-07
7857.8, 6.3203e-07
7859.9, 6.7666e-07
7861.9, 5.2132e-07
7863.9, 6.6175e-07
7865.9, 6.365e-07
7867.9, 6.0495e-07
7869.9, 6.3963e-07
7871.9, 5.8847e-07
7873.9, 5.5409e-07
7875.9, 6.3925e-07
7877.9, 6.905e-07
7879.9, 6.6963e-07
7881.9, 6.1512e-07
7883.9, 5.9239e-07
7885.9, 6.296e-07
7887.9, 6.5614e-07
7889.9, 6.3117e-07
7891.9, 6.4865e-07
7893.9, 6.4862e-07
7895.9, 6.5495e-07
7897.9, 5.5847e-07
7899.9, 5.8798e-07
7901.9, 6.4711e-07
7903.9, 6.0642e-07
7905.9, 6.1621e-07
7907.9, 6.5312e-07
7909.9, 6.0581e-07
7911.9, 5.9546e-07
7913.9, 5.8019e-07
7915.9, 6.0606e-07
7917.9, 6.4257e-07
7919.9, 6.2493e-07
7921.9, 6.4452e-07
7923.9, 5.2711e-07
7925.9, 6.5138e-07
7927.9, 6.9139e-07
7929.9, 8.001e-07
7931.9, 6.3e-07
7933.9, 6.849e-07
7935.9, 6.6536e-07
7937.9, 6.6846e-07
7939.9, 6.6497e-07
7941.9, 5.6263e-07
7943.9, 7.4583e-07
7945.9, 6.4754e-07
7947.9, 7.3308e-07
7949.9, 6.7087e-07
7951.9, 6.8459e-07
7953.9, 6.9145e-07
7955.9, 6.4043e-07
7957.9, 5.7652e-07
7960.0, 6.1538e-07
7962.0, 6.9093e-07
7964.0, 5.6633e-07
7966.0, 6.764e-07
7968.0, 7.3149e-07
7970.0, 6.8608e-07
7972.0, 5.9514e-07
7974.0, 5.829e-07
7976.0, 5.9064e-07
7978.0, 6.1528e-07
7980.0, 6.5085e-07
7982.0, 6.7731e-07
7984.0, 6.4845e-07
7986.0, 6.1936e-07
7988.0, 6.6933e-07
7990.0, 6.0793e-07
7992.0, 6.5172e-07
7994.0, 6.0993e-07
7996.0, 6.2835e-07
7998.0, 6.2171e-07
8000.0, 7.3241e-07
8002.0, 6.1083e-07
8004.0, 6.7035e-07
8006.0, 5.9121e-07
8008.0, 6.2366e-07
8010.0, 6.1675e-07
8012.0, 6.6861e-07
8014.0, 5.3075e-07
8016.0, 6.3081e-07
8018.0, 5.9377e-07
8020.0, 6.1238e-07
8022.0, 5.81e-07
8024.0, 6.2613e-07
8026.0, 5.963e-07
8028.0, 6.0942e-07
8030.0, 6.0072e-07
8032.0, 5.911e-07
8034.0, 6.7707e-07
8036.0, 6.6003e-07
8038.0, 6.4154e-07
8040.0, 5.5624e-07
8042.0, 6.2708e-07
8044.0, 6.718e-07
8046.0, 7.1729e-07
8048.0, 5.9103e-07
8050.0, 6.4836e-07
8052.0, 6.7788e-07
8054.0, 6.7269e-07
8056.0, 6.6997e-07
8058.0, 6.334e-07
8060.1, 5.7531e-07
8062.1, 6.838e-07
8064.1, 6.7442e-07
8066.1, 6.1279e-07
8068.1, 7.0077e-07
8070.1, 6.9881e-07
8072.1, 6.8368e-07
8074.1, 5.5823e-07
8076.1, 7.1723e-07
8078.1, 6.9762e-07
8080.1, 7.1133e-07
8082.1, 6.7828e-07
8084.1, 6.2678e-07
8086.1, 6.839e-07
8088.1, 6.6711e-07
8090.1, 7.3643e-07
8092.1, 6.5697e-07
8094.1, 6.7229e-07
8096.1, 6.0374e-07
8098.1, 6.5087e-07
8100.1, 6.8345e-07
8102.1, 5.9074e-07
8104.1, 7.1066e-07
8106.1, 7.2277e-07
8108.1, 6.1848e-07
8110.1, 6.0239e-07
8112.1, 6.3873e-07
8114.1, 6.0608e-07
8116.1, 6.5271e-07
8118.1, 6.6145e-07
8120.1, 6.4061e-07
8122.1, 6.5497e-07
8124.1, 6.9011e-07
8126.1, 6.7121e-07
8128.1, 6.7492e-07
8130.1, 5.3514e-07
8132.1, 6.245e-07
8134.1, 6.3403e-07
8136.1, 6.1434e-07
8138.1, 6.3157e-07
8140.1, 5.9891e-07
8142.1, 6.1087e-07
8144.1, 6.043e-07
8146.1, 5.9564e-07
8148.1, 6.4735e-07
8150.1, 7.0862e-07
8152.1, 6.3039e-07
8154.1, 6.1995e-07
8156.1, 6.8155e-07
8158.1, 5.7867e-07
8160.2, 6.1549e-07
8162.2, 6.1275e-07
8164.2, 7.318e-07
8166.2, 5.4732e-07
8168.2, 6.6851e-07
8170.2, 6.5029e-07
8172.2, 6.4028e-07
8174.2, 6.6597e-07
8176.2, 6.109e-07
8178.2, 6.3332e-07
8180.2, 6.4726e-07
8182.2, 6.5401e-07
8184.2, 6.4515e-07
8186.2, 7.1693e-07
8188.2, 5.9073e-07
8190.2, -3.289e-08
8192.2, -3.704e-08
8194.2, -3.725e-08
8196.2, -3.758e-08
8198.2, -3.595e-08
8200.2, -3.57e-08
8202.2, -3.715e-08
8204.2, -3.777e-08
8206.2, -3.385e-08
8208.2, -3.718e-08
8210.2, -3.468e-08
8212.2, -3.739e-08
8214.2, -3.779e-08
8216.2, -3.455e-08
8218.2, -3.503e-08
8220.2, -3.631e-08
8222.2, -3.775e-08
8224.2, -3.767e-08
8226.2, -3.593e-08
8228.2, -3.756e-08
8230.2, -3.488e-08
8232.2, -3.734e-08
8234.2, -3.557e-08
8236.2, -3.464e-08
8238.2, -3.544e-08
8240.2, -3.66e-08
8242.2, -4.001e-08
8244.2, -3.565e-08
8246.2, -3.695e-08
8248.2, -4.18e-08
8250.2, -3.67e-08
8252.2, -3.746e-08
8254.2, -3.692e-08
8256.2, -3.537e-08
8258.2, -3.631e-08
8260.3, -3.396e-08
8262.3, -3.713e-08
8264.3, -3.556e-08
8266.3, -3.824e-08
8268.3, -3.672e-08
8270.3, -4.08e-08
8272.3, -3.659e-08
8274.3, -3.723e-08
8276.3, -3.365e-08
8278.3, -3.44e-08
8280.3, -3.457e-08
8282.3, -3.923e-08
8284.3, -3.717e-08
8286.3, -3.821e-08
8288.3, -3.85e-08
8290.3, -3.636e-08
8292.3, -3.586e-08
8294.3, -3.781e-08
8296.3, -3.914e-08
8298.3, -3.234e-08
8300.3, -3.716e-08
8302.3, -4.101e-08
8304.3, -3.943e-08
8306.3, -3.534e-08
8308.3, -3.563e-08
8310.3, -3.807e-08
8312.3, -3.839e-08
8314.3, -3.98e-08
8316.3, -3.695e-08
8318.3, -4.037e-08
8320.3, -3.631e-08
8322.3, -3.413e-08
8324.3, -3.64e-08
8326.3, -3.637e-08
8328.3, -3.387e-08
8330.3, -3.215e-08
8332.3, -3.793e-08
8334.3, -3.724e-08
8336.3, -3.442e-08
8338.3, -3.7e-08
8340.3, -3.565e-08
8342.3, -3.497e-08
8344.3, -3.591e-08
8346.3, -3.496e-08
8348.3, -3.914e-08
8350.3, -3.536e-08
8352.3, -3.246e-08
8354.3, -3.445e-08
8356.3, -3.336e-08
8358.3, -3.078e-08
8360.4, -3.625e-08
8362.4, -3.484e-08
8364.4, -3.347e-08
8366.4, -3.574e-08
8368.4, -3.334e-08
8370.4, -3.456e-08
8372.4, -3.432e-08
8374.4, -3.268e-08
8376.4, -3.145e-08
8378.4, -3.438e-08
8380.4, -3.227e-08
8382.4, -3.132e-08
8384.4, -3.346e-08
8386.4, -3.751e-08
8388.4, -3.795e-08
8390.4, -3.627e-08
8392.4, -3.735e-08
8394.4, -3.564e-08
8396.4, -3.439e-08
8398.4, -3.413e-08
8400.4, -2.973e-08
8402.4, -3.037e-08
8404.4, -3.43e-08
8406.4, -3.422e-08
8408.4, -3.283e-08
8410.4, -3.328e-08
8412.4, -3.447e-08
8414.4, -3.283e-08
8416.4, -3.47e-08
8418.4, -3.339e-08
8420.4, -3.486e-08
8422.4, -3.076e-08
8424.4, -3.436e-08
8426.4, -3.348e-08
8428.4, -3.002e-08
8430.4, -3.401e-08
8432.4, -3.478e-08
8434.4, -3.502e-08
8436.4, -3.467e-08
8438.4, -3.617e-08
8440.4, -3.675e-08
8442.4, -3.669e-08
8444.4, -3.568e-08
8446.4, -3.894e-08
8448.4, -3.562e-08
8450.4, -3.625e-08
8452.4, -3.764e-08
8454.4, -3.539e-08
8456.4, -3.259e-08
8458.4, -3.184e-08
8460.5, -3.475e-08
8462.5, -3.374e-08
8464.5, -3.368e-08
8466.5, -3.265e-08
8468.5, -3.5e-08
8470.5, -3.382e-08
8472.5, -3.442e-08
8474.5, -3.345e-08
8476.5, -3.552e-08
8478.5, -3.031e-08
8480.5, -3.39e-08
8482.5, -3.339e-08
8484.5, -3.658e-08
8486.5, -3.275e-08
8488.5, -3.654e-08
8490.5, -3.233e-08
8492.5, -3.47e-08
8494.5, -3.058e-08
8496.5, -2.947e-08
8498.5, -3.073e-08
8500.5, -3.013e-08
8502.5, -2.991e-08
8504.5, -2.935e-08
8506.5, -3.048e-08
8508.5, -3.112e-08
8510.5, -3.431e-08
8512.5, -3.198e-08
8514.5, -3.47e-08
8516.5, -3.133e-08
8518.5, -3.304e-08
8520.5, -3.456e-08
8522.5, -3.655e-08
8524.5, -3.351e-08
8526.5, -3.21e-08
8528.5, -3.372e-08
8530.5, -3.333e-08
8532.5, -3.481e-08
8534.5, -3.329e-08
8536.5, -3.259e-08
8538.5, -3.14e-08
8540.5, -3.445e-08
8542.5, -3.293e-08
8544.5, -3.307e-08
8546.5, -3.109e-08
8548.5, -3.306e-08
8550.5, -2.987e-08
8552.5, -3.397e-08
8554.5, -3.365e-08
8556.5, -3.583e-08
8558.5, -3.416e-08
8560.6, -3.156e-08
8562.6, -3.095e-08
8564.6, -3.404e-08
8566.6, -3.402e-08
8568.6, -3.112e-08
8570.6, -3.363e-08
8572.6, -3.094e-08
8574.6, -3.451e-08
8576.6, -3.083e-08
8578.6, -3.327e-08
8580.6, -3.063e-08
8582.6, -3.112e-08
8584.6, -3.311e-08
8586.6, -3.48e-08
8588.6, -3.453e-08
8590.6, -3.194e-08
8592.6, -3.457e-08
8594.6, -3.294e-08
8596.6, -3.552e-08
8598.6, -2.99e-08
8600.6, -3.212e-08
8602.6, -3.626e-08
8604.6, -3.437e-08
8606.6, -3.451e-08
8608.6, -3.263e-08
8610.6, -2.957e-08
8612.6, -3.088e-08
8614.6, -3.246e-08
8616.6, -2.694e-08
8618.6, -3.223e-08
8620.6, -3e-08
8622.6, -2.988e-08
8624.6, -2.929e-08
8626.6, -3.133e-08
8628.6, -3.518e-08
8630.6, -3.429e-08
8632.6, -3.886e-08
8634.6, -3.277e-08
8636.6, -3.848e-08
8638.6, -3.151e-08
8640.6, -3.619e-08
8642.6, -3.842e-08
8644.6, -3.421e-08
8646.6, -3.378e-08
8648.6, -2.965e-08
8650.6, -3.693e-08
8652.6, -3.539e-08
8654.6, -3.717e-08
8656.6, -3.656e-08
8658.6, -3.74e-08
8660.7, -3.729e-08
8662.7, -3.37e-08
8664.7, -3.949e-08
8666.7, -3.934e-08
8668.7, -3.675e-08
8670.7, -3.912e-08
8672.7, -3.976e-08
8674.7, -3.711e-08
8676.7, -3.663e-08
8678.7, -3.641e-08
8680.7, -3.5e-08
8682.7, -3.898e-08
8684.7, -3.897e-08
8686.7, -3.562e-08
8688.7, -3.257e-08
8690.7, -3.739e-08
8692.7, -3.481e-08
8694.7, -3.683e-08
8696.7, -3.848e-08
8698.7, -3.571e-08
8700.7, -3.578e-08
8702.7, -3.688e-08
8704.7, -3.675e-08
8706.7, -3.686e-08
8708.7, -3.78e-08
8710.7, -3.689e-08
8712.7, -3.595e-08
8714.7, -3.354e-08
8716.7, -3.481e-08
8718.7, -3.837e-08
8720.7, -3.711e-08
8722.7, -3.731e-08
8724.7, -3.406e-08
8726.7, -3.213e-08
8728.7, -3.561e-08
8730.7, -3.133e-08
8732.7, -3.233e-08
8734.7, -3.427e-08
8736.7, -3.311e-08
8738.7, -3.158e-08
8740.7, -3.281e-08
8742.7, -3.187e-08
8744.7, -3.683e-08
8746.7, -3.339e-08
8748.7, -3.277e-08
8750.7, -3.493e-08
8752.7, -3.106e-08
8754.7, -3.284e-08
8756.7, -3.331e-08
8758.7, -3.311e-08
8760.8, -3.173e-08
8762.8, -3.225e-08
8764.8, -3.26e-08
8766.8, -2.89e-08
8768.8, -3.415e-08
8770.8, -3.413e-08
8772.8, -3.306e-08
8774.8, -3.088e-08
8776.8, -3.296e-08
8778.8, -2.803e-08
8780.8, -3.401e-08
8782.8, -3.344e-08
8784.8, -3.033e-08
8786.8, -3.259e-08
8788.8, -3.248e-08
8790.8, -3.173e-08
8792.8, -3.357e-08
8794.8, -3.114e-08
8796.8, -3.715e-08
8798.8, -3.363e-08
8800.8, -3.549e-08
8802.8, -4.045e-08
8804.8, -3.726e-08
8806.8, -3.596e-08
8808.8, -3.912e-08
8810.8, -3.725e-08
8812.8, -3.879e-08
8814.8, -3.961e-08
8816.8, -3.956e-08
8818.8, -3.54e-08
8820.8, -3.405e-08
8822.8, -3.593e-08
8824.8, -3.466e-08
8826.8, -3.628e-08
8828.8, -3.689e-08
8830.8, -3.533e-08
8832.8, -3.589e-08
8834.8, -3.611e-08
8836.8, -3.778e-08
8838.8, -3.431e-08
8840.8, -3.389e-08
8842.8, -3.365e-08
8844.8, -3.507e-08
8846.8, -3.139e-08
8848.8, -3.614e-08
8850.8, -3.261e-08
8852.8, -3.595e-08
8854.8, -3.706e-08
8856.8, -3.3e-08
8858.8, -3.234e-08
8860.9, -3.401e-08
8862.9, -3.684e-08
8864.9, -3.821e-08
8866.9, -3.708e-08
8868.9, -3.4e-08
8870.9, -3.644e-08
8872.9, -3.352e-08
8874.9, -3.962e-08
8876.9, -3.812e-08
8878.9, -3.409e-08
8880.9, -3.464e-08
8882.9, -3.491e-08
8884.9, -3.311e-08
8886.9, -3.72e-08
8888.9, -3.343e-08
8890.9, -3.492e-08
8892.9, -3.687e-08
8894.9, -3.518e-08
8896.9, -3.404e-08
8898.9, -3.59e-08
8900.9, -3.54e-08
8902.9, -3.392e-08
8904.9, -3.198e-08
8906.9, -3.439e-08
8908.9, -3.071e-08
8910.9, -3.255e-08
8912.9, -2.98e-08
8914.9, -3.463e-08
8916.9, -3.368e-08
8918.9, -3.587e-08
8920.9, -3.668e-08
8922.9, -3.689e-08
8924.9, -3.507e-08
8926.9, -3.641e-08
8928.9, -3.474e-08
8930.9, -3.341e-08
8932.9, -3.19e-08
8934.9, -3.115e-08
8936.9, -3.295e-08
8938.9, -3.756e-08
8940.9, -3.439e-08
8942.9, -3.557e-08
8944.9, -3.636e-08
8946.9, -3.928e-08
8948.9, -3.8e-08
8950.9, -3.68e-08
8952.9, -3.657e-08
8954.9, -3.256e-08
8956.9, -3.166e-08
8958.9, -3.324e-08
8961.0, -3.25e-08
8963.0, -3.693e-08
8965.0, -3.426e-08
8967.0, -3.291e-08
8969.0, -3.541e-08
8971.0, -3.546e-08
8973.0, -3.469e-08
8975.0, -3.661e-08
8977.0, -3.444e-08
8979.0, -3.768e-08
8981.0, -3.564e-08
8983.0, -3.513e-08
8985.0, -3.687e-08
8987.0, -3.915e-08
8989.0, -3.681e-08
8991.0, -4.116e-08
8993.0, -3.555e-08
8995.0, -3.599e-08
8997.0, -3.581e-08
8999.0, -3.319e-08
9001.0, -3.642e-08
9003.0, -3.514e-08
9005.0, -3.736e-08
9007.0, -3.621e-08
9009.0, -3.423e-08
9011.0, -3.685e-08
9013.0, -3.65e-08
9015.0, -3.607e-08
9017.0, -3.284e-08
9019.0, -3.017e-08
9021.0, -3.195e-08
9023.0, -3.831e-08
9025.0, -3.699e-08
9027.0, -3.286e-08
9029.0, -3.157e-08
9031.0, -3.605e-08
9033.0, -3.566e-08
9035.0, -3.612e-08
9037.0, -3.451e-08
9039.0, -3.378e-08
9041.0, -3.434e-08
9043.0, -3.47e-08
9045.0, -3.531e-08
9047.0, -3.022e-08
9049.0, -3.317e-08
9051.0, -3.321e-08
9053.0, -3.412e-08
9055.0, -3.515e-08
9057.0, -3.573e-08
9059.0, -3.456e-08
9061.1, -3.453e-08
9063.1, -3.347e-08
9065.1, -3.159e-08
9067.1, -3.381e-08
9069.1, -3.516e-08
9071.1, -3.521e-08
9073.1, -3.325e-08
9075.1, -3.001e-08
9077.1, -3.742e-08
9079.1, -3.574e-08
9081.1, -3.371e-08
9083.1, -3.529e-08
9085.1, -3.511e-08
9087.1, -3.434e-08
9089.1, -3.493e-08
9091.1, -3.917e-08
9093.1, -3.343e-08
9095.1, -3.216e-08
9097.1, -3.196e-08
9099.1, -3.52e-08
9101.1, -3.54e-08
9103.1, -3.52e-08
9105.1, -3.303e-08
9107.1, -3.882e-08
9109.1, -3.67e-08
9111.1, -3.628e-08
9113.1, -3.553e-08
9115.1, -3.445e-08
9117.1, -3.676e-08
9119.1, -3.284e-08
9121.1, -3.443e-08
9123.1, -3.638e-08
9125.1, -3.519e-08
9127.1, -3.548e-08
9129.1, -3.293e-08
9131.1, -3.562e-08
9133.1, -3.665e-08
9135.1, -3.546e-08
9137.1, -3.91e-08
9139.1, -3.77e-08
9141.1, -3.568e-08
9143.1, -3.502e-08
9145.1, -3.451e-08
9147.1, -3.464e-08
9149.1, -3.544e-08
9151.1, -3.664e-08
9153.1, -3.729e-08
9155.1, -3.668e-08
9157.1, -3.574e-08
9159.1, -2.969e-08
9161.2, -3.364e-08
9163.2, -3.649e-08
9165.2, -3.372e-08
9167.2, -3.135e-08
9169.2, -3.135e-08
9171.2, -3.381e-08
9173.2, -3.753e-08
9175.2, -3.554e-08
9177.2, -3.567e-08
9179.2, -3.689e-08
9181.2, -3.879e-08
9183.2, -3.934e-08
9185.2, -3.763e-08
9187.2, -3.725e-08
9189.2, -3.461e-08
9191.2, -3.235e-08
9193.2, -3.716e-08
9195.2, -3.777e-08
9197.2, -4.025e-08
9199.2, -3.513e-08
9201.2, -3.562e-08
9203.2, -3.436e-08
9205.2, -3.543e-08
9207.2, -3.556e-08
9209.2, -3.348e-08
9211.2, -3.837e-08
9213.2, -3.6e-08
9215.2, -3.626e-08
9217.2, -3.619e-08
9219.2, -3.374e-08
9221.2, -3.523e-08
9223.2, -3.587e-08
9225.2, -3.338e-08
9227.2, -3.466e-08
9229.2, -3.465e-08
9231.2, -3.395e-08
9233.2, -3.66e-08
9235.2, -3.411e-08
9237.2, -3.333e-08
9239.2, -3.44e-08
9241.2, -3.453e-08
9243.2, 6.4679e-07
9245.2, 5.8206e-07
9247.2, 5.3953e-07
9249.2, 5.5352e-07
9251.2, 5.3119e-07
9253.2, 5.1159e-07
9255.2, 5.0585e-07
9257.2, 5.479e-07
9259.2, 6.9285e-07
9261.3, 4.7048e-07
9263.3, 6.0328e-07
9265.3, 5.5329e-07
9267.3, 5.0764e-07
9269.3, 5.6825e-07
9271.3, 5.4801e-07
9273.3, 5.444e-07
9275.3, 6.2671e-07
9277.3, 6.2442e-07
9279.3, 5.8419e-07
9281.3, 5.0189e-07
9283.3, 5.0005e-07
9285.3, 5.4599e-07
9287.3, 4.9542e-07
9289.3, 5.5153e-07
9291.3, 5.3775e-07
9293.3, 6.0165e-07
9295.3, 5.3831e-07
9297.3, 5.3937e-07
9299.3, 5.1674e-07
9301.3, 5.6366e-07
9303.3, 5.9015e-07
9305.3, 5.8087e-07
9307.3, 5.7372e-07
9309.3, 6.653e-07
9311.3, 7.2648e-07
9313.3, 5.1576e-07
9315.3, 5.6771e-07
9317.3, 5.6192e-07
9319.3, 5.7015e-07
9321.3, 5.9729e-07
9323.3, 6.3007e-07
9325.3, 5.6415e-07
9327.3, 5.1028e-07
9329.3, 5.5512e-07
9331.3, 6.1211e-07
9333.3, 5.3932e-07
9335.3, 5.5056e-07
9337.3, 5.8905e-07
9339.3, 6.5876e-07
9341.3, 5.6077e-07
9343.3, 6.5655e-07
9345.3, 6.2359e-07
9347.3, 6.7381e-07
9349.3, 6.2202e-07
9351.3, 5.5857e-07
9353.3, 6.3098e-07
9355.3, 5.717e-07
9357.3, 6.458e-07
9359.3, 5.8461e-07
9361.4, 6.1318e-07
9363.4, 5.7921e-07
9365.4, 5.3844e-07
9367.4, 5.6697e-07
9369.4, 5.0912e-07
9371.4, 5.4904e-07
9373.4, 6.5736e-07
9375.4, 6.1746e-07
9377.4, 5.9475e-07
9379.4, 6.1815e-07
9381.4, 5.6743e-07
9383.4, 6.8664e-07
9385.4, 5.9099e-07
9387.4, 5.4799e-07
9389.4, 5.9975e-07
9391.4, 5.7482e-07
9393.4, 5.886e-07
9395.4, 6.336e-07
9397.4, 6.22e-07
9399.4, 6.6683e-07
9401.4, 6.5352e-07
9403.4, 7.0185e-07
9405.4, 5.1911e-07
9407.4, 5.3911e-07
9409.4, 6.4068e-07
9411.4, 6.4696e-07
9413.4, 6.3989e-07
9415.4, 5.1398e-07
9417.4, 5.9521e-07
9419.4, 5.6186e-07
9421.4, 6.7148e-07
9423.4, 6.0657e-07
9425.4, 5.6262e-07
9427.4, 7.3565e-07
9429.4, 6.2709e-07
9431.4, 5.589e-07
9433.4, 5.7143e-07
9435.4, 6.4494e-07
9437.4, 6.2971e-07
9439.4, 6.5665e-07
9441.4, 5.9315e-07
9443.4, 6.2362e-07
9445.4, 5.7962e-07
9447.4, 6.1068e-07
9449.4, 6.0105e-07
9451.4, 6.0498e-07
9453.4, 5.842e-07
9455.4, 5.4041e-07
9457.4, 5.9933e-07
9459.4, 6.1924e-07
9461.5, 6.1303e-07
9463.5, 6.1486e-07
9465.5, 6.9303e-07
9467.5, 5.4601e-07
9469.5, 6.5301e-07
9471.5, 5.9631e-07
9473.5, 6.1001e-07
9475.5, 6.3771e-07
9477.5, 6.0549e-07
9479.5, 6.4673e-07
9481.5, 5.8465e-07
9483.5, 5.6853e-07
9485.5, 6.9949e-07
9487.5, 5.4782e-07
9489.5, 6.3838e-07
9491.5, 5.6346e-07
9493.5, 5.7349e-07
9495.5, 6.0396e-07
9497.5, 6.2852e-07
9499.5, 6.5503e-07
9501.5, 5.5644e-07
9503.5, 6.6115e-07
9505.5, 6.3421e-07
9507.5, 6.2707e-07
9509.5, 6.1972e-07
9511.5, 6.2265e-07
9513.5, 6.547e-07
9515.5, 6.3395e-07
9517.5, 6.2885e-07
9519.5, 5.1053e-07
9521.5, 5.9559e-07
9523.5, 6.1515e-07
9525.5, 5.9092e-07
9527.5, 6.8294e-07
9529.5, 5.8417e-07
9531.5, 6.2419e-07
9533.5, 6.3104e-07
9535.5, 6.8665e-07
9537.5, 6.1408e-07
9539.5, 6.0723e-07
9541.5, 5.6675e-07
9543.5, 6.9709e-07
9545.5, 6.049e-07
9547.5, 6.2627e-07
9549.5, 5.2533e-07
9551.5, 5.6067e-07
9553.5, 6.6976e-07
9555.5, 6.344e-07
9557.5, 6.6077e-07
9559.5, 6.6763e-07
9561.6, 6.5042e-07
9563.6, 6.8363e-07
9565.6, 6.9966e-07
9567.6, 6.87e-07
9569.6, 6.3566e-07
9571.6, 6.581e-07
9573.6, 6.4592e-07
9575.6, 6.7752e-07
9577.6, 5.5016e-07
9579.6, 6.1385e-07
9581.6, 6.3598e-07
9583.6, 6.3373e-07
9585.6, 6.3127e-07
9587.6, 6.0202e-07
9589.6, 5.8109e-07
9591.6, 6.2956e-07
9593.6, 6.6292e-07
9595.6, 7.3554e-07
9597.6, 5.6819e-07
9599.6, 6.6748e-07
9601.6, 6.024e-07
9603.6, 6.0284e-07
9605.6, 6.812e-07
9607.6, 6.4008e-07
9609.6, 6.1226e-07
9611.6, 6.389e-07
9613.6, 6.2787e-07
9615.6, 5.5586e-07
9617.6, 6.7609e-07
9619.6, 5.4701e-07
9621.6, 5.9696e-07
9623.6, 5.9977e-07
9625.6, 6.06e-07
9627.6, 6.5233e-07
9629.6, 6.9049e-07
9631.6, 6.8452e-07
9633.6, 6.8621e-07
9635.6, 5.7904e-07
9637.6, 6.0738e-07
9639.6, 6.6173e-07
9641.6, 5.967e-07
9643.6, 6.3427e-07
9645.6, 6.5031e-07
9647.6, 5.8714e-07
9649.6, 6.5578e-07
9651.6, 6.6794e-07
9653.6, 6.6438e-07
9655.6, 6.2727e-07
9657.6, 6.0998e-07
9659.6, 6.3093e-07
9661.7, 5.481e-07
9663.7, 7.6853e-07
9665.7, 5.4728e-07
9667.7, 5.6886e-07
9669.7, 5.6815e-07
9671.7, 6.7843e-07
9673.7, 5.8543e-07
9675.7, 6.0761e-07
9677.7, 6.4597e-07
9679.7, 6.7015e-07
9681.7, 6.9503e-07
9683.7, 6.9264e-07
9685.7, 6.3035e-07
9687.7, 5.514e-07
9689.7, 6.0034e-07
9691.7, 6.7871e-07
9693.7, 5.5004e-07
9695.7, 6.5626e-07
9697.7, 6.6908e-07
9699.7, 5.7125e-07
9701.7, 6.9036e-07
9703.7, 6.2585e-07
9705.7, 5.8962e-07
9707.7, 6.2138e-07
9709.7, 5.3781e-07
9711.7, 6.0162e-07
9713.7, 6.0417e-07
9715.7, 5.9216e-07
9717.7, 7.1096e-07
9719.7, 6.3597e-07
9721.7, 5.7143e-07
9723.7, 6.1053e-07
9725.7, 6.228e-07
9727.7, 6.6058e-07
9729.7, 6.7511e-07
9731.7, 6.1881e-07
9733.7, 6.8206e-07
9735.7, 6.0067e-07
9737.7, 5.5346e-07
9739.7, 6.1095e-07
9741.7, 5.9933e-07
9743.7, 6.4947e-07
9745.7, 7.1013e-07
9747.7, 6.6385e-07
9749.7, 7.066e-07
9751.7, 6.301e-07
9753.7, 6.7486e-07
9755.7, 6.0281e-07
9757.7, 6.4224e-07
9759.7, 7.4326e-07
9761.8, 6.5394e-07
9763.8, 5.9407e-07
9765.8, 6.2903e-07
9767.8, 6.368e-07
9769.8, 6.095e-07
9771.8, 6.6758e-07
9773.8, 6.8955e-07
9775.8, 6.1777e-07
9777.8, 6.5962e-07
9779.8, 6.736e-07
9781.8, 6.3376e-07
9783.8, 6.1514e-07
9785.8, 5.8902e-07
9787.8, 6.4791e-07
9789.8, 5.7107e-07
9791.8, 6.8358e-07
9793.8, 6.1702e-07
9795.8, 6.4308e-07
9797.8, 6.1018e-07
9799.8, 6.8486e-07
9801.8, 7.055e-07
9803.8, 6.854e-07
9805.8, 5.1381e-07
9807.8, 6.359e-07
9809.8, 6.4885e-07
9811.8, 5.5947e-07
9813.8, 6.6692e-07
9815.8, 5.991e-07
9817.8, 6.1925e-07
9819.8, 6.3893e-07
9821.8, 5.8635e-07
9823.8, 6.0568e-07
9825.8, 6.2645e-07
9827.8, 5.6335e-07
9829.8, 7.0177e-07
9831.8, 7.6961e-07
9833.8, 6.4502e-07
9835.8, 6.7221e-07
9837.8, 6.0807e-07
9839.8, 6.8303e-07
9841.8, 6.8825e-07
9843.8, 7.2187e-07
9845.8, 6.7907e-07
9847.8, 6.9752e-07
9849.8, 6.214e-07
9851.8, 6.3465e-07
9853.8, 7.1767e-07
9855.8, 6.4574e-07
9857.8, 6.1842e-07
9859.8, 6.2809e-07
9861.9, 5.8599e-07
9863.9, 6.3563e-07
9865.9, 6.3132e-07
9867.9, 6.1969e-07
9869.9, 5.9832e-07
9871.9, 6.2561e-07
9873.9, 6.9851e-07
9875.9, 7.0305e-07
9877.9, 6.3252e-07
9879.9, 6.3753e-07
9881.9, 6.1313e-07
9883.9, 6.7355e-07
9885.9, 6.3496e-07
9887.9, 6.0982e-07
9889.9, 6.7132e-07
9891.9, 6.3787e-07
9893.9, 5.529e-07
9895.9, 6.2826e-07
9897.9, 6.8027e-07
9899.9, 7.2377e-07
9901.9, 6.6878e-07
9903.9, 5.9614e-07
9905.9, 6.598e-07
9907.9, 6.3715e-07
9909.9, 5.9743e-07
9911.9, 5.8379e-07
9913.9, 6.9167e-07
9915.9, 6.4023e-07
9917.9, 5.6759e-07
9919.9, 6.8328e-07
9921.9, 6.0845e-07
9923.9, 5.8271e-07
9925.9, 7.0093e-07
9927.9, 7.8786e-07
9929.9, 6.4001e-07
9931.9, 6.0089e-07
9933.9, 6.7505e-07
9935.9, 6.3377e-07
9937.9, 6.1987e-07
9939.9, 6.5531e-07
9941.9, 6.2523e-07
9943.9, 5.984e-07
9945.9, 6.0649e-07
9947.9, 7.2449e-07
9949.9, 5.4027e-07
9951.9, 5.9615e-07
9953.9, 6.5536e-07
9955.9, 5.9433e-07
9957.9, 6.4166e-07
9959.9, 6.6839e-07
9962.0, 6.8358e-07
9964.0, 5.8589e-07
9966.0, 6.9513e-07
9968.0, 6.8844e-07
9970.0, 6.4506e-07
9972.0, 7.009e-07
9974.0, 6.3994e-07
9976.0, 6.591e-07
9978.0, 5.8896e-07
9980.0, 5.982e-07
9982.0, 5.6532e-07
9984.0, 6.932e-07
9986.0, 5.8461e-07
9988.0, 6.398e-07
9990.0, 6.9252e-07
9992.0, 6.5716e-07
9994.0, 6.0623e-07
9996.0, 6.4162e-07
9998.0, 7.0737e-07
10000.0, 6.3802e-07
10002.0, 6.397e-07
10004.0, 6.1582e-07
10006.0, 6.3782e-07
10008.0, 6.3949e-07
10010.0, 7.1427e-07
10012.0, 6.5485e-07
10014.0, 6.2351e-07
10016.0, 6.7697e-07
10018.0, 6.5571e-07
10020.0, 5.7021e-07
10022.0, 6.3396e-07
10024.0, 6.9236e-07
10026.0, 6.4947e-07
10028.0, 5.6841e-07
10030.0, 5.9933e-07
10032.0, 6.5526e-07
10034.0, 6.6897e-07
10036.0, 6.1792e-07
10038.0, 6.5537e-07
10040.0, 6.5724e-07
10042.0, 6.4776e-07
10044.0, 7.1934e-07
10046.0, 7.3354e-07
10048.0, 5.8257e-07
10050.0, 5.9177e-07
10052.0, 6.0332e-07
10054.0, 6.0892e-07
10056.0, 6.4301e-07
10058.0, 6.1572e-07
10060.0, 6.1146e-07
10062.0, 6.7315e-07
10064.0, 6.6153e-07
10066.0, 5.5072e-07
10068.0, 6.789e-07
10070.0, 6.3126e-07
10072.0, 6.0747e-07
10074.0, 6.2145e-07
10076.0, 6.7759e-07
10078.0, 6.283e-07
10080.0, 6.9129e-07
10082.0, 6.641e-07
10084.0, 6.618e-07
10086.0, 6.5582e-07
10088.0, 6.0797e-07
10090.0, 7.8834e-07
10092.0, 7.3603e-07
10094.0, 5.9858e-07
10096.0, 6.1471e-07
10098.0, 6.4604e-07
10100.0, 6.2304e-07
10102.0, 6.4963e-07
10104.0, 6.4426e-07
10106.0, 6.5647e-07
10108.0, 6.6257e-07
10110.0, 6.0386e-07
10112.0, 6.9916e-07
10114.0, 6.6615e-07
10116.0, 5.691e-07
10118.0, 6.0846e-07
10120.0, 6.1922e-07
10122.0, 6.5158e-07
10124.0, 6.5189e-07
10126.0, 6.5265e-07
10128.0, 6.4864e-07
10130.0, 5.8408e-07
10132.0, 6.2554e-07
10134.0, 6.6672e-07
10136.0, 6.1164e-07
10138.0, 6.5517e-07
10140.0, 5.9117e-07
10142.0, 6.2941e-07
10144.0, 5.9703e-07
10146.0, 6.836e-07
10148.0, 6.2959e-07
10150.0, 6.2186e-07
10152.0, 6.1392e-07
10154.0, 7.3761e-07
10156.0, 6.5876e-07
10158.0, 6.3548e-07
10160.0, 5.8869e-07
10162.0, 6.0237e-07
10164.0, 6.1866e-07
10166.0, 6.4595e-07
10168.0, 7.1797e-07
10170.0, 7.1022e-07
10172.0, 7.425e-07
10174.0, 6.1991e-07
10176.0, 6.1385e-07
10178.0, 6.5471e-07
10180.0, 5.5583e-07
10182.0, 6.129e-07
10184.0, 5.9937e-07
10186.0, 6.4511e-07
10188.0, 6.1312e-07
10190.0, 6.3121e-07
10192.0, 6.2574e-07
10194.0, 6.3206e-07
10196.0, 6.4314e-07
10198.0, 6.0586e-07
10200.0, 6.5231e-07
10202.0, 6.7208e-07
10204.0, 5.5542e-07
10206.0, 7.2311e-07
10208.0, 5.781e-07
10210.0, 7.9784e-07
10212.0, 6.1872e-07
10214.0, 6.6698e-07
10216.0, 5.9466e-07
10218.0, 6.3507e-07
10220.0, 6.2791e-07
10222.0, 6.0627e-07
10224.0, 6.9503e-07
10226.0, 6.9589e-07
10228.0, 5.9843e-07
10230.0, 7.0828e-07
10232.0, 7.165e-07
10234.0, 6.4998e-07
10236.0, 6.2199e-07
10238.0, 6.399e-07
10240.0, 6.861e-07
10242.0, 6.9138e-07
10244.0, -3.343e-08
10246.0, -3.338e-08
10248.0, -3.348e-08
10250.0, -3.293e-08
10252.0, -3.419e-08
10254.0, -3.694e-08
10256.0, -3.421e-08
10258.0, -3.49e-08
10260.0, -3.567e-08
10262.0, -3.284e-08
10264.0, -3.189e-08
10266.0, -3.229e-08
10268.0, -3.554e-08
10270.0, -3.363e-08
10272.0, -3.507e-08
10274.0, -3.253e-08
10276.0, -3.428e-08
10278.0, -3.784e-08
10280.0, -3.448e-08
10282.0, -3.378e-08
10284.0, -3.51e-08
10286.0, -3.507e-08
10288.0, -3.328e-08
10290.0, -3.408e-08
10292.0, -3.458e-08
10294.0, -3.749e-08
10296.0, -3.64e-08
10298.0, -3.732e-08
10300.0, -3.299e-08
10302.0, -3.719e-08
10304.0, -4.05e-08
10306.0, -3.446e-08
10308.0, -3.589e-08
10310.0, -3.393e-08
10312.0, -3.421e-08
10314.0, -3.497e-08
10316.0, -3.459e-08
10318.0, -3.707e-08
10320.0, -3.532e-08
10322.0, -3.287e-08
10324.0, -3.472e-08
10326.0, -3.128e-08
10328.0, -3.763e-08
10330.0, -3.61e-08
10332.0, -3.557e-08
10334.0, -3.545e-08
10336.0, -3.383e-08
10338.0, -3.624e-08
10340.0, -3.429e-08
10342.0, -3.085e-08
10344.0, -3.204e-08
10346.0, -3.489e-08
10348.0, -3.526e-08
10350.0, -3.465e-08
10352.0, -3.634e-08
10354.0, -3.465e-08
10356.0, -3.577e-08
10358.0, -3.811e-08
10360.0, -3.842e-08
10362.0, -3.473e-08
10364.0, -3.652e-08
10366.0, -3.839e-08
10368.0, -3.781e-08
10370.0, -3.633e-08
10372.0, -3.911e-08
10374.0, -3.279e-08
10376.0, -3.605e-08
10378.0, -3.769e-08
10380.0, -3.627e-08
10382.0, -3.443e-08
10384.0, -3.482e-08
10386.0, -3.441e-08
10388.0, -3.587e-08
10390.0, -3.355e-08
10392.0, -3.434e-08
10394.0, -3.596e-08
10396.0, -3.701e-08
10398.0, -3.128e-08
10400.0, -3.663e-08
10402.0, -3.526e-08
10404.0, -3.437e-08
10406.0, -3.415e-08
10408.0, -3.656e-08
10410.0, -3.654e-08
10412.0, -3.41e-08
10414.0, -3.577e-08
10416.0, -3.33e-08
10418.0, -3.519e-08
10420.0, -3.355e-08
10422.0, -3.323e-08
10424.0, -3.47e-08
10426.0, -3.35e-08
10428.0, -3.652e-08
10430.0, -3.548e-08
10432.0, -3.19e-08
10434.0, -3.366e-08
10436.0, -3.554e-08
10438.0, -3.886e-08
10440.0, -3.279e-08
10442.0, -3.369e-08
10444.0, -3.114e-08
10446.0, -3.568e-08
10448.0, -3.093e-08
10450.0, -3.428e-08
10452.0, -3.366e-08
10454.0, -3.38e-08
10456.0, -3.533e-08
10458.0, -3.474e-08
10460.0, -3.204e-08
10462.0, -3.485e-08
10464.0, -3.291e-08
10466.0, -3.434e-08
10468.0, -3.647e-08
10470.0, -3.15e-08
10472.0, -3.107e-08
10474.0, -3.445e-08
10476.0, -3.2e-08
10478.0, -3.411e-08
10480.0, -3.36e-08
10482.0, -3.51e-08
10484.0, -3.519e-08
10486.0, -3.489e-08
10488.0, -3.441e-08
10490.0, -3.943e-08
10492.0, -3.508e-08
10494.0, -3.274e-08
10496.0, -3.043e-08
10498.0, -3.363e-08
10500.0, -3.234e-08
10502.0, -3.043e-08
10504.0, -3.162e-08
10506.0, -3.205e-08
10508.0, -2.976e-08
10510.0, -3.185e-08
10513.0, -3.198e-08
10515.0, -3.274e-08
10517.0, -3.214e-08
10519.0, -3.319e-08
10521.0, -3.236e-08
10523.0, -3.503e-08
10525.0, -3.383e-08
10527.0, -3.296e-08
10529.0, -3.454e-08
10531.0, -3.537e-08
10533.0, -3.746e-08
10535.0, -3.931e-08
10537.0, -3.348e-08
10539.0, -3.249e-08
10541.0, -3.458e-08
10543.0, -3.284e-08
10545.0, -3.506e-08
10547.0, -3.547e-08
10549.0, -3.63e-08
10551.0, -3.537e-08
10553.0, -3.298e-08
10555.0, -3.506e-08
10557.0, -3.546e-08
10559.0, -3.613e-08
10561.0, -3.274e-08
10563.0, -3.338e-08
10565.0, -3.357e-08
10567.0, -3.641e-08
10569.0, -3.318e-08
10571.0, -3.418e-08
10573.0, -3.485e-08
10575.0, -3.642e-08
10577.0, -3.307e-08
10579.0, -3.699e-08
10581.0, -3.29e-08
10583.0, -3.508e-08
10585.0, -3.203e-08
10587.0, -3.393e-08
10589.0, -3.309e-08
10591.0, -3.385e-08
10593.0, -3.238e-08
10595.0, -3.535e-08
10597.0, -3.451e-08
10599.0, -3.343e-08
10601.0, -3.31e-08
10603.0, -3.619e-08
10605.0, -3.515e-08
10607.0, -3.471e-08
10609.0, -3.384e-08
10611.0, -3.511e-08
10613.0, -3.681e-08
10615.0, -3.501e-08
10617.0, -4.002e-08
10619.0, -3.632e-08
10621.0, -3.147e-08
10623.0, -3.315e-08
10625.0, -3.141e-08
10627.0, -3.355e-08
10629.0, -3.211e-08
10631.0, -3.529e-08
10633.0, -3.613e-08
10635.0, -3.527e-08
10637.0, -3.515e-08
10639.0, -2.98e-08
10641.0, -3.406e-08
10643.0, -3.093e-08
10645.0, -3.301e-08
10647.0, -3.069e-08
10649.0, -3.641e-08
10651.0, -3.409e-08
10653.0, -3.193e-08
10655.0, -3.528e-08
10657.0, -3.481e-08
10659.0, -3.539e-08
10661.0, -3.229e-08
10663.0, -3.369e-08
10665.0, -3.439e-08
10667.0, -3.597e-08
10669.0, -3.722e-08
10671.0, -3.648e-08
10673.0, -3.485e-08
10675.0, -3.613e-08
10677.0, -3.853e-08
10679.0, -3.798e-08
10681.0, -3.435e-08
10683.0, -3.854e-08
10685.0, -3.851e-08
10687.0, -3.763e-08
10689.0, -3.618e-08
10691.0, -3.711e-08
10693.0, -3.628e-08
10695.0, -3.842e-08
10697.0, -3.942e-08
10699.0, -3.416e-08
10701.0, -3.505e-08
10703.0, -3.61e-08
10705.0, -3.28e-08
10707.0, -3.492e-08
10709.0, -3.701e-08
10711.0, -3.656e-08
10713.0, -4.129e-08
10715.0, -3.898e-08
10717.0, -3.916e-08
10719.0, -3.672e-08
10721.0, -3.562e-08
10723.0, -3.668e-08
10725.0, -3.356e-08
10727.0, -3.559e-08
10729.0, -3.438e-08
10731.0, -3.834e-08
10733.0, -3.926e-08
10735.0, -3.784e-08
10737.0, -4.032e-08
10739.0, -3.593e-08
10741.0, -3.973e-08
10743.0, -3.518e-08
10745.0, -3.697e-08
10747.0, -3.388e-08
10749.0, -3.57e-08
10751.0, -3.42e-08
10753.0, -3.276e-08
10755.0, -3.279e-08
10757.0, -3.317e-08
10759.0, -3.715e-08
10761.0, -3.497e-08
10763.0, -3.504e-08
10765.0, -3.833e-08
10767.0, -3.968e-08
10769.0, -4.038e-08
10771.0, -3.69e-08
10773.0, -4.181e-08
10775.0, -3.692e-08
10777.0, -3.947e-08
10779.0, -4.112e-08
10781.0, -3.793e-08
10783.0, -3.746e-08
10785.0, -3.79e-08
10787.0, -4.001e-08
10789.0, -3.406e-08
10791.0, -3.834e-08
10793.0, -4.12e-08
10795.0, -4.105e-08
10797.0, -3.698e-08
10799.0, -3.607e-08
10801.0, -3.878e-08
10803.0, -3.536e-08
10805.0, -4.064e-08
10807.0, -3.462e-08
10809.0, -3.68e-08
10811.0, -3.716e-08
10813.0, -3.404e-08
10815.0, -3.743e-08
10817.0, -3.678e-08
10819.0, -3.186e-08
10821.0, -3.652e-08
10823.0, -3.656e-08
10825.0, -3.404e-08
10827.0, -3.835e-08
10829.0, -3.367e-08
10831.0, -3.497e-08
10833.0, -3.387e-08
10835.0, -3.643e-08
10837.0, -3.567e-08
10839.0, -3.615e-08
10841.0, -3.939e-08
10843.0, -3.81e-08
10845.0, -3.644e-08
10847.0, -3.552e-08
10849.0, -3.452e-08
10851.0, -3.569e-08
10853.0, -3.103e-08
10855.0, -3.295e-08
10857.0, -3.563e-08
10859.0, -3.508e-08
10861.0, -3.564e-08
10863.0, -3.522e-08
10865.0, -3.823e-08
10867.0, -3.39e-08
10869.0, -3.835e-08
10871.0, -3.489e-08
10873.0, -3.524e-08
10875.0, -3.515e-08
10877.0, -3.581e-08
10879.0, -3.423e-08
10881.0, -3.483e-08
10883.0, -3.387e-08
10885.0, -3.477e-08
10887.0, -3.755e-08
10889.0, -3.329e-08
10891.0, -3.677e-08
10893.0, -3.599e-08
10895.0, -3.651e-08
10897.0, -3.735e-08
10899.0, -3.619e-08
10901.0, -3.565e-08
10903.0, -3.433e-08
10905.0, -3.695e-08
10907.0, -3.536e-08
10909.0, -3.928e-08
10911.0, -4.018e-08
10913.0, -3.809e-08
10915.0, -3.671e-08
10917.0, -3.983e-08
10919.0, -3.799e-08
10921.0, -3.922e-08
10923.0, -3.628e-08
10925.0, -3.674e-08
10927.0, -3.86e-08
10929.0, -3.423e-08
10931.0, -3.631e-08
10933.0, -3.8e-08
10935.0, -4.099e-08
10937.0, -3.895e-08
10939.0, -3.688e-08
10941.0, -4.008e-08
10943.0, -3.574e-08
10945.0, -3.88e-08
10947.0, -3.72e-08
10949.0, -3.924e-08
10951.0, -4.054e-08
10953.0, -4.053e-08
10955.0, -3.832e-08
10957.0, -3.767e-08
10959.0, -3.968e-08
10961.0, -3.945e-08
10963.0, -3.379e-08
10965.0, -3.48e-08
10967.0, -3.835e-08
10969.0, -3.942e-08
10971.0, -3.53e-08
10973.0, -3.618e-08
10975.0, -3.291e-08
10977.0, -3.605e-08
10979.0, -3.891e-08
10981.0, -3.604e-08
10983.0, -4.046e-08
10985.0, -3.722e-08
10987.0, -3.602e-08
10989.0, -3.826e-08
10991.0, -3.579e-08
10993.0, -3.498e-08
10995.0, -3.663e-08
10997.0, -3.523e-08
10999.0, -3.599e-08
11001.0, -3.809e-08
11003.0, -3.613e-08
11005.0, -3.581e-08
11007.0, -3.61e-08
11009.0, -3.246e-08
