Time sep (ms?), Current (A)
0.0, -3.111e-08
2.002, -3.086e-08
4.004, -3.244e-08
6.006, -2.957e-08
8.008, -3.107e-08
10.01, -2.969e-08
12.012, -3.091e-08
14.014, -2.959e-08
16.016, -2.872e-08
18.018, -3.37e-08
20.02, -3.172e-08
22.022, -2.977e-08
24.024, -3.34e-08
26.026, -3.151e-08
28.028, -3.098e-08
30.03, -3.143e-08
32.032, -3.235e-08
34.034, -3.255e-08
36.036, -2.934e-08
38.038, -3.06e-08
40.04, -3.11e-08
42.042, -2.994e-08
44.044, -2.757e-08
46.046, -3.262e-08
48.048, -3.107e-08
50.05, -3.349e-08
52.052, -3.531e-08
54.054, -3.519e-08
56.056, -3.53e-08
58.058, -3.617e-08
60.06, -3.374e-08
62.062, -3.248e-08
64.064, -3.432e-08
66.066, -3.145e-08
68.068, -3.235e-08
70.07, -3.245e-08
72.072, -3.533e-08
74.074, -3.51e-08
76.076, -3.285e-08
78.078, -3.201e-08
80.08, -3.643e-08
82.082, -3.597e-08
84.084, -3.805e-08
86.086, -3.561e-08
88.088, -3.486e-08
90.09, -3.541e-08
92.092, -3.175e-08
94.094, -3.224e-08
96.096, -3.774e-08
98.098, -3.296e-08
100.1, -3.099e-08
102.1, -2.99e-08
104.1, -3.38e-08
106.11, -3.522e-08
108.11, -3.669e-08
110.11, -3.715e-08
112.11, -3.653e-08
114.11, -3.695e-08
116.12, -3.711e-08
118.12, -3.533e-08
120.12, -3.351e-08
122.12, -3.596e-08
124.12, -3.553e-08
126.13, -3.133e-08
128.13, -3.447e-08
130.13, -3.54e-08
132.13, -3.236e-08
134.13, -3.09e-08
136.14, -3.34e-08
138.14, -3.508e-08
140.14, -3.682e-08
142.14, -3.778e-08
144.14, -3.892e-08
146.15, -3.574e-08
148.15, -3.431e-08
150.15, -3.604e-08
152.15, -3.356e-08
154.15, -3.49e-08
156.16, -3.378e-08
158.16, -3.344e-08
160.16, -3.387e-08
162.16, -3.39e-08
164.16, -3.183e-08
166.17, -3.663e-08
168.17, -3.744e-08
170.17, -3.055e-08
172.17, -3.518e-08
174.17, -3.194e-08
176.18, -3.563e-08
178.18, -3.646e-08
180.18, -3.337e-08
182.18, -3.633e-08
184.18, -3.683e-08
186.19, -3.349e-08
188.19, -3.422e-08
190.19, -3.302e-08
192.19, -3.335e-08
194.19, -3.353e-08
196.2, -3.351e-08
198.2, -3.42e-08
200.2, -3.696e-08
202.2, -3.714e-08
204.2, -3.622e-08
206.21, -3.313e-08
208.21, -3.37e-08
210.21, -3.107e-08
212.21, -2.919e-08
214.21, -3.267e-08
216.22, -3.252e-08
218.22, -3.407e-08
220.22, -3.563e-08
222.22, -3.89e-08
224.22, -3.577e-08
226.23, -3.552e-08
228.23, -3.531e-08
230.23, -3.969e-08
232.23, -3.736e-08
234.23, -4.009e-08
236.24, -3.885e-08
238.24, -3.576e-08
240.24, -4.228e-08
242.24, -3.689e-08
244.24, -4.043e-08
246.25, -3.937e-08
248.25, -3.669e-08
250.25, -3.763e-08
252.25, -3.829e-08
254.25, -3.707e-08
256.26, -3.547e-08
258.26, -3.519e-08
260.26, -3.825e-08
262.26, -3.582e-08
264.26, -3.452e-08
266.27, -3.701e-08
268.27, -3.363e-08
270.27, -3.496e-08
272.27, -3.699e-08
274.27, -3.367e-08
276.28, -3.19e-08
278.28, -3.208e-08
280.28, -3.636e-08
282.28, -3.89e-08
284.28, -3.64e-08
286.29, -3.73e-08
288.29, -3.358e-08
290.29, -3.335e-08
292.29, -3.61e-08
294.29, -3.782e-08
296.3, -3.506e-08
298.3, -3.582e-08
300.3, -3.5e-08
302.3, -3.504e-08
304.3, -3.631e-08
306.31, -3.411e-08
308.31, -3.458e-08
310.31, -3.704e-08
312.31, -3.774e-08
314.31, -3.868e-08
316.32, -3.847e-08
318.32, -3.678e-08
320.32, -3.864e-08
322.32, -3.852e-08
324.32, -3.64e-08
326.33, -3.338e-08
328.33, -3.67e-08
330.33, -3.755e-08
332.33, -3.891e-08
334.33, -3.539e-08
336.34, -4.088e-08
338.34, -3.838e-08
340.34, -3.463e-08
342.34, -3.832e-08
344.34, -3.734e-08
346.35, -3.51e-08
348.35, -3.2e-08
350.35, -3.28e-08
352.35, -3.522e-08
354.35, -3.592e-08
356.36, -3.639e-08
358.36, -4.181e-08
360.36, -4.087e-08
362.36, -3.98e-08
364.36, -4.389e-08
366.37, -3.988e-08
368.37, -3.733e-08
370.37, -4.15e-08
372.37, -4.213e-08
374.37, -4.057e-08
376.38, -3.955e-08
378.38, -3.899e-08
380.38, -3.813e-08
382.38, -3.796e-08
384.38, -4.03e-08
386.39, -3.756e-08
388.39, -3.778e-08
390.39, -3.721e-08
392.39, -3.748e-08
394.39, -3.629e-08
396.4, -3.644e-08
398.4, -3.158e-08
400.4, -3.4e-08
402.4, -3.345e-08
404.4, -3.534e-08
406.41, -3.177e-08
408.41, -3.273e-08
410.41, -3.397e-08
412.41, -3.494e-08
414.41, -2.964e-08
416.42, -3.316e-08
418.42, -3.102e-08
420.42, -3.798e-08
422.42, -3.534e-08
424.42, -3.655e-08
426.43, -3.477e-08
428.43, -3.557e-08
430.43, -3.517e-08
432.43, -3.767e-08
434.43, -3.623e-08
436.44, -3.403e-08
438.44, -3.606e-08
440.44, -3.269e-08
442.44, -3.203e-08
444.44, -3.328e-08
446.45, -3.515e-08
448.45, -3.693e-08
450.45, -3.857e-08
452.45, -3.875e-08
454.45, -3.8e-08
456.46, -3.753e-08
458.46, -3.725e-08
460.46, -3.756e-08
462.46, -3.875e-08
464.46, -3.815e-08
466.47, -3.451e-08
468.47, -3.646e-08
470.47, -3.58e-08
472.47, -3.701e-08
474.47, -3.546e-08
476.48, -3.536e-08
478.48, -3.758e-08
480.48, -3.656e-08
482.48, -3.765e-08
484.48, -3.822e-08
486.49, -3.979e-08
488.49, -3.66e-08
490.49, -3.687e-08
492.49, -3.973e-08
494.49, -3.189e-08
496.5, -3.537e-08
498.5, -3.779e-08
500.5, -3.777e-08
502.5, -3.706e-08
504.5, -3.569e-08
506.51, -3.471e-08
508.51, -3.78e-08
510.51, -3.711e-08
512.51, -4.021e-08
514.51, -3.677e-08
516.52, -4.027e-08
518.52, -3.998e-08
520.52, -3.599e-08
522.52, -3.807e-08
524.52, -3.519e-08
526.53, -3.405e-08
528.53, -3.496e-08
530.53, -3.828e-08
532.53, -3.487e-08
534.53, -3.564e-08
536.54, -3.853e-08
538.54, -3.722e-08
540.54, -3.836e-08
542.54, -3.703e-08
544.54, -3.154e-08
546.55, -3.682e-08
548.55, -3.836e-08
550.55, -3.473e-08
552.55, -3.653e-08
554.55, -3.546e-08
556.56, -3.146e-08
558.56, -3.702e-08
560.56, -3.412e-08
562.56, -3.831e-08
564.56, -3.779e-08
566.57, -3.487e-08
568.57, -3.937e-08
570.57, -3.928e-08
572.57, -3.784e-08
574.57, -3.503e-08
576.58, -3.575e-08
578.58, -3.441e-08
580.58, -3.297e-08
582.58, -3.542e-08
584.58, -3.147e-08
586.59, -3.361e-08
588.59, -3.785e-08
590.59, -3.834e-08
592.59, -3.867e-08
594.59, -3.701e-08
596.6, -3.763e-08
598.6, -3.97e-08
600.6, -3.431e-08
602.6, -3.351e-08
604.6, -3.531e-08
606.61, -3.781e-08
608.61, -3.432e-08
610.61, -3.191e-08
612.61, -3.263e-08
614.61, -3.234e-08
616.62, -3.662e-08
618.62, -3.289e-08
620.62, -3.338e-08
622.62, -3.28e-08
624.62, -3.322e-08
626.63, -3.299e-08
628.63, -3.324e-08
630.63, -3.345e-08
632.63, -3.759e-08
634.63, -3.287e-08
636.64, -3.211e-08
638.64, -3.185e-08
640.64, -3.034e-08
642.64, -3.429e-08
644.64, -3.601e-08
646.65, -3.532e-08
648.65, -3.504e-08
650.65, -3.415e-08
652.65, -3.724e-08
654.65, -3.766e-08
656.66, -3.369e-08
658.66, -3.325e-08
660.66, -3.561e-08
662.66, -3.249e-08
664.66, -3.714e-08
666.67, -3.809e-08
668.67, -3.417e-08
670.67, -3.383e-08
672.67, -3.868e-08
674.67, -3.705e-08
676.68, -3.673e-08
678.68, -3.399e-08
680.68, -3.501e-08
682.68, -3.508e-08
684.68, -3.373e-08
686.69, -3.544e-08
688.69, -3.582e-08
690.69, -3.683e-08
692.69, -3.507e-08
694.69, -3.829e-08
696.7, -3.698e-08
698.7, -3.846e-08
700.7, -3.738e-08
702.7, -3.81e-08
704.7, -3.701e-08
706.71, -3.567e-08
708.71, -3.611e-08
710.71, -3.474e-08
712.71, -3.596e-08
714.71, -3.35e-08
716.72, -3.428e-08
718.72, -3.748e-08
720.72, -3.429e-08
722.72, -3.825e-08
724.72, -3.521e-08
726.73, -3.788e-08
728.73, -3.832e-08
730.73, -3.741e-08
732.73, -3.414e-08
734.73, -3.545e-08
736.74, -3.384e-08
738.74, -3.267e-08
740.74, -3.351e-08
742.74, -3.527e-08
744.74, -3.612e-08
746.75, -3.136e-08
748.75, -2.897e-08
750.75, -3.441e-08
752.75, -3.118e-08
754.75, -3.271e-08
756.76, -3.256e-08
758.76, -3.544e-08
760.76, -3.779e-08
762.76, -3.656e-08
764.76, -3.431e-08
766.77, -3.272e-08
768.77, -3.464e-08
770.77, -3.458e-08
772.77, -3.437e-08
774.77, -3.223e-08
776.78, -3.147e-08
778.78, -3.038e-08
780.78, -3.194e-08
782.78, -3.512e-08
784.78, -3.159e-08
786.79, -2.974e-08
788.79, -2.871e-08
790.79, -3.168e-08
792.79, -2.993e-08
794.79, -3.26e-08
796.8, -3.012e-08
798.8, -3.306e-08
800.8, -3.308e-08
802.8, -3.42e-08
804.8, -3.274e-08
806.81, -3.181e-08
808.81, -2.995e-08
810.81, -2.78e-08
812.81, -3.254e-08
814.81, -3.008e-08
816.82, -3.01e-08
818.82, -2.956e-08
820.82, -3.245e-08
822.82, -3.497e-08
824.82, -3.279e-08
826.83, -2.84e-08
828.83, -2.825e-08
830.83, -2.774e-08
832.83, -2.958e-08
834.83, -2.954e-08
836.84, -3.134e-08
838.84, -3.114e-08
840.84, -3.46e-08
842.84, -3.298e-08
844.84, -3.483e-08
846.85, -3.237e-08
848.85, -2.636e-08
850.85, -3.394e-08
852.85, -3.25e-08
854.85, -3.411e-08
856.86, -3.306e-08
858.86, -3.308e-08
860.86, -3.328e-08
862.86, -3.268e-08
864.86, -3.248e-08
866.87, -2.997e-08
868.87, -3.192e-08
870.87, -3.313e-08
872.87, -3.558e-08
874.87, -3.485e-08
876.88, -3.388e-08
878.88, -3.223e-08
880.88, -3.503e-08
882.88, -3.462e-08
884.88, -3.238e-08
886.89, -3.635e-08
888.89, -3.372e-08
890.89, -3.49e-08
892.89, -3.605e-08
894.89, -3.208e-08
896.9, -3.106e-08
898.9, -3.133e-08
900.9, -3.179e-08
902.9, -3.132e-08
904.9, -3.36e-08
906.91, -3.189e-08
908.91, -3.324e-08
910.91, -2.824e-08
912.91, -3.396e-08
914.91, -3.477e-08
916.92, -3.404e-08
918.92, -3.516e-08
920.92, -3.137e-08
922.92, -3.438e-08
924.92, -3.407e-08
926.93, -3.029e-08
928.93, -3.143e-08
930.93, -3.513e-08
932.93, -3.41e-08
934.93, -3.176e-08
936.94, -3.263e-08
938.94, -3.398e-08
940.94, -3.265e-08
942.94, -3.497e-08
944.94, -3.486e-08
946.95, -3.791e-08
948.95, -3.295e-08
950.95, -3.398e-08
952.95, -3.523e-08
954.95, -3.667e-08
956.96, -3.53e-08
958.96, -3.673e-08
960.96, -3.527e-08
962.96, -3.241e-08
964.96, -3.365e-08
966.97, -3.078e-08
968.97, -3.403e-08
970.97, -3.45e-08
972.97, -3.641e-08
974.97, -3.357e-08
976.98, -3.231e-08
978.98, -3.461e-08
980.98, -3.34e-08
982.98, -3.519e-08
984.98, -3.195e-08
986.99, -3.518e-08
988.99, -3.3e-08
990.99, -3.599e-08
992.99, -3.466e-08
994.99, -3.725e-08
997.0, -3.811e-08
999.0, -3.734e-08
1001.0, -3.507e-08
1003.0, -3.819e-08
1005.0, -3.691e-08
1007.0, -3.461e-08
1009.0, -3.82e-08
1011.0, -3.822e-08
1013.0, -3.972e-08
1015.0, -3.705e-08
1017.0, -3.763e-08
1019.0, -3.743e-08
1021.0, -3.858e-08
1023.0, -3.854e-08
1025.0, -4.105e-08
1027.0, -3.664e-08
1029.0, -3.849e-08
1031.0, -4.125e-08
1033.0, -3.969e-08
1035.0, -3.984e-08
1037.0, -3.839e-08
1039.0, -3.958e-08
1041.0, -3.696e-08
1043.0, -3.876e-08
1045.0, 7.4245e-07
1047.0, 7.2756e-07
1049.0, 7.1679e-07
1051.0, 6.0404e-07
1053.1, 6.7879e-07
1055.1, 7.0648e-07
1057.1, 7.0453e-07
1059.1, 6.8333e-07
1061.1, 7.2713e-07
1063.1, 6.5093e-07
1065.1, 6.9525e-07
1067.1, 6.3528e-07
1069.1, 7.0245e-07
1071.1, 6.6133e-07
1073.1, 6.5338e-07
1075.1, 7.159e-07
1077.1, 7.4943e-07
1079.1, 6.5296e-07
1081.1, 5.9828e-07
1083.1, 7.2205e-07
1085.1, 5.8178e-07
1087.1, 7.138e-07
1089.1, 7.2306e-07
1091.1, 6.4378e-07
1093.1, 6.9342e-07
1095.1, 7.1008e-07
1097.1, 5.8608e-07
1099.1, 7.1189e-07
1101.1, 7.2108e-07
1103.1, 7.22e-07
1105.1, 6.7353e-07
1107.1, 8.1339e-07
1109.1, 7.7197e-07
1111.1, 6.5261e-07
1113.1, 7.1341e-07
1115.1, 6.4742e-07
1117.1, 7.504e-07
1119.1, 7.6993e-07
1121.1, 7.2337e-07
1123.1, 7.1822e-07
1125.1, 7.7598e-07
1127.1, 6.8499e-07
1129.1, 7.4561e-07
1131.1, 7.3736e-07
1133.1, 6.844e-07
1135.1, 7.8645e-07
1137.1, 7.7413e-07
1139.1, 7.0209e-07
1141.1, 6.8747e-07
1143.1, 6.9089e-07
1145.1, 7.4791e-07
1147.1, 6.6703e-07
1149.1, 7.4539e-07
1151.1, 7.3216e-07
1153.2, 7.1757e-07
1155.2, 7.2624e-07
1157.2, 7.3378e-07
1159.2, 7.3123e-07
1161.2, 6.9157e-07
1163.2, 6.8678e-07
1165.2, 7.6663e-07
1167.2, 7.0123e-07
1169.2, 7.0945e-07
1171.2, 6.9663e-07
1173.2, 6.958e-07
1175.2, 7.3472e-07
1177.2, 7.5124e-07
1179.2, 7.3448e-07
1181.2, 6.9008e-07
1183.2, 7.8282e-07
1185.2, 7.4019e-07
1187.2, 6.8561e-07
1189.2, 7.6706e-07
1191.2, 7.2962e-07
1193.2, 7.8941e-07
1195.2, 8.2519e-07
1197.2, 8.1376e-07
1199.2, 7.3794e-07
1201.2, 7.1579e-07
1203.2, 7.379e-07
1205.2, 7.0885e-07
1207.2, 6.8915e-07
1209.2, 7.425e-07
1211.2, 7.7114e-07
1213.2, 7.7422e-07
1215.2, 7.8784e-07
1217.2, 7.038e-07
1219.2, 6.6396e-07
1221.2, 7.9114e-07
1223.2, 7.9127e-07
1225.2, 6.5087e-07
1227.2, 6.9833e-07
1229.2, 7.519e-07
1231.2, 7.1908e-07
1233.2, 7.1074e-07
1235.2, 7.396e-07
1237.2, 7.6665e-07
1239.2, 7.7902e-07
1241.2, 7.0417e-07
1243.2, 7.323e-07
1245.2, 7.8203e-07
1247.2, 7.1474e-07
1249.2, 7.9191e-07
1251.2, 7.4935e-07
1253.3, 7.5713e-07
1255.3, 7.2341e-07
1257.3, 7.7235e-07
1259.3, 7.3123e-07
1261.3, 8.4725e-07
1263.3, 7.3018e-07
1265.3, 7.9374e-07
1267.3, 7.7598e-07
1269.3, 7.6141e-07
1271.3, 7.4187e-07
1273.3, 8.4066e-07
1275.3, 6.7053e-07
1277.3, 6.5559e-07
1279.3, 7.708e-07
1281.3, 7.033e-07
1283.3, 7.9762e-07
1285.3, 7.2456e-07
1287.3, 7.4948e-07
1289.3, 8.1027e-07
1291.3, 7.5408e-07
1293.3, 8.241e-07
1295.3, 7.9493e-07
1297.3, 7.5447e-07
1299.3, 7.2843e-07
1301.3, 8.3257e-07
1303.3, 8.0292e-07
1305.3, 7.2652e-07
1307.3, 7.0877e-07
1309.3, 8.0802e-07
1311.3, 7.8378e-07
1313.3, 8.1359e-07
1315.3, 7.3777e-07
1317.3, 7.6247e-07
1319.3, 8.208e-07
1321.3, 7.773e-07
1323.3, 7.6044e-07
1325.3, 7.2029e-07
1327.3, 7.5009e-07
1329.3, 7.6966e-07
1331.3, 7.2272e-07
1333.3, 6.9545e-07
1335.3, 7.8536e-07
1337.3, 7.555e-07
1339.3, 7.1976e-07
1341.3, 7.5947e-07
1343.3, 7.9495e-07
1345.3, 8.0432e-07
1347.3, 7.6519e-07
1349.3, 8.4564e-07
1351.3, 7.0503e-07
1353.4, 8.1552e-07
1355.4, 7.533e-07
1357.4, 7.9475e-07
1359.4, 7.5147e-07
1361.4, 7.2868e-07
1363.4, 7.3775e-07
1365.4, 7.2151e-07
1367.4, 8.0054e-07
1369.4, 7.3694e-07
1371.4, 6.766e-07
1373.4, 7.8247e-07
1375.4, 7.1759e-07
1377.4, 7.6101e-07
1379.4, 7.0142e-07
1381.4, 7.5284e-07
1383.4, 7.4225e-07
1385.4, 8.1933e-07
1387.4, 8.0097e-07
1389.4, 8.7333e-07
1391.4, 7.5112e-07
1393.4, 8.3243e-07
1395.4, 8.0396e-07
1397.4, 7.1631e-07
1399.4, 7.4184e-07
1401.4, 7.3947e-07
1403.4, 7.9578e-07
1405.4, 8.4689e-07
1407.4, 7.7498e-07
1409.4, 7.5176e-07
1411.4, 7.1493e-07
1413.4, 8.063e-07
1415.4, 6.9593e-07
1417.4, 8.1206e-07
1419.4, 7.6778e-07
1421.4, 7.4266e-07
1423.4, 7.4208e-07
1425.4, 7.5772e-07
1427.4, 7.4686e-07
1429.4, 7.4681e-07
1431.4, 7.4414e-07
1433.4, 7.6665e-07
1435.4, 7.1482e-07
1437.4, 7.7154e-07
1439.4, 7.2855e-07
1441.4, 7.2467e-07
1443.4, 7.326e-07
1445.4, 7.1206e-07
1447.4, 7.6682e-07
1449.4, 7.7057e-07
1451.4, 7.8769e-07
1453.5, 7.3014e-07
1455.5, 7.8002e-07
1457.5, 7.9011e-07
1459.5, 7.0356e-07
1461.5, 8.6047e-07
1463.5, 7.5005e-07
1465.5, 7.8623e-07
1467.5, 6.6558e-07
1469.5, 7.6553e-07
1471.5, 7.1622e-07
1473.5, 8.0674e-07
1475.5, 7.7448e-07
1477.5, 7.4693e-07
1479.5, 7.8439e-07
1481.5, 7.6942e-07
1483.5, 7.4168e-07
1485.5, 7.8067e-07
1487.5, 6.4317e-07
1489.5, 7.1179e-07
1491.5, 7.9974e-07
1493.5, 8.3462e-07
1495.5, 7.2996e-07
1497.5, 7.3894e-07
1499.5, 7.8614e-07
1501.5, 7.7396e-07
1503.5, 7.8413e-07
1505.5, 7.9509e-07
1507.5, 7.617e-07
1509.5, 8.0809e-07
1511.5, 7.7469e-07
1513.5, 7.5215e-07
1515.5, 7.5443e-07
1517.5, 7.2574e-07
1519.5, 7.3782e-07
1521.5, 7.4424e-07
1523.5, 7.9983e-07
1525.5, 7.5367e-07
1527.5, 6.9415e-07
1529.5, 7.0735e-07
1531.5, 7.6517e-07
1533.5, 7.9381e-07
1535.5, 7.4361e-07
1537.5, 7.6465e-07
1539.5, 8.8061e-07
1541.5, 7.7398e-07
1543.5, 7.2724e-07
1545.5, 8.2434e-07
1547.5, 8.2839e-07
1549.5, 7.2842e-07
1551.5, 8.0638e-07
1553.6, 7.4425e-07
1555.6, 7.9287e-07
1557.6, 8.579e-07
1559.6, 8.0553e-07
1561.6, 8.0384e-07
1563.6, 7.2882e-07
1565.6, 8.1842e-07
1567.6, 7.3099e-07
1569.6, 7.4667e-07
1571.6, 7.5437e-07
1573.6, 8.24e-07
1575.6, 7.0101e-07
1577.6, 7.8879e-07
1579.6, 7.5991e-07
1581.6, 7.6108e-07
1583.6, 7.5465e-07
1585.6, 7.8939e-07
1587.6, 7.4043e-07
1589.6, 7.6972e-07
1591.6, 8.0477e-07
1593.6, 7.6017e-07
1595.6, 7.2901e-07
1597.6, 7.4061e-07
1599.6, 6.9956e-07
1601.6, 7.2816e-07
1603.6, 7.9659e-07
1605.6, 8.6562e-07
1607.6, 8.337e-07
1609.6, 7.591e-07
1611.6, 8.2179e-07
1613.6, 7.4797e-07
1615.6, 8.4197e-07
1617.6, 7.7183e-07
1619.6, 7.8557e-07
1621.6, 7.7644e-07
1623.6, 7.5183e-07
1625.6, 7.7205e-07
1627.6, 8.1202e-07
1629.6, 7.7528e-07
1631.6, 8.2439e-07
1633.6, 8.277e-07
1635.6, 7.3823e-07
1637.6, 6.8217e-07
1639.6, 7.3594e-07
1641.6, 8.2906e-07
1643.6, 7.8176e-07
1645.6, 7.0286e-07
1647.6, 7.6736e-07
1649.6, 8.1086e-07
1651.6, 6.3862e-07
1653.7, 7.6033e-07
1655.7, 7.343e-07
1657.7, 7.739e-07
1659.7, 7.5311e-07
1661.7, 8.1514e-07
1663.7, 8.1443e-07
1665.7, 7.2441e-07
1667.7, 7.892e-07
1669.7, 8.3286e-07
1671.7, 7.6927e-07
1673.7, 8.2139e-07
1675.7, 7.7878e-07
1677.7, 7.8364e-07
1679.7, 7.7851e-07
1681.7, 7.4908e-07
1683.7, 8.0829e-07
1685.7, 7.6819e-07
1687.7, 7.6583e-07
1689.7, 7.1699e-07
1691.7, 7.9723e-07
1693.7, 8.2096e-07
1695.7, 7.5038e-07
1697.7, 8.0497e-07
1699.7, 8.3203e-07
1701.7, 7.873e-07
1703.7, 7.315e-07
1705.7, 7.6664e-07
1707.7, 7.8411e-07
1709.7, 6.5619e-07
1711.7, 7.6673e-07
1713.7, 9.2972e-07
1715.7, 8.5517e-07
1717.7, 7.3141e-07
1719.7, 7.8905e-07
1721.7, 8.6059e-07
1723.7, 7.8075e-07
1725.7, 8.0416e-07
1727.7, 7.4437e-07
1729.7, 6.9996e-07
1731.7, 7.502e-07
1733.7, 6.6443e-07
1735.7, 7.287e-07
1737.7, 7.6006e-07
1739.7, 7.1432e-07
1741.7, 8.7486e-07
1743.7, 8.309e-07
1745.7, 7.7438e-07
1747.7, 7.7673e-07
1749.7, 7.9148e-07
1751.7, 8.172e-07
1753.8, 7.826e-07
1755.8, 7.5362e-07
1757.8, 7.2468e-07
1759.8, 8.1557e-07
1761.8, 7.6053e-07
1763.8, 7.4032e-07
1765.8, 8.2926e-07
1767.8, 7.8814e-07
1769.8, 8.1494e-07
1771.8, 7.5981e-07
1773.8, 7.9732e-07
1775.8, 7.8854e-07
1777.8, 7.9414e-07
1779.8, 7.5835e-07
1781.8, 7.8931e-07
1783.8, 7.9419e-07
1785.8, 7.5834e-07
1787.8, 7.7053e-07
1789.8, 7.6421e-07
1791.8, 8.492e-07
1793.8, 7.0009e-07
1795.8, 7.5385e-07
1797.8, 7.9194e-07
1799.8, 7.8168e-07
1801.8, 7.8863e-07
1803.8, 7.2149e-07
1805.8, 8.2663e-07
1807.8, 7.3909e-07
1809.8, 7.3009e-07
1811.8, 7.5534e-07
1813.8, 8.1038e-07
1815.8, 7.6882e-07
1817.8, 8.3405e-07
1819.8, 7.0195e-07
1821.8, 8.0106e-07
1823.8, 8.7496e-07
1825.8, 6.8807e-07
1827.8, 7.3781e-07
1829.8, 8.7232e-07
1831.8, 7.4878e-07
1833.8, 8.0529e-07
1835.8, 8.2129e-07
1837.8, 7.9036e-07
1839.8, 8.069e-07
1841.8, 7.5998e-07
1843.8, 7.2747e-07
1845.8, 8.1069e-07
1847.8, 7.5811e-07
1849.8, 7.1882e-07
1851.8, 7.4225e-07
1853.9, 7.9162e-07
1855.9, 8.0945e-07
1857.9, 8.4725e-07
1859.9, 7.8451e-07
1861.9, 8.4007e-07
1863.9, 8.1225e-07
1865.9, 8.2027e-07
1867.9, 7.0774e-07
1869.9, 7.4215e-07
1871.9, 7.9225e-07
1873.9, 8.3342e-07
1875.9, 7.4163e-07
1877.9, 7.0653e-07
1879.9, 7.8689e-07
1881.9, 7.3538e-07
1883.9, 7.1217e-07
1885.9, 7.8604e-07
1887.9, 7.6475e-07
1889.9, 8.2446e-07
1891.9, 7.7922e-07
1893.9, 7.7332e-07
1895.9, 7.463e-07
1897.9, 8.1986e-07
1899.9, 6.7724e-07
1901.9, 8.6092e-07
1903.9, 7.2868e-07
1905.9, 7.4712e-07
1907.9, 7.7918e-07
1909.9, 7.0457e-07
1911.9, 8.5015e-07
1913.9, 7.8464e-07
1915.9, 7.9785e-07
1917.9, 7.67e-07
1919.9, 7.9736e-07
1921.9, 7.4988e-07
1923.9, 7.6732e-07
1925.9, 8.0922e-07
1927.9, 8.0363e-07
1929.9, 6.9095e-07
1931.9, 8.2536e-07
1933.9, 7.9063e-07
1935.9, 8.3869e-07
1937.9, 7.476e-07
1939.9, 8.5515e-07
1941.9, 7.969e-07
1943.9, 8.048e-07
1945.9, 7.2815e-07
1947.9, 7.0161e-07
1949.9, 7.62e-07
1951.9, 7.4212e-07
1954.0, 7.9189e-07
1956.0, 7.559e-07
1958.0, 8.7724e-07
1960.0, 7.805e-07
1962.0, 8.2787e-07
1964.0, 8.0446e-07
1966.0, 8.2813e-07
1968.0, 8.451e-07
1970.0, 7.555e-07
1972.0, 7.4516e-07
1974.0, 7.4653e-07
1976.0, 8.0427e-07
1978.0, 8.2701e-07
1980.0, 7.9062e-07
1982.0, 7.2043e-07
1984.0, 7.806e-07
1986.0, 8.9176e-07
1988.0, 7.8214e-07
1990.0, 7.6331e-07
1992.0, 8.1763e-07
1994.0, 7.9668e-07
1996.0, 8.0876e-07
1998.0, 7.1192e-07
2000.0, 8.5348e-07
2002.0, 6.9652e-07
2004.0, 8.2909e-07
2006.0, 8.7778e-07
2008.0, 7.8906e-07
2010.0, 8.0638e-07
2012.0, 7.3616e-07
2014.0, 8.0797e-07
2016.0, 7.4599e-07
2018.0, 8.8764e-07
2020.0, 7.5521e-07
2022.0, 7.7219e-07
2024.0, 7.1884e-07
2026.0, 8.6107e-07
2028.0, 7.0573e-07
2030.0, 7.9693e-07
2032.0, 7.8026e-07
2034.0, 8.1285e-07
2036.0, 8.1147e-07
2038.0, 7.9687e-07
2040.0, 8.1618e-07
2042.0, 7.1135e-07
2044.0, 7.6679e-07
2046.0, -3.06e-08
2048.0, -3.453e-08
2050.0, -3.225e-08
2052.0, -3.416e-08
2054.1, -3.29e-08
2056.1, -3.548e-08
2058.1, -3.341e-08
2060.1, -3.532e-08
2062.1, -3.553e-08
2064.1, -3.339e-08
2066.1, -3.516e-08
2068.1, -3.626e-08
2070.1, -3.456e-08
2072.1, -3.188e-08
2074.1, -3.456e-08
2076.1, -3.466e-08
2078.1, -3.464e-08
2080.1, -3.438e-08
2082.1, -3.455e-08
2084.1, -3.332e-08
2086.1, -3.558e-08
2088.1, -3.569e-08
2090.1, -3.506e-08
2092.1, -3.908e-08
2094.1, -3.554e-08
2096.1, -3.702e-08
2098.1, -3.604e-08
2100.1, -3.44e-08
2102.1, -3.483e-08
2104.1, -3.629e-08
2106.1, -3.972e-08
2108.1, -3.513e-08
2110.1, -3.743e-08
2112.1, -3.697e-08
2114.1, -3.472e-08
2116.1, -3.386e-08
2118.1, -3.639e-08
2120.1, -3.634e-08
2122.1, -3.767e-08
2124.1, -3.749e-08
2126.1, -3.346e-08
2128.1, -3.311e-08
2130.1, -3.278e-08
2132.1, -3.264e-08
2134.1, -3.044e-08
2136.1, -3.007e-08
2138.1, -2.882e-08
2140.1, -3.223e-08
2142.1, -3.456e-08
2144.1, -3.596e-08
2146.1, -3.044e-08
2148.1, -3.287e-08
2150.1, -2.988e-08
2152.1, -2.848e-08
2154.2, -2.77e-08
2156.2, -2.879e-08
2158.2, -2.836e-08
2160.2, -2.844e-08
2162.2, -3.138e-08
2164.2, -3.247e-08
2166.2, -3.199e-08
2168.2, -3.157e-08
2170.2, -2.549e-08
2172.2, -2.792e-08
2174.2, -3.059e-08
2176.2, -3.322e-08
2178.2, -3.357e-08
2180.2, -3.258e-08
2182.2, -3.541e-08
2184.2, -3.539e-08
2186.2, -3.655e-08
2188.2, -3.345e-08
2190.2, -3.159e-08
2192.2, -3.502e-08
2194.2, -3.186e-08
2196.2, -3.597e-08
2198.2, -3.327e-08
2200.2, -3.619e-08
2202.2, -3.699e-08
2204.2, -3.37e-08
2206.2, -3.509e-08
2208.2, -3.406e-08
2210.2, -3.698e-08
2212.2, -3.53e-08
2214.2, -3.481e-08
2216.2, -3.526e-08
2218.2, -3.508e-08
2220.2, -3.318e-08
2222.2, -3.605e-08
2224.2, -3.33e-08
2226.2, -3.351e-08
2228.2, -3.424e-08
2230.2, -3.243e-08
2232.2, -3.279e-08
2234.2, -3.528e-08
2236.2, -3.088e-08
2238.2, -3.33e-08
2240.2, -3.15e-08
2242.2, -3.35e-08
2244.2, -3.46e-08
2246.2, -3.582e-08
2248.2, -3.269e-08
2250.2, -3.249e-08
2252.2, -3.086e-08
2254.3, -3.157e-08
2256.3, -3.273e-08
2258.3, -3.42e-08
2260.3, -3.51e-08
2262.3, -3.356e-08
2264.3, -3.388e-08
2266.3, -3.179e-08
2268.3, -2.922e-08
2270.3, -3.242e-08
2272.3, -3.457e-08
2274.3, -3.427e-08
2276.3, -3.192e-08
2278.3, -2.93e-08
2280.3, -3.204e-08
2282.3, -3.537e-08
2284.3, -3.021e-08
2286.3, -3.363e-08
2288.3, -3.481e-08
2290.3, -3.198e-08
2292.3, -3.131e-08
2294.3, -3.531e-08
2296.3, -3.144e-08
2298.3, -3.318e-08
2300.3, -3.132e-08
2302.3, -3.167e-08
2304.3, -3.542e-08
2306.3, -3.402e-08
2308.3, -3.132e-08
2310.3, -3.271e-08
2312.3, -3.35e-08
2314.3, -3.242e-08
2316.3, -3.626e-08
2318.3, -3.498e-08
2320.3, -3.653e-08
2322.3, -3.522e-08
2324.3, -3.468e-08
2326.3, -3.784e-08
2328.3, -3.637e-08
2330.3, -3.677e-08
2332.3, -3.588e-08
2334.3, -3.505e-08
2336.3, -3.491e-08
2338.3, -3.724e-08
2340.3, -3.511e-08
2342.3, -3.881e-08
2344.3, -3.708e-08
2346.3, -3.721e-08
2348.3, -3.816e-08
2350.3, -3.525e-08
2352.3, -3.51e-08
2354.4, -3.486e-08
2356.4, -3.473e-08
2358.4, -3.727e-08
2360.4, -3.604e-08
2362.4, -3.394e-08
2364.4, -3.465e-08
2366.4, -3.604e-08
2368.4, -3.31e-08
2370.4, -3.173e-08
2372.4, -2.869e-08
2374.4, -3.469e-08
2376.4, -3.138e-08
2378.4, -3.324e-08
2380.4, -3.442e-08
2382.4, -3.618e-08
2384.4, -3.441e-08
2386.4, -3.122e-08
2388.4, -3.12e-08
2390.4, -3.322e-08
2392.4, -3.121e-08
2394.4, -3.557e-08
2396.4, -3.382e-08
2398.4, -3.505e-08
2400.4, -3.031e-08
2402.4, -3.275e-08
2404.4, -3.212e-08
2406.4, -3.4e-08
2408.4, -3.689e-08
2410.4, -3.405e-08
2412.4, -3.677e-08
2414.4, -3.743e-08
2416.4, -3.405e-08
2418.4, -3.65e-08
2420.4, -3.539e-08
2422.4, -3.593e-08
2424.4, -3.548e-08
2426.4, -3.448e-08
2428.4, -3.854e-08
2430.4, -3.862e-08
2432.4, -3.347e-08
2434.4, -3.462e-08
2436.4, -3.752e-08
2438.4, -3.313e-08
2440.4, -3.531e-08
2442.4, -3.577e-08
2444.4, -3.124e-08
2446.4, -3.165e-08
2448.4, -3.395e-08
2450.4, -3.571e-08
2452.4, -3.442e-08
2454.5, -3.466e-08
2456.5, -3.246e-08
2458.5, -3.119e-08
2460.5, -3.265e-08
2462.5, -3.666e-08
2464.5, -3.138e-08
2466.5, -3.461e-08
2468.5, -3.744e-08
2470.5, -3.838e-08
2472.5, -3.968e-08
2474.5, -3.567e-08
2476.5, -3.66e-08
2478.5, -3.905e-08
2480.5, -3.68e-08
2482.5, -3.318e-08
2484.5, -3.621e-08
2486.5, -3.857e-08
2488.5, -3.795e-08
2490.5, -3.653e-08
2492.5, -3.642e-08
2494.5, -3.519e-08
2496.5, -3.295e-08
2498.5, -3.628e-08
2500.5, -3.565e-08
2502.5, -3.595e-08
2504.5, -3.572e-08
2506.5, -3.861e-08
2508.5, -4.021e-08
2510.5, -3.357e-08
2512.5, -3.554e-08
2514.5, -3.533e-08
2516.5, -3.576e-08
2518.5, -3.419e-08
2520.5, -3.508e-08
2522.5, -3.434e-08
2524.5, -3.833e-08
2526.5, -3.558e-08
2528.5, -3.453e-08
2530.5, -3.701e-08
2532.5, -3.515e-08
2534.5, -3.68e-08
2536.5, -3.641e-08
2538.5, -3.74e-08
2540.5, -3.712e-08
2542.5, -3.424e-08
2544.5, -3.547e-08
2546.5, -3.579e-08
2548.5, -3.692e-08
2550.5, -3.29e-08
2552.5, -3.716e-08
2554.6, -4.095e-08
2556.6, -3.798e-08
2558.6, -3.969e-08
2560.6, -3.798e-08
2562.6, -3.921e-08
2564.6, -4.086e-08
2566.6, -4.018e-08
2568.6, -3.526e-08
2570.6, -3.535e-08
2572.6, -3.631e-08
2574.6, -3.862e-08
2576.6, -3.501e-08
2578.6, -3.646e-08
2580.6, -3.682e-08
2582.6, -3.614e-08
2584.6, -3.779e-08
2586.6, -4.221e-08
2588.6, -4.138e-08
2590.6, -3.539e-08
2592.6, -3.736e-08
2594.6, -3.944e-08
2596.6, -3.894e-08
2598.6, -4.044e-08
2600.6, -3.884e-08
2602.6, -4.089e-08
2604.6, -3.998e-08
2606.6, -3.986e-08
2608.6, -4.025e-08
2610.6, -3.965e-08
2612.6, -3.816e-08
2614.6, -3.727e-08
2616.6, -3.91e-08
2618.6, -3.448e-08
2620.6, -3.385e-08
2622.6, -3.626e-08
2624.6, -3.566e-08
2626.6, -3.967e-08
2628.6, -3.56e-08
2630.6, -3.466e-08
2632.6, -3.774e-08
2634.6, -3.695e-08
2636.6, -3.292e-08
2638.6, -3.281e-08
2640.6, -3.539e-08
2642.6, -3.664e-08
2644.6, -3.596e-08
2646.6, -3.594e-08
2648.6, -3.438e-08
2650.6, -3.389e-08
2652.6, -3.466e-08
2654.7, -3.642e-08
2656.7, -3.476e-08
2658.7, -3.753e-08
2660.7, -3.696e-08
2662.7, -3.41e-08
2664.7, -3.292e-08
2666.7, -3.243e-08
2668.7, -3.149e-08
2670.7, -3.155e-08
2672.7, -3.134e-08
2674.7, -3.245e-08
2676.7, -3.255e-08
2678.7, -3.759e-08
2680.7, -3.387e-08
2682.7, -3.468e-08
2684.7, -3.361e-08
2686.7, -3.829e-08
2688.7, -3.021e-08
2690.7, -3.745e-08
2692.7, -3.906e-08
2694.7, -3.564e-08
2696.7, -3.742e-08
2698.7, -3.501e-08
2700.7, -3.002e-08
2702.7, -3.158e-08
2704.7, -3.202e-08
2706.7, -3.497e-08
2708.7, -3.236e-08
2710.7, -3.331e-08
2712.7, -3.358e-08
2714.7, -3.538e-08
2716.7, -3.166e-08
2718.7, -3.187e-08
2720.7, -3.399e-08
2722.7, -3.272e-08
2724.7, -3.185e-08
2726.7, -3.271e-08
2728.7, -3.348e-08
2730.7, -3.404e-08
2732.7, -3.317e-08
2734.7, -3.323e-08
2736.7, -3.246e-08
2738.7, -3.343e-08
2740.7, -3.446e-08
2742.7, -3.567e-08
2744.7, -3.632e-08
2746.7, -3.616e-08
2748.7, -3.302e-08
2750.7, -2.914e-08
2752.7, -3.072e-08
2754.8, -3.152e-08
2756.8, -3.397e-08
2758.8, -3.56e-08
2760.8, -3.322e-08
2762.8, -2.894e-08
2764.8, -2.927e-08
2766.8, -2.788e-08
2768.8, -3.146e-08
2770.8, -3.041e-08
2772.8, -3.524e-08
2774.8, -3.369e-08
2776.8, -3.376e-08
2778.8, -3.634e-08
2780.8, -3.118e-08
2782.8, -3.468e-08
2784.8, -3.469e-08
2786.8, -3.014e-08
2788.8, -3.152e-08
2790.8, -3.299e-08
2792.8, -3.418e-08
2794.8, -3.376e-08
2796.8, -3.609e-08
2798.8, -3.501e-08
2800.8, -3.103e-08
2802.8, -2.987e-08
2804.8, -3.55e-08
2806.8, -3.425e-08
2808.8, -3.245e-08
2810.8, -3.402e-08
2812.8, -3.214e-08
2814.8, -3.188e-08
2816.8, -3.432e-08
2818.8, -3.421e-08
2820.8, -3.75e-08
2822.8, -3.458e-08
2824.8, -3.595e-08
2826.8, -3.508e-08
2828.8, -3.503e-08
2830.8, -3.374e-08
2832.8, -3.637e-08
2834.8, -3.303e-08
2836.8, -3.423e-08
2838.8, -3.053e-08
2840.8, -3.249e-08
2842.8, -3.593e-08
2844.8, -3.454e-08
2846.8, -3.304e-08
2848.8, -3.367e-08
2850.8, -3.253e-08
2852.8, -3.351e-08
2854.9, -3.237e-08
2856.9, -3.184e-08
2858.9, -3.403e-08
2860.9, -3.517e-08
2862.9, -3.627e-08
2864.9, -3.789e-08
2866.9, -3.289e-08
2868.9, -3.187e-08
2870.9, -3.258e-08
2872.9, -3.454e-08
2874.9, -3.503e-08
2876.9, -3.411e-08
2878.9, -2.931e-08
2880.9, -3.504e-08
2882.9, -3.223e-08
2884.9, -3.282e-08
2886.9, -3.631e-08
2888.9, -3.345e-08
2890.9, -3.616e-08
2892.9, -3.451e-08
2894.9, -3.627e-08
2896.9, -3.272e-08
2898.9, -3.554e-08
2900.9, -3.703e-08
2902.9, -3.462e-08
2904.9, -3.486e-08
2906.9, -3.602e-08
2908.9, -3.792e-08
2910.9, -3.355e-08
2912.9, -3.28e-08
2914.9, -3.371e-08
2916.9, -3.27e-08
2918.9, -3.625e-08
2920.9, -3.818e-08
2922.9, -3.853e-08
2924.9, -3.763e-08
2926.9, -3.419e-08
2928.9, -3.632e-08
2930.9, -3.388e-08
2932.9, -3.516e-08
2934.9, -3.407e-08
2936.9, -3.854e-08
2938.9, -3.214e-08
2940.9, -3.322e-08
2942.9, -3.04e-08
2944.9, -3.44e-08
2946.9, -3.485e-08
2948.9, -3.345e-08
2950.9, -3.363e-08
2952.9, -3.549e-08
2955.0, -3.586e-08
2957.0, -3.842e-08
2959.0, -3.51e-08
2961.0, -3.735e-08
2963.0, -3.608e-08
2965.0, -3.531e-08
2967.0, -3.615e-08
2969.0, -3.725e-08
2971.0, -3.289e-08
2973.0, -3.127e-08
2975.0, -3.618e-08
2977.0, -3.163e-08
2979.0, -3.205e-08
2981.0, -3.228e-08
2983.0, -3.365e-08
2985.0, -3.365e-08
2987.0, -3.45e-08
2989.0, -4.007e-08
2991.0, -3.763e-08
2993.0, -3.682e-08
2995.0, -3.633e-08
2997.0, -3.264e-08
2999.0, -3.182e-08
3001.0, -3.255e-08
3003.0, -3.068e-08
3005.0, -2.979e-08
3007.0, -3.365e-08
3009.0, -3.319e-08
3011.0, -3.2e-08
3013.0, -3.112e-08
3015.0, -3.255e-08
3017.0, -3.168e-08
3019.0, -2.802e-08
3021.0, -2.986e-08
3023.0, -3.024e-08
3025.0, -2.909e-08
3027.0, -3.065e-08
3029.0, -3.354e-08
3031.0, -3.294e-08
3033.0, -2.925e-08
3035.0, -3.437e-08
3037.0, -3.322e-08
3039.0, -3.554e-08
3041.0, -3.337e-08
3043.0, -3.293e-08
3045.0, -3.597e-08
3047.0, -3.173e-08
3049.0, -3.085e-08
3051.0, -2.819e-08
3053.0, -3.278e-08
3055.1, -3.341e-08
3057.1, -3.3e-08
3059.1, -3.287e-08
3061.1, -3.529e-08
3063.1, -3.31e-08
3065.1, -3.427e-08
3067.1, -3.612e-08
3069.1, -3.041e-08
3071.1, -3.234e-08
3073.1, -3.484e-08
3075.1, -3.411e-08
3077.1, -3.298e-08
3079.1, -3.539e-08
3081.1, -3.639e-08
3083.1, -3.706e-08
3085.1, -3.698e-08
3087.1, -3.649e-08
3089.1, -3.3e-08
3091.1, -3.45e-08
3093.1, -3.829e-08
3095.1, -3.735e-08
3097.1, -3.486e-08
3099.1, 3.9715e-07
3101.1, 7.2264e-07
3103.1, 6.7564e-07
3105.1, 7.0353e-07
3107.1, 6.0185e-07
3109.1, 6.0148e-07
3111.1, 6.5729e-07
3113.1, 6.897e-07
3115.1, 6.2222e-07
3117.1, 6.5805e-07
3119.1, 6.6507e-07
3121.1, 6.6926e-07
3123.1, 7.228e-07
3125.1, 7.26e-07
3127.1, 6.7107e-07
3129.1, 6.4083e-07
3131.1, 6.3874e-07
3133.1, 6.9089e-07
3135.1, 6.9156e-07
3137.1, 7.7897e-07
3139.1, 6.5096e-07
3141.1, 6.7308e-07
3143.1, 7.4227e-07
3145.1, 6.2821e-07
3147.1, 7.0971e-07
3149.1, 7.1302e-07
3151.1, 7.3775e-07
3153.1, 7.6532e-07
3155.2, 6.8167e-07
3157.2, 7.2512e-07
3159.2, 7.3599e-07
3161.2, 6.9869e-07
3163.2, 7.252e-07
3165.2, 6.6871e-07
3167.2, 6.9902e-07
3169.2, 7.4313e-07
3171.2, 6.8419e-07
3173.2, 7.4242e-07
3175.2, 6.735e-07
3177.2, 7.1188e-07
3179.2, 6.8219e-07
3181.2, 6.8051e-07
3183.2, 6.8785e-07
3185.2, 6.648e-07
3187.2, 6.2391e-07
3189.2, 7.178e-07
3191.2, 6.6546e-07
3193.2, 7.7131e-07
3195.2, 7.3002e-07
3197.2, 7.2359e-07
3199.2, 7.5316e-07
3201.2, 6.8407e-07
3203.2, 7.0976e-07
3205.2, 7.6097e-07
3207.2, 7.192e-07
3209.2, 7.0494e-07
3211.2, 7.2459e-07
3213.2, 7.3558e-07
3215.2, 7.3778e-07
3217.2, 7.398e-07
3219.2, 7.5286e-07
3221.2, 7.3712e-07
3223.2, 7.3519e-07
3225.2, 7.4119e-07
3227.2, 6.6485e-07
3229.2, 6.6436e-07
3231.2, 7.5041e-07
3233.2, 7.3641e-07
3235.2, 7.2876e-07
3237.2, 7.7988e-07
3239.2, 7.166e-07
3241.2, 7.4914e-07
3243.2, 7.0743e-07
3245.2, 6.8346e-07
3247.2, 7.2551e-07
3249.2, 7.5431e-07
3251.2, 7.5898e-07
3253.2, 8.0246e-07
3255.3, 7.5409e-07
3257.3, 7.4412e-07
3259.3, 6.6028e-07
3261.3, 7.3597e-07
3263.3, 7.5434e-07
3265.3, 7.2241e-07
3267.3, 7.3506e-07
3269.3, 7.4548e-07
3271.3, 7.212e-07
3273.3, 7.7097e-07
3275.3, 6.9822e-07
3277.3, 7.5276e-07
3279.3, 6.9756e-07
3281.3, 6.9973e-07
3283.3, 7.836e-07
3285.3, 7.2836e-07
3287.3, 7.788e-07
3289.3, 7.0309e-07
3291.3, 7.4153e-07
3293.3, 7.7511e-07
3295.3, 7.6027e-07
3297.3, 7.3274e-07
3299.3, 6.4867e-07
3301.3, 7.6661e-07
3303.3, 6.5831e-07
3305.3, 7.3585e-07
3307.3, 7.9242e-07
3309.3, 7.7345e-07
3311.3, 6.9796e-07
3313.3, 8.4689e-07
3315.3, 7.7989e-07
3317.3, 7.1235e-07
3319.3, 7.4275e-07
3321.3, 7.1235e-07
3323.3, 6.7249e-07
3325.3, 7.7987e-07
3327.3, 7.0712e-07
3329.3, 8.4203e-07
3331.3, 7.4786e-07
3333.3, 7.3736e-07
3335.3, 7.6561e-07
3337.3, 6.8651e-07
3339.3, 6.9669e-07
3341.3, 7.2212e-07
3343.3, 8.1132e-07
3345.3, 7.031e-07
3347.3, 6.7483e-07
3349.3, 7.6062e-07
3351.3, 7.6801e-07
3353.3, 7.3524e-07
3355.4, 7.4686e-07
3357.4, 7.1435e-07
3359.4, 6.7632e-07
3361.4, 7.2418e-07
3363.4, 7.1116e-07
3365.4, 8.0158e-07
3367.4, 7.9571e-07
3369.4, 7.6063e-07
3371.4, 7.2148e-07
3373.4, 7.12e-07
3375.4, 6.9697e-07
3377.4, 7.1706e-07
3379.4, 7.9749e-07
3381.4, 7.1436e-07
3383.4, 7.3349e-07
3385.4, 7.5625e-07
3387.4, 7.4791e-07
3389.4, 7.5039e-07
3391.4, 7.9106e-07
3393.4, 8.3307e-07
3395.4, 8.3809e-07
3397.4, 6.9052e-07
3399.4, 7.3054e-07
3401.4, 7.2076e-07
3403.4, 7.7317e-07
3405.4, 7.5485e-07
3407.4, 7.533e-07
3409.4, 7.0049e-07
3411.4, 7.8637e-07
3413.4, 8.0942e-07
3415.4, 8.0678e-07
3417.4, 7.5593e-07
3419.4, 6.5199e-07
3421.4, 7.1523e-07
3423.4, 7.7165e-07
3425.4, 7.4621e-07
3427.4, 7.8973e-07
3429.4, 7.0626e-07
3431.4, 7.2613e-07
3433.4, 7.0164e-07
3435.4, 7.4841e-07
3437.4, 7.7286e-07
3439.4, 8.0201e-07
3441.4, 7.6357e-07
3443.4, 7.6216e-07
3445.4, 8.1111e-07
3447.4, 6.7363e-07
3449.4, 7.5283e-07
3451.4, 7.6678e-07
3453.4, 7.4055e-07
3455.5, 7.5698e-07
3457.5, 7.2437e-07
3459.5, 8.2169e-07
3461.5, 7.7145e-07
3463.5, 6.5765e-07
3465.5, 6.8574e-07
3467.5, 7.7349e-07
3469.5, 7.9262e-07
3471.5, 7.8391e-07
3473.5, 7.4059e-07
3475.5, 7.6761e-07
3477.5, 7.7067e-07
3479.5, 6.8067e-07
3481.5, 8.0623e-07
3483.5, 6.6615e-07
3485.5, 7.653e-07
3487.5, 7.3131e-07
3489.5, 8.0428e-07
3491.5, 8.1251e-07
3493.5, 7.3802e-07
3495.5, 7.4088e-07
3497.5, 7.7464e-07
3499.5, 7.9077e-07
3501.5, 7.5746e-07
3503.5, 6.8984e-07
3505.5, 7.0736e-07
3507.5, 6.9963e-07
3509.5, 7.226e-07
3511.5, 7.2584e-07
3513.5, 7.9204e-07
3515.5, 7.6886e-07
3517.5, 8.3413e-07
3519.5, 7.8035e-07
3521.5, 7.7545e-07
3523.5, 7.0293e-07
3525.5, 7.3463e-07
3527.5, 8.3623e-07
3529.5, 7.6878e-07
3531.5, 7.5385e-07
3533.5, 6.6577e-07
3535.5, 7.6836e-07
3537.5, 7.4862e-07
3539.5, 7.2576e-07
3541.5, 7.4569e-07
3543.5, 7.2318e-07
3545.5, 7.5022e-07
3547.5, 7.3874e-07
3549.5, 7.1342e-07
3551.5, 7.744e-07
3553.5, 7.1423e-07
3555.6, 7.4562e-07
3557.6, 7.4948e-07
3559.6, 7.2034e-07
3561.6, 7.7196e-07
3563.6, 7.3638e-07
3565.6, 7.6855e-07
3567.6, 7.2399e-07
3569.6, 8.0468e-07
3571.6, 7.4991e-07
3573.6, 7.5867e-07
3575.6, 7.0639e-07
3577.6, 7.963e-07
3579.6, 7.5855e-07
3581.6, 7.439e-07
3583.6, 7.6901e-07
3585.6, 7.4054e-07
3587.6, 7.8102e-07
3589.6, 7.9775e-07
3591.6, 7.3503e-07
3593.6, 7.3643e-07
3595.6, 7.4684e-07
3597.6, 7.5849e-07
3599.6, 7.6639e-07
3601.6, 8.172e-07
3603.6, 8.2815e-07
3605.6, 7.1278e-07
3607.6, 7.399e-07
3609.6, 7.1404e-07
3611.6, 7.3388e-07
3613.6, 7.5663e-07
3615.6, 7.2761e-07
3617.6, 7.5402e-07
3619.6, 8.0938e-07
3621.6, 8.0089e-07
3623.6, 6.8471e-07
3625.6, 7.2895e-07
3627.6, 7.4257e-07
3629.6, 7.6159e-07
3631.6, 7.335e-07
3633.6, 7.8791e-07
3635.6, 7.8117e-07
3637.6, 8.2434e-07
3639.6, 7.3361e-07
3641.6, 7.7725e-07
3643.6, 7.0623e-07
3645.6, 8.3422e-07
3647.6, 6.2186e-07
3649.6, 8.5576e-07
3651.6, 7.3935e-07
3653.6, 7.99e-07
3655.7, 7.6538e-07
3657.7, 7.8217e-07
3659.7, 8.4113e-07
3661.7, 8.3045e-07
3663.7, 7.7049e-07
3665.7, 7.8097e-07
3667.7, 7.0439e-07
3669.7, 8.2331e-07
3671.7, 7.2933e-07
3673.7, 7.4839e-07
3675.7, 7.525e-07
3677.7, 7.2763e-07
3679.7, 7.1005e-07
3681.7, 7.0798e-07
3683.7, 7.586e-07
3685.7, 8.1953e-07
3687.7, 7.6466e-07
3689.7, 7.6906e-07
3691.7, 7.9435e-07
3693.7, 7.8637e-07
3695.7, 6.8925e-07
3697.7, 6.93e-07
3699.7, 7.2835e-07
3701.7, 7.3293e-07
3703.7, 7.2705e-07
3705.7, 6.6229e-07
3707.7, 6.7712e-07
3709.7, 8.1462e-07
3711.7, 6.79e-07
3713.7, 6.9188e-07
3715.7, 7.8128e-07
3717.7, 7.9427e-07
3719.7, 7.8202e-07
3721.7, 6.9097e-07
3723.7, 7.7338e-07
3725.7, 7.7157e-07
3727.7, 7.2969e-07
3729.7, 6.9579e-07
3731.7, 7.7696e-07
3733.7, 7.3967e-07
3735.7, 8.033e-07
3737.7, 7.2633e-07
3739.7, 7.7482e-07
3741.7, 8.2158e-07
3743.7, 8.5125e-07
3745.7, 8.1357e-07
3747.7, 7.6056e-07
3749.7, 7.7064e-07
3751.7, 8.0713e-07
3753.7, 8.2866e-07
3755.8, 8.4112e-07
3757.8, 7.8595e-07
3759.8, 7.1249e-07
3761.8, 7.2865e-07
3763.8, 7.1386e-07
3765.8, 8.0176e-07
3767.8, 7.752e-07
3769.8, 7.7801e-07
3771.8, 6.9303e-07
3773.8, 7.9993e-07
3775.8, 7.1159e-07
3777.8, 8.1304e-07
3779.8, 7.8413e-07
3781.8, 7.9017e-07
3783.8, 7.4643e-07
3785.8, 6.9773e-07
3787.8, 6.6207e-07
3789.8, 7.7282e-07
3791.8, 7.5607e-07
3793.8, 7.5454e-07
3795.8, 8.0588e-07
3797.8, 7.2919e-07
3799.8, 8.2722e-07
3801.8, 7.1555e-07
3803.8, 7.5851e-07
3805.8, 7.6917e-07
3807.8, 7.646e-07
3809.8, 7.4237e-07
3811.8, 6.9464e-07
3813.8, 7.1475e-07
3815.8, 6.7647e-07
3817.8, 7.8712e-07
3819.8, 7.7041e-07
3821.8, 7.5938e-07
3823.8, 6.97e-07
3825.8, 7.5087e-07
3827.8, 7.6547e-07
3829.8, 6.9378e-07
3831.8, 6.9897e-07
3833.8, 7.5096e-07
3835.8, 7.431e-07
3837.8, 7.6526e-07
3839.8, 7.92e-07
3841.8, 7.3831e-07
3843.8, 8.232e-07
3845.8, 7.1832e-07
3847.8, 7.7927e-07
3849.8, 7.5672e-07
3851.8, 7.3714e-07
3853.8, 8.1134e-07
3855.9, 7.6093e-07
3857.9, 8.06e-07
3859.9, 7.6812e-07
3861.9, 8.0214e-07
3863.9, 7.8067e-07
3865.9, 7.0509e-07
3867.9, 6.8865e-07
3869.9, 8.0346e-07
3871.9, 7.7143e-07
3873.9, 7.4504e-07
3875.9, 7.6142e-07
3877.9, 8.124e-07
3879.9, 8.0703e-07
3881.9, 7.5946e-07
3883.9, 7.9678e-07
3885.9, 8.0405e-07
3887.9, 7.3589e-07
3889.9, 8.1416e-07
3891.9, 7.7012e-07
3893.9, 7.457e-07
3895.9, 7.4224e-07
3897.9, 7.6617e-07
3899.9, 7.6856e-07
3901.9, 8.4453e-07
3903.9, 7.8464e-07
3905.9, 8.0397e-07
3907.9, 7.3426e-07
3909.9, 7.3833e-07
3911.9, 7.5402e-07
3913.9, 7.6786e-07
3915.9, 7.4175e-07
3917.9, 7.1547e-07
3919.9, 6.8798e-07
3921.9, 7.179e-07
3923.9, 7.5171e-07
3925.9, 7.895e-07
3927.9, 7.3635e-07
3929.9, 7.8687e-07
3931.9, 7.8058e-07
3933.9, 8.7195e-07
3935.9, 7.3945e-07
3937.9, 6.7634e-07
3939.9, 7.5297e-07
3941.9, 7.6298e-07
3943.9, 6.8073e-07
3945.9, 7.7309e-07
3947.9, 8.3728e-07
3949.9, 7.9176e-07
3951.9, 8.0993e-07
3953.9, 8.1437e-07
3956.0, 7.9572e-07
3958.0, 7.4558e-07
3960.0, 7.5049e-07
3962.0, 7.4675e-07
3964.0, 7.304e-07
3966.0, 7.3016e-07
3968.0, 7.6136e-07
3970.0, 7.4935e-07
3972.0, 7.8894e-07
3974.0, 8.0522e-07
3976.0, 7.011e-07
3978.0, 6.7072e-07
3980.0, 7.223e-07
3982.0, 8.0165e-07
3984.0, 7.8826e-07
3986.0, 8.0837e-07
3988.0, 7.773e-07
3990.0, 7.3672e-07
3992.0, 6.9432e-07
3994.0, 8.1593e-07
3996.0, 7.4209e-07
3998.0, 8.1433e-07
4000.0, 8.3667e-07
4002.0, 7.5267e-07
4004.0, 9.3479e-07
4006.0, 7.4824e-07
4008.0, 7.2736e-07
4010.0, 8.1592e-07
4012.0, 7.7701e-07
4014.0, 7.2626e-07
4016.0, 7.7175e-07
4018.0, 7.1989e-07
4020.0, 7.0378e-07
4022.0, 8.0137e-07
4024.0, 7.933e-07
4026.0, 8.0287e-07
4028.0, 7.9614e-07
4030.0, 7.7474e-07
4032.0, 7.3441e-07
4034.0, 7.6935e-07
4036.0, 7.5704e-07
4038.0, 7.3543e-07
4040.0, 7.5915e-07
4042.0, 7.0702e-07
4044.0, 7.5205e-07
4046.0, 7.8148e-07
4048.0, 7.7283e-07
4050.0, 7.2092e-07
4052.0, 7.6278e-07
4054.0, 7.5028e-07
4056.1, 8.266e-07
4058.1, 7.8251e-07
4060.1, 7.9312e-07
4062.1, 7.5802e-07
4064.1, 7.7857e-07
4066.1, 8.1222e-07
4068.1, 7.5527e-07
4070.1, 7.6298e-07
4072.1, 8.4683e-07
4074.1, 7.9448e-07
4076.1, 7.9435e-07
4078.1, 7.5143e-07
4080.1, 8.0274e-07
4082.1, 7.0785e-07
4084.1, 8.1338e-07
4086.1, 8.1351e-07
4088.1, 8.555e-07
4090.1, 8.5612e-07
4092.1, 7.8688e-07
4094.1, 7.8534e-07
4096.1, 7.104e-07
4098.1, 7.9542e-07
4100.1, 3.5992e-07
4102.1, -3.941e-08
4104.1, -3.655e-08
4106.1, -3.967e-08
4108.1, -3.946e-08
4110.1, -3.902e-08
4112.1, -3.8e-08
4114.1, -4.169e-08
4116.1, -4.201e-08
4118.1, -4.04e-08
4120.1, -3.961e-08
4122.1, -3.738e-08
4124.1, -3.898e-08
4126.1, -3.732e-08
4128.1, -3.892e-08
4130.1, -3.764e-08
4132.1, -3.622e-08
4134.1, -3.22e-08
4136.1, -3.655e-08
4138.1, -3.89e-08
4140.1, -4.315e-08
4142.1, -3.92e-08
4144.1, -3.739e-08
4146.1, -3.567e-08
4148.1, -3.821e-08
4150.1, -3.649e-08
4152.1, -3.917e-08
4154.1, -3.381e-08
4156.2, -3.618e-08
4158.2, -3.961e-08
4160.2, -3.603e-08
4162.2, -3.756e-08
4164.2, -3.25e-08
4166.2, -3.558e-08
4168.2, -3.596e-08
4170.2, -3.893e-08
4172.2, -3.906e-08
4174.2, -3.453e-08
4176.2, -3.523e-08
4178.2, -3.63e-08
4180.2, -3.879e-08
4182.2, -3.628e-08
4184.2, -3.47e-08
4186.2, -3.611e-08
4188.2, -3.899e-08
4190.2, -3.334e-08
4192.2, -3.257e-08
4194.2, -3.381e-08
4196.2, -3.552e-08
4198.2, -3.736e-08
4200.2, -3.272e-08
4202.2, -3.585e-08
4204.2, -3.088e-08
4206.2, -3.629e-08
4208.2, -3.471e-08
4210.2, -3.54e-08
4212.2, -3.509e-08
4214.2, -3.321e-08
4216.2, -3.089e-08
4218.2, -3.37e-08
4220.2, -3.401e-08
4222.2, -3.664e-08
4224.2, -3.451e-08
4226.2, -3.291e-08
4228.2, -3.147e-08
4230.2, -3.365e-08
4232.2, -3.204e-08
4234.2, -3.132e-08
4236.2, -2.886e-08
4238.2, -3.227e-08
4240.2, -3.283e-08
4242.2, -3.026e-08
4244.2, -3.399e-08
4246.2, -3.546e-08
4248.2, -3.906e-08
4250.2, -3.724e-08
4252.2, -4.088e-08
4254.2, -3.798e-08
4256.3, -3.768e-08
4258.3, -3.735e-08
4260.3, -4.084e-08
4262.3, -3.555e-08
4264.3, -3.65e-08
4266.3, -3.815e-08
4268.3, -3.415e-08
4270.3, -3.485e-08
4272.3, -3.747e-08
4274.3, -3.776e-08
4276.3, -3.981e-08
4278.3, -3.881e-08
4280.3, -3.363e-08
4282.3, -3.739e-08
4284.3, -3.791e-08
4286.3, -3.576e-08
4288.3, -3.621e-08
4290.3, -3.829e-08
4292.3, -3.836e-08
4294.3, -3.56e-08
4296.3, -4.214e-08
4298.3, -3.561e-08
4300.3, -3.407e-08
4302.3, -3.228e-08
4304.3, -3.325e-08
4306.3, -3.781e-08
4308.3, -3.485e-08
4310.3, -3.582e-08
4312.3, -3.693e-08
4314.3, -3.53e-08
4316.3, -3.13e-08
4318.3, -3.698e-08
4320.3, -3.332e-08
4322.3, -3.483e-08
4324.3, -3.578e-08
4326.3, -3.684e-08
4328.3, -3.765e-08
4330.3, -3.513e-08
4332.3, -3.394e-08
4334.3, -3.204e-08
4336.3, -3.388e-08
4338.3, -3.758e-08
4340.3, -3.72e-08
4342.3, -3.707e-08
4344.3, -3.6e-08
4346.3, -3.712e-08
4348.3, -3.809e-08
4350.3, -3.44e-08
4352.3, -3.551e-08
4354.3, -3.519e-08
4356.4, -3.591e-08
4358.4, -3.293e-08
4360.4, -3.389e-08
4362.4, -3.362e-08
4364.4, -3.421e-08
4366.4, -3.488e-08
4368.4, -3.433e-08
4370.4, -3.829e-08
4372.4, -3.469e-08
4374.4, -3.547e-08
4376.4, -4.102e-08
4378.4, -4.251e-08
4380.4, -3.813e-08
4382.4, -3.651e-08
4384.4, -3.609e-08
4386.4, -3.811e-08
4388.4, -3.816e-08
4390.4, -3.834e-08
4392.4, -3.649e-08
4394.4, -3.48e-08
4396.4, -3.646e-08
4398.4, -3.961e-08
4400.4, -3.81e-08
4402.4, -4.187e-08
4404.4, -3.571e-08
4406.4, -3.911e-08
4408.4, -3.911e-08
4410.4, -3.992e-08
4412.4, -3.769e-08
4414.4, -3.337e-08
4416.4, -3.669e-08
4418.4, -4.045e-08
4420.4, -3.924e-08
4422.4, -3.929e-08
4424.4, -3.795e-08
4426.4, -4.06e-08
4428.4, -3.902e-08
4430.4, -3.829e-08
4432.4, -3.772e-08
4434.4, -3.884e-08
4436.4, -4.148e-08
4438.4, -3.655e-08
4440.4, -3.882e-08
4442.4, -3.585e-08
4444.4, -3.822e-08
4446.4, -3.449e-08
4448.4, -3.592e-08
4450.4, -3.728e-08
4452.4, -3.59e-08
4454.4, -3.603e-08
4456.5, -3.669e-08
4458.5, -3.743e-08
4460.5, -3.23e-08
4462.5, -3.558e-08
4464.5, -3.849e-08
4466.5, -3.761e-08
4468.5, -3.874e-08
4470.5, -4.21e-08
4472.5, -3.825e-08
4474.5, -4.332e-08
4476.5, -3.91e-08
4478.5, -3.919e-08
4480.5, -3.899e-08
4482.5, -3.956e-08
4484.5, -4.048e-08
4486.5, -4.027e-08
4488.5, -3.96e-08
4490.5, -4.009e-08
4492.5, -3.85e-08
4494.5, -3.839e-08
4496.5, -4.093e-08
4498.5, -3.436e-08
4500.5, -3.637e-08
4502.5, -3.764e-08
4504.5, -3.65e-08
4506.5, -3.889e-08
4508.5, -3.872e-08
4510.5, -3.536e-08
4512.5, -3.877e-08
4514.5, -3.245e-08
4516.5, -3.842e-08
4518.5, -3.867e-08
4520.5, -3.692e-08
4522.5, -3.683e-08
4524.5, -3.664e-08
4526.5, -3.863e-08
4528.5, -4.034e-08
4530.5, -4.03e-08
4532.5, -4.158e-08
4534.5, -4.083e-08
4536.5, -4.165e-08
4538.5, -3.968e-08
4540.5, -3.845e-08
4542.5, -3.643e-08
4544.5, -4.014e-08
4546.5, -3.924e-08
4548.5, -4.193e-08
4550.5, -3.97e-08
4552.5, -4.084e-08
4554.5, -3.826e-08
4556.6, -3.959e-08
4558.6, -3.992e-08
4560.6, -3.698e-08
4562.6, -3.833e-08
4564.6, -3.658e-08
4566.6, -3.456e-08
4568.6, -3.913e-08
4570.6, -3.88e-08
4572.6, -3.979e-08
4574.6, -3.821e-08
4576.6, -4.035e-08
4578.6, -4.338e-08
4580.6, -3.994e-08
4582.6, -4.208e-08
4584.6, -3.638e-08
4586.6, -3.814e-08
4588.6, -4.134e-08
4590.6, -3.964e-08
4592.6, -3.929e-08
4594.6, -3.709e-08
4596.6, -3.61e-08
4598.6, -3.437e-08
4600.6, -3.79e-08
4602.6, -3.412e-08
4604.6, -3.942e-08
4606.6, -3.886e-08
4608.6, -3.324e-08
4610.6, -3.854e-08
4612.6, -3.58e-08
4614.6, -3.901e-08
4616.6, -3.981e-08
4618.6, -3.838e-08
4620.6, -3.586e-08
4622.6, -3.467e-08
4624.6, -3.848e-08
4626.6, -3.665e-08
4628.6, -3.69e-08
4630.6, -3.657e-08
4632.6, -3.409e-08
4634.6, -3.8e-08
4636.6, -3.7e-08
4638.6, -3.697e-08
4640.6, -3.704e-08
4642.6, -3.775e-08
4644.6, -3.582e-08
4646.6, -3.45e-08
4648.6, -3.858e-08
4650.6, -3.786e-08
4652.6, -3.984e-08
4654.6, -3.531e-08
4656.7, -3.555e-08
4658.7, -3.627e-08
4660.7, -3.588e-08
4662.7, -3.729e-08
4664.7, -3.835e-08
4666.7, -3.995e-08
4668.7, -4.11e-08
4670.7, -3.965e-08
4672.7, -3.607e-08
4674.7, -3.837e-08
4676.7, -4.063e-08
4678.7, -3.914e-08
4680.7, -3.603e-08
4682.7, -3.831e-08
4684.7, -3.868e-08
4686.7, -3.748e-08
4688.7, -4.327e-08
4690.7, -3.829e-08
4692.7, -3.859e-08
4694.7, -3.655e-08
4696.7, -3.976e-08
4698.7, -4.09e-08
4700.7, -3.999e-08
4702.7, -3.93e-08
4704.7, -4.19e-08
4706.7, -4.297e-08
4708.7, -3.87e-08
4710.7, -4.41e-08
4712.7, -4.043e-08
4714.7, -4.206e-08
4716.7, -4.115e-08
4718.7, -3.92e-08
4720.7, -3.888e-08
4722.7, -3.702e-08
4724.7, -4.014e-08
4726.7, -3.783e-08
4728.7, -4.156e-08
4730.7, -3.759e-08
4732.7, -3.262e-08
4734.7, -3.731e-08
4736.7, -3.839e-08
4738.7, -4.167e-08
4740.7, -3.853e-08
4742.7, -4.004e-08
4744.7, -3.666e-08
4746.7, -3.504e-08
4748.7, -3.562e-08
4750.7, -3.964e-08
4752.7, -3.43e-08
4754.7, -3.82e-08
4756.8, -3.77e-08
4758.8, -4.123e-08
4760.8, -3.804e-08
4762.8, -3.766e-08
4764.8, -4.219e-08
4766.8, -4.013e-08
4768.8, -3.697e-08
4770.8, -3.997e-08
4772.8, -3.785e-08
4774.8, -4.014e-08
4776.8, -4.137e-08
4778.8, -3.793e-08
4780.8, -3.893e-08
4782.8, -3.524e-08
4784.8, -3.842e-08
4786.8, -3.999e-08
4788.8, -3.74e-08
4790.8, -3.816e-08
4792.8, -3.968e-08
4794.8, -4.226e-08
4796.8, -4.209e-08
4798.8, -4.09e-08
4800.8, -4.076e-08
4802.8, -3.718e-08
4804.8, -3.816e-08
4806.8, -4.01e-08
4808.8, -3.678e-08
4810.8, -4.082e-08
4812.8, -4.091e-08
4814.8, -4.05e-08
4816.8, -3.768e-08
4818.8, -4.235e-08
4820.8, -4.243e-08
4822.8, -4.286e-08
4824.8, -4.001e-08
4826.8, -3.883e-08
4828.8, -4.413e-08
4830.8, -4.272e-08
4832.8, -4.09e-08
4834.8, -3.996e-08
4836.8, -4.39e-08
4838.8, -4.338e-08
4840.8, -4.441e-08
4842.8, -4.176e-08
4844.8, -4.544e-08
4846.8, -3.994e-08
4848.8, -4.114e-08
4850.8, -4.283e-08
4852.8, -4.182e-08
4854.8, -4.203e-08
4856.9, -3.877e-08
4858.9, -3.7e-08
4860.9, -4.118e-08
4862.9, -3.96e-08
4864.9, -3.915e-08
4866.9, -4.119e-08
4868.9, -3.916e-08
4870.9, -4.15e-08
4872.9, -3.897e-08
4874.9, -3.832e-08
4876.9, -3.975e-08
4878.9, -3.892e-08
4880.9, -3.752e-08
4882.9, -3.547e-08
4884.9, -3.878e-08
4886.9, -3.947e-08
4888.9, -3.939e-08
4890.9, -3.789e-08
4892.9, -3.755e-08
4894.9, -3.678e-08
4896.9, -4.257e-08
4898.9, -3.773e-08
4900.9, -3.97e-08
4902.9, -3.963e-08
4904.9, -4.09e-08
4906.9, -4.156e-08
4908.9, -4.494e-08
4910.9, -4.209e-08
4912.9, -4.36e-08
4914.9, -4.062e-08
4916.9, -4.445e-08
4918.9, -4.44e-08
4920.9, -3.794e-08
4922.9, -3.758e-08
4924.9, -4.116e-08
4926.9, -4.295e-08
4928.9, -4.237e-08
4930.9, -4.284e-08
4932.9, -4.116e-08
4934.9, -3.888e-08
4936.9, -4.095e-08
4938.9, -3.894e-08
4940.9, -4.131e-08
4942.9, -4.187e-08
4944.9, -3.777e-08
4946.9, -4.188e-08
4948.9, -3.966e-08
4950.9, -4.126e-08
4952.9, -4.133e-08
4954.9, -4.043e-08
4957.0, -4.107e-08
4959.0, -4.199e-08
4961.0, -4.009e-08
4963.0, -4.017e-08
4965.0, -4.125e-08
4967.0, -4.414e-08
4969.0, -4.028e-08
4971.0, -4.079e-08
4973.0, -4.208e-08
4975.0, -4.057e-08
4977.0, -4.213e-08
4979.0, -4.16e-08
4981.0, -4.071e-08
4983.0, -4.228e-08
4985.0, -3.488e-08
4987.0, -3.703e-08
4989.0, -4.033e-08
4991.0, -4.039e-08
4993.0, -4.041e-08
4995.0, -4.225e-08
4997.0, -3.804e-08
4999.0, -4.061e-08
5001.0, -4.121e-08
5003.0, -4.023e-08
5005.0, -4.132e-08
5007.0, -3.855e-08
5009.0, -3.938e-08
5011.0, -4.185e-08
5013.0, -3.746e-08
5015.0, -3.997e-08
5017.0, -3.733e-08
5019.0, -3.896e-08
5021.0, -4.248e-08
5023.0, -3.995e-08
5025.0, -3.746e-08
5027.0, -3.952e-08
5029.0, -3.951e-08
5031.0, -4.114e-08
5033.0, -4.134e-08
5035.0, -3.525e-08
5037.0, -3.731e-08
5039.0, -3.596e-08
5041.0, -3.55e-08
5043.0, -3.81e-08
5045.0, -3.768e-08
5047.0, -3.73e-08
5049.0, -3.625e-08
5051.0, -3.546e-08
5053.0, -3.999e-08
5055.0, -3.774e-08
5057.1, -3.918e-08
5059.1, -4.418e-08
5061.1, -3.977e-08
5063.1, -3.685e-08
5065.1, -4.106e-08
5067.1, -3.795e-08
5069.1, -3.946e-08
5071.1, -3.798e-08
5073.1, -3.811e-08
5075.1, -3.861e-08
5077.1, -3.927e-08
5079.1, -3.899e-08
5081.1, -3.659e-08
5083.1, -3.849e-08
5085.1, -3.769e-08
5087.1, -3.737e-08
5089.1, -4.229e-08
5091.1, -3.77e-08
5093.1, -3.79e-08
5095.1, -4.155e-08
5097.1, -4.077e-08
5099.1, -4.442e-08
5101.1, -4.357e-08
5103.1, -4.13e-08
5105.1, -4.467e-08
5107.1, -4.014e-08
5109.1, -4.009e-08
5111.1, -3.964e-08
5113.1, -4.211e-08
5115.1, -3.995e-08
5117.1, -3.828e-08
5119.1, -3.672e-08
5121.1, -3.92e-08
5123.1, -4.045e-08
5125.1, -3.965e-08
5127.1, -3.875e-08
5129.1, -3.943e-08
5131.1, 7.9231e-07
5133.1, 6.2575e-07
5135.1, 7.2232e-07
5137.1, 6.5061e-07
5139.1, 5.9707e-07
5141.1, 7.4912e-07
5143.1, 7.3443e-07
5145.1, 6.8988e-07
5147.1, 6.3032e-07
5149.1, 7.2219e-07
5151.1, 6.1785e-07
5153.1, 7.2952e-07
5155.1, 6.4773e-07
5157.2, 6.6259e-07
5159.2, 7.2351e-07
5161.2, 6.392e-07
5163.2, 6.6646e-07
5165.2, 6.6975e-07
5167.2, 6.585e-07
5169.2, 6.4756e-07
5171.2, 6.7734e-07
5173.2, 7.1147e-07
5175.2, 6.1697e-07
5177.2, 6.8203e-07
5179.2, 6.42e-07
5181.2, 6.5387e-07
5183.2, 7.5051e-07
5185.2, 7.3117e-07
5187.2, 6.9757e-07
5189.2, 7.0068e-07
5191.2, 6.2484e-07
5193.2, 6.8216e-07
5195.2, 6.4477e-07
5197.2, 6.7229e-07
5199.2, 6.2578e-07
5201.2, 7.9528e-07
5203.2, 7.0474e-07
5205.2, 6.4584e-07
5207.2, 6.238e-07
5209.2, 6.8523e-07
5211.2, 6.8442e-07
5213.2, 7.0367e-07
5215.2, 6.7887e-07
5217.2, 6.6258e-07
5219.2, 6.7113e-07
5221.2, 7.2345e-07
5223.2, 6.5375e-07
5225.2, 7.6628e-07
5227.2, 7.1184e-07
5229.2, 6.923e-07
5231.2, 8.5394e-07
5233.2, 6.5141e-07
5235.2, 7.1839e-07
5237.2, 7.189e-07
5239.2, 6.1368e-07
5241.2, 7.0312e-07
5243.2, 7.0867e-07
5245.2, 7.6342e-07
5247.2, 7.1602e-07
5249.2, 6.8777e-07
5251.2, 7.2663e-07
5253.2, 6.9561e-07
5255.2, 7.2965e-07
5257.3, 7.0822e-07
5259.3, 7.4222e-07
5261.3, 7.3555e-07
5263.3, 6.6779e-07
5265.3, 7.6977e-07
5267.3, 7.1394e-07
5269.3, 6.8686e-07
5271.3, 6.7549e-07
5273.3, 7.29e-07
5275.3, 6.7713e-07
5277.3, 7.2753e-07
5279.3, 7.2241e-07
5281.3, 5.796e-07
5283.3, 6.9916e-07
5285.3, 7.317e-07
5287.3, 7.0143e-07
5289.3, 7.0668e-07
5291.3, 6.8397e-07
5293.3, 7.3154e-07
5295.3, 7.4337e-07
5297.3, 6.4317e-07
5299.3, 7.3428e-07
5301.3, 7.0361e-07
5303.3, 7.4275e-07
5305.3, 8.4864e-07
5307.3, 7.1295e-07
5309.3, 7.3406e-07
5311.3, 7.2649e-07
5313.3, 7.6775e-07
5315.3, 7.4461e-07
5317.3, 7.4292e-07
5319.3, 7.2835e-07
5321.3, 6.8495e-07
5323.3, 7.7092e-07
5325.3, 7.0966e-07
5327.3, 7.6048e-07
5329.3, 8.9848e-07
5331.3, 7.3129e-07
5333.3, 7.6052e-07
5335.3, 7.9576e-07
5337.3, 7.433e-07
5339.3, 6.9954e-07
5341.3, 7.6776e-07
5343.3, 7.2507e-07
5345.3, 7.3054e-07
5347.3, 7.274e-07
5349.3, 7.3047e-07
5351.3, 7.653e-07
5353.3, 7.0519e-07
5355.3, 7.5078e-07
5357.4, 7.2544e-07
5359.4, 7.9133e-07
5361.4, 7.9821e-07
5363.4, 7.4445e-07
5365.4, 6.4704e-07
5367.4, 7.7193e-07
5369.4, 7.1233e-07
5371.4, 7.6786e-07
5373.4, 7.0359e-07
5375.4, 6.4706e-07
5377.4, 6.5213e-07
5379.4, 6.5299e-07
5381.4, 6.8313e-07
5383.4, 7.1871e-07
5385.4, 6.6969e-07
5387.4, 7.1728e-07
5389.4, 7.552e-07
5391.4, 7.0816e-07
5393.4, 7.6218e-07
5395.4, 7.6131e-07
5397.4, 7.6119e-07
5399.4, 7.0033e-07
5401.4, 7.107e-07
5403.4, 7.0366e-07
5405.4, 6.9495e-07
5407.4, 6.8356e-07
5409.4, 7.1233e-07
5411.4, 7.0758e-07
5413.4, 7.3938e-07
5415.4, 7.2618e-07
5417.4, 7.9089e-07
5419.4, 7.2931e-07
5421.4, 7.7228e-07
5423.4, 7.5093e-07
5425.4, 7.0674e-07
5427.4, 7.3729e-07
5429.4, 7.9007e-07
5431.4, 7.8726e-07
5433.4, 7.365e-07
5435.4, 7.5295e-07
5437.4, 7.0315e-07
5439.4, 7.1503e-07
5441.4, 7.5453e-07
5443.4, 8.4478e-07
5445.4, 6.9186e-07
5447.4, 7.2364e-07
5449.4, 7.3905e-07
5451.4, 7.1639e-07
5453.4, 8.1834e-07
5455.4, 7.8943e-07
5457.5, 7.6136e-07
5459.5, 7.4972e-07
5461.5, 7.1527e-07
5463.5, 7.2421e-07
5465.5, 6.6384e-07
5467.5, 7.7929e-07
5469.5, 7.2373e-07
5471.5, 6.999e-07
5473.5, 7.6832e-07
5475.5, 7.219e-07
5477.5, 7.8356e-07
5479.5, 7.5718e-07
5481.5, 7.4374e-07
5483.5, 8.0295e-07
5485.5, 7.856e-07
5487.5, 7.4511e-07
5489.5, 7.8189e-07
5491.5, 6.9127e-07
5493.5, 7.1958e-07
5495.5, 7.5149e-07
5497.5, 8.2624e-07
5499.5, 7.6552e-07
5501.5, 7.769e-07
5503.5, 7.4991e-07
5505.5, 7.2024e-07
5507.5, 8.6437e-07
5509.5, 8.0868e-07
5511.5, 7.8219e-07
5513.5, 7.9024e-07
5515.5, 7.5184e-07
5517.5, 6.8261e-07
5519.5, 8.0536e-07
5521.5, 7.5566e-07
5523.5, 8.1156e-07
5525.5, 7.0768e-07
5527.5, 7.6242e-07
5529.5, 7.5603e-07
5531.5, 6.4034e-07
5533.5, 7.4867e-07
5535.5, 6.8611e-07
5537.5, 8.0732e-07
5539.5, 7.9883e-07
5541.5, 7.3303e-07
5543.5, 7.7594e-07
5545.5, 7.16e-07
5547.5, 7.8077e-07
5549.5, 6.9169e-07
5551.5, 7.9154e-07
5553.5, 7.1839e-07
5555.5, 8.0114e-07
5557.6, 7.171e-07
5559.6, 7.1261e-07
5561.6, 7.6601e-07
5563.6, 8.1122e-07
5565.6, 7.0573e-07
5567.6, 7.6763e-07
5569.6, 7.2631e-07
5571.6, 7.4286e-07
5573.6, 7.2569e-07
5575.6, 7.4812e-07
5577.6, 7.2368e-07
5579.6, 7.3492e-07
5581.6, 7.3857e-07
5583.6, 7.1328e-07
5585.6, 7.4595e-07
5587.6, 7.6742e-07
5589.6, 7.1709e-07
5591.6, 7.56e-07
5593.6, 7.2426e-07
5595.6, 7.2908e-07
5597.6, 8.1614e-07
5599.6, 7.5972e-07
5601.6, 7.078e-07
5603.6, 7.2639e-07
5605.6, 7.3587e-07
5607.6, 7.7455e-07
5609.6, 7.5933e-07
5611.6, 8.024e-07
5613.6, 7.6608e-07
5615.6, 7.6826e-07
5617.6, 7.8628e-07
5619.6, 6.9668e-07
5621.6, 7.8591e-07
5623.6, 7.7615e-07
5625.6, 8.454e-07
5627.6, 7.5107e-07
5629.6, 7.4998e-07
5631.6, 7.8539e-07
5633.6, 7.3614e-07
5635.6, 8.1845e-07
5637.6, 7.7846e-07
5639.6, 6.6554e-07
5641.6, 7.4098e-07
5643.6, 7.6666e-07
5645.6, 6.675e-07
5647.6, 7.3124e-07
5649.6, 6.8438e-07
5651.6, 8.5421e-07
5653.6, 7.4017e-07
5655.6, 7.568e-07
5657.7, 6.8932e-07
5659.7, 7.1752e-07
5661.7, 7.7472e-07
5663.7, 7.6247e-07
5665.7, 7.1567e-07
5667.7, 7.8626e-07
5669.7, 7.4359e-07
5671.7, 7.5093e-07
5673.7, 7.7324e-07
5675.7, 7.112e-07
5677.7, 8.2757e-07
5679.7, 7.648e-07
5681.7, 7.1013e-07
5683.7, 7.9132e-07
5685.7, 7.5469e-07
5687.7, 7.4024e-07
5689.7, 7.7288e-07
5691.7, 7.0129e-07
5693.7, 7.8922e-07
5695.7, 7.4674e-07
5697.7, 7.619e-07
5699.7, 6.9478e-07
5701.7, 7.7493e-07
5703.7, 7.2867e-07
5705.7, 8.1879e-07
5707.7, 7.6388e-07
5709.7, 7.3116e-07
5711.7, 7.29e-07
5713.7, 7.7632e-07
5715.7, 8.0069e-07
5717.7, 7.3846e-07
5719.7, 7.5904e-07
5721.7, 7.9187e-07
5723.7, 6.9551e-07
5725.7, 6.8066e-07
5727.7, 7.7938e-07
5729.7, 6.8277e-07
5731.7, 8.3003e-07
5733.7, 6.7991e-07
5735.7, 8.4926e-07
5737.7, 7.5606e-07
5739.7, 6.7209e-07
5741.7, 7.5422e-07
5743.7, 7.2469e-07
5745.7, 7.784e-07
5747.7, 7.0534e-07
5749.7, 8.3454e-07
5751.7, 7.7408e-07
5753.7, 7.9687e-07
5755.7, 8.4493e-07
5757.8, 7.8329e-07
5759.8, 7.1347e-07
5761.8, 7.6888e-07
5763.8, 6.8214e-07
5765.8, 7.3865e-07
5767.8, 7.5839e-07
5769.8, 7.6859e-07
5771.8, 7.1455e-07
5773.8, 8.12e-07
5775.8, 7.7771e-07
5777.8, 7.1935e-07
5779.8, 8.2601e-07
5781.8, 8.6356e-07
5783.8, 7.7335e-07
5785.8, 7.8198e-07
5787.8, 7.2631e-07
5789.8, 8.2935e-07
5791.8, 7.9548e-07
5793.8, 7.7189e-07
5795.8, 7.8366e-07
5797.8, 6.9477e-07
5799.8, 8.2869e-07
5801.8, 7.9323e-07
5803.8, 7.44e-07
5805.8, 8.1383e-07
5807.8, 7.8696e-07
5809.8, 7.8848e-07
5811.8, 7.793e-07
5813.8, 6.9931e-07
5815.8, 8.0984e-07
5817.8, 7.4664e-07
5819.8, 7.9227e-07
5821.8, 6.593e-07
5823.8, 7.9452e-07
5825.8, 8.1655e-07
5827.8, 7.5282e-07
5829.8, 7.3625e-07
5831.8, 7.258e-07
5833.8, 7.5258e-07
5835.8, 6.871e-07
5837.8, 8.6851e-07
5839.8, 7.5776e-07
5841.8, 8.0896e-07
5843.8, 8.2176e-07
5845.8, 8.0832e-07
5847.8, 7.0979e-07
5849.8, 7.5599e-07
5851.8, 8.0328e-07
5853.8, 8.1168e-07
5855.8, 8.0495e-07
5857.9, 7.5491e-07
5859.9, 7.2183e-07
5861.9, 8.6586e-07
5863.9, 8.4464e-07
5865.9, 8.5107e-07
5867.9, 7.7263e-07
5869.9, 7.2951e-07
5871.9, 6.8891e-07
5873.9, 7.909e-07
5875.9, 7.5272e-07
5877.9, 7.4594e-07
5879.9, 8.0368e-07
5881.9, 7.2648e-07
5883.9, 6.8946e-07
5885.9, 7.5484e-07
5887.9, 7.3956e-07
5889.9, 7.2837e-07
5891.9, 7.8301e-07
5893.9, 8.2662e-07
5895.9, 7.8063e-07
5897.9, 7.8333e-07
5899.9, 7.5873e-07
5901.9, 7.3291e-07
5903.9, 7.8594e-07
5905.9, 7.2989e-07
5907.9, 7.6017e-07
5909.9, 7.4983e-07
5911.9, 7.2456e-07
5913.9, 7.6574e-07
5915.9, 7.5806e-07
5917.9, 7.174e-07
5919.9, 7.7769e-07
5921.9, 7.0424e-07
5923.9, 7.5717e-07
5925.9, 7.647e-07
5927.9, 8.0569e-07
5929.9, 8.0445e-07
5931.9, 7.9936e-07
5933.9, 7.7004e-07
5935.9, 8.2124e-07
5937.9, 7.5257e-07
5939.9, 7.5877e-07
5941.9, 8.2682e-07
5943.9, 7.4869e-07
5945.9, 7.2905e-07
5947.9, 7.5461e-07
5949.9, 7.3609e-07
5951.9, 8.1586e-07
5953.9, 7.5595e-07
5955.9, 7.9698e-07
5958.0, 7.5043e-07
5960.0, 6.787e-07
5962.0, 7.977e-07
5964.0, 7.4469e-07
5966.0, 7.7888e-07
5968.0, 8.0968e-07
5970.0, 7.6339e-07
5972.0, 7.7929e-07
5974.0, 6.716e-07
5976.0, 7.8182e-07
5978.0, 7.3866e-07
5980.0, 7.1063e-07
5982.0, 7.4378e-07
5984.0, 7.0222e-07
5986.0, 6.83e-07
5988.0, 7.5302e-07
5990.0, 7.6955e-07
5992.0, 8.3745e-07
5994.0, 7.6638e-07
5996.0, 7.9551e-07
5998.0, 8.0245e-07
6000.0, 7.6889e-07
6002.0, 8.8264e-07
6004.0, 7.6484e-07
6006.0, 7.9578e-07
6008.0, 7.9725e-07
6010.0, 8.1807e-07
6012.0, 7.3253e-07
6014.0, 7.3476e-07
6016.0, 7.6074e-07
6018.0, 7.6916e-07
6020.0, 6.1167e-07
6022.0, 7.4089e-07
6024.0, 8.5902e-07
6026.0, 7.5982e-07
6028.0, 6.6418e-07
6030.0, 7.8686e-07
6032.0, 7.9607e-07
6034.0, 7.446e-07
6036.0, 8.2174e-07
6038.0, 8.4675e-07
6040.0, 7.0177e-07
6042.0, 7.3678e-07
6044.0, 7.3251e-07
6046.0, 7.6855e-07
6048.0, 8.2174e-07
6050.0, 7.421e-07
6052.0, 7.9016e-07
6054.0, 7.3947e-07
6056.0, 7.6157e-07
6058.1, 7.2892e-07
6060.1, 7.2495e-07
6062.1, 8.103e-07
6064.1, 7.5851e-07
6066.1, 8.224e-07
6068.1, 7.7042e-07
6070.1, 7.8652e-07
6072.1, 7.2493e-07
6074.1, 8.459e-07
6076.1, 7.845e-07
6078.1, 7.587e-07
6080.1, 7.6229e-07
6082.1, 7.7288e-07
6084.1, 7.6154e-07
6086.1, 7.548e-07
6088.1, 7.8577e-07
6090.1, 7.871e-07
6092.1, 7.9256e-07
6094.1, 6.7241e-07
6096.1, 7.5775e-07
6098.1, 9.0054e-07
6100.1, 7.2259e-07
6102.1, 8.01e-07
6104.1, 7.5558e-07
6106.1, 7.8129e-07
6108.1, 7.2003e-07
6110.1, 6.826e-07
6112.1, 7.5557e-07
6114.1, 7.1267e-07
6116.1, 7.5627e-07
6118.1, 7.9357e-07
6120.1, 7.2948e-07
6122.1, 7.4444e-07
6124.1, 8.4185e-07
6126.1, 8.0883e-07
6128.1, 7.1578e-07
6130.1, 7.6246e-07
6132.1, -3.458e-08
6134.1, -3.357e-08
6136.1, -3.347e-08
6138.1, -3.126e-08
6140.1, -3.007e-08
6142.1, -2.966e-08
6144.1, -2.988e-08
6146.1, -3.191e-08
6148.1, -3.378e-08
6150.1, -3.518e-08
6152.1, -3.214e-08
6154.1, -3.131e-08
6156.1, -3.653e-08
6158.2, -3.543e-08
6160.2, -3.602e-08
6162.2, -2.827e-08
6164.2, -3.486e-08
6166.2, -2.937e-08
6168.2, -2.863e-08
6170.2, -3.198e-08
6172.2, -3.31e-08
6174.2, -3.408e-08
6176.2, -3.245e-08
6178.2, -3.545e-08
6180.2, -3.593e-08
6182.2, -3.534e-08
6184.2, -3.597e-08
6186.2, -3.404e-08
6188.2, -3.507e-08
6190.2, -3.418e-08
6192.2, -3.532e-08
6194.2, -3.467e-08
6196.2, -3.369e-08
6198.2, -3.608e-08
6200.2, -3.262e-08
6202.2, -3.212e-08
6204.2, -3.37e-08
6206.2, -3.249e-08
6208.2, -3.512e-08
6210.2, -3.66e-08
6212.2, -3.723e-08
6214.2, -3.752e-08
6216.2, -3.235e-08
6218.2, -3.445e-08
6220.2, -3.557e-08
6222.2, -3.048e-08
6224.2, -3.353e-08
6226.2, -3.8e-08
6228.2, -3.473e-08
6230.2, -3.366e-08
6232.2, -3.42e-08
6234.2, -3.597e-08
6236.2, -3.216e-08
6238.2, -2.956e-08
6240.2, -3.564e-08
6242.2, -3.514e-08
6244.2, -3.611e-08
6246.2, -3.391e-08
6248.2, -3.721e-08
6250.2, -3.283e-08
6252.2, -3.456e-08
6254.2, -3.22e-08
6256.2, -3.639e-08
6258.3, -3.259e-08
6260.3, -3.39e-08
6262.3, -3.383e-08
6264.3, -3.387e-08
6266.3, -3.452e-08
6268.3, -3.464e-08
6270.3, -3.428e-08
6272.3, -3.606e-08
6274.3, -3.308e-08
6276.3, -3.352e-08
6278.3, -3.465e-08
6280.3, -3.158e-08
6282.3, -3.019e-08
6284.3, -3.536e-08
6286.3, -3.532e-08
6288.3, -3.663e-08
6290.3, -3.69e-08
6292.3, -3.855e-08
6294.3, -3.372e-08
6296.3, -3.723e-08
6298.3, -3.919e-08
6300.3, -3.722e-08
6302.3, -3.655e-08
6304.3, -3.344e-08
6306.3, -3.313e-08
6308.3, -3.29e-08
6310.3, -3.431e-08
6312.3, -3.685e-08
6314.3, -3.247e-08
6316.3, -3.518e-08
6318.3, -3.282e-08
6320.3, -3.484e-08
6322.3, -3.789e-08
6324.3, -3.348e-08
6326.3, -3.713e-08
6328.3, -3.653e-08
6330.3, -3.644e-08
6332.3, -3.341e-08
6334.3, -3.641e-08
6336.3, -3.612e-08
6338.3, -3.483e-08
6340.3, -3.742e-08
6342.3, -3.846e-08
6344.3, -3.488e-08
6346.3, -3.389e-08
6348.3, -3.261e-08
6350.3, -3.586e-08
6352.3, -3.599e-08
6354.3, -3.657e-08
6356.3, -3.749e-08
6358.4, -3.496e-08
6360.4, -3.702e-08
6362.4, -3.521e-08
6364.4, -3.374e-08
6366.4, -3.522e-08
6368.4, -3.172e-08
6370.4, -3.724e-08
6372.4, -3.316e-08
6374.4, -3.657e-08
6376.4, -3.622e-08
6378.4, -3.813e-08
6380.4, -3.466e-08
6382.4, -3.801e-08
6384.4, -3.33e-08
6386.4, -3.414e-08
6388.4, -3.656e-08
6390.4, -3.446e-08
6392.4, -3.8e-08
6394.4, -3.909e-08
6396.4, -3.665e-08
6398.4, -3.281e-08
6400.4, -3.491e-08
6402.4, -4.113e-08
6404.4, -3.545e-08
6406.4, -3.592e-08
6408.4, -3.933e-08
6410.4, -3.984e-08
6412.4, -4.046e-08
6414.4, -3.797e-08
6416.4, -3.605e-08
6418.4, -3.806e-08
6420.4, -3.895e-08
6422.4, -3.897e-08
6424.4, -3.53e-08
6426.4, -3.695e-08
6428.4, -3.704e-08
6430.4, -3.439e-08
6432.4, -3.477e-08
6434.4, -3.721e-08
6436.4, -3.208e-08
6438.4, -3.642e-08
6440.4, -3.269e-08
6442.4, -3.242e-08
6444.4, -3.232e-08
6446.4, -3.559e-08
6448.4, -3.36e-08
6450.4, -3.421e-08
6452.4, -3.709e-08
6454.4, -3.633e-08
6456.4, -3.568e-08
6458.5, -3.273e-08
6460.5, -3.64e-08
6462.5, -3.388e-08
6464.5, -3.613e-08
6466.5, -3.625e-08
6468.5, -3.243e-08
6470.5, -3.255e-08
6472.5, -3.627e-08
6474.5, -3.411e-08
6476.5, -3.323e-08
6478.5, -3.595e-08
6480.5, -3.414e-08
6482.5, -3.235e-08
6484.5, -3.427e-08
6486.5, -3.411e-08
6488.5, -3.621e-08
6490.5, -3.461e-08
6492.5, -3.56e-08
6494.5, -3.912e-08
6496.5, -3.444e-08
6498.5, -3.604e-08
6500.5, -3.539e-08
6502.5, -3.768e-08
6504.5, -3.694e-08
6506.5, -3.499e-08
6508.5, -3.365e-08
6510.5, -3.61e-08
6512.5, -3.739e-08
6514.5, -3.438e-08
6516.5, -3.517e-08
6518.5, -3.617e-08
6520.5, -3.421e-08
6522.5, -3.542e-08
6524.5, -3.507e-08
6526.5, -3.618e-08
6528.5, -3.628e-08
6530.5, -3.642e-08
6532.5, -3.845e-08
6534.5, -3.744e-08
6536.5, -3.844e-08
6538.5, -3.544e-08
6540.5, -3.72e-08
6542.5, -3.527e-08
6544.5, -3.857e-08
6546.5, -4.029e-08
6548.5, -4.117e-08
6550.5, -3.785e-08
6552.5, -3.979e-08
6554.5, -4.048e-08
6556.5, -3.883e-08
6558.6, -3.92e-08
6560.6, -3.885e-08
6562.6, -3.705e-08
6564.6, -3.478e-08
6566.6, -3.364e-08
6568.6, -3.472e-08
6570.6, -3.558e-08
6572.6, -3.553e-08
6574.6, -3.719e-08
6576.6, -3.762e-08
6578.6, -3.783e-08
6580.6, -3.989e-08
6582.6, -3.641e-08
6584.6, -3.936e-08
6586.6, -3.635e-08
6588.6, -3.445e-08
6590.6, -3.596e-08
6592.6, -3.441e-08
6594.6, -3.767e-08
6596.6, -3.574e-08
6598.6, -3.331e-08
6600.6, -3.452e-08
6602.6, -3.553e-08
6604.6, -3.452e-08
6606.6, -3.396e-08
6608.6, -3.578e-08
6610.6, -3.563e-08
6612.6, -3.353e-08
6614.6, -3.062e-08
6616.6, -3.282e-08
6618.6, -3.734e-08
6620.6, -3.715e-08
6622.6, -3.941e-08
6624.6, -3.872e-08
6626.6, -3.644e-08
6628.6, -3.947e-08
6630.6, -3.624e-08
6632.6, -3.66e-08
6634.6, -3.408e-08
6636.6, -3.424e-08
6638.6, -3.646e-08
6640.6, -3.719e-08
6642.6, -3.955e-08
6644.6, -3.902e-08
6646.6, -4.278e-08
6648.6, -4.167e-08
6650.6, -3.568e-08
6652.6, -3.915e-08
6654.6, -3.98e-08
6656.6, -3.64e-08
6658.7, -3.832e-08
6660.7, -4.066e-08
6662.7, -3.662e-08
6664.7, -3.631e-08
6666.7, -3.927e-08
6668.7, -3.724e-08
6670.7, -3.896e-08
6672.7, -3.654e-08
6674.7, -3.87e-08
6676.7, -3.957e-08
6678.7, -3.801e-08
6680.7, -3.557e-08
6682.7, -3.744e-08
6684.7, -4.117e-08
6686.7, -4.003e-08
6688.7, -3.733e-08
6690.7, -3.731e-08
6692.7, -4.052e-08
6694.7, -3.912e-08
6696.7, -3.908e-08
6698.7, -4.469e-08
6700.7, -4.006e-08
6702.7, -4.083e-08
6704.7, -3.91e-08
6706.7, -3.978e-08
6708.7, -4.154e-08
6710.7, -3.914e-08
6712.7, -4.118e-08
6714.7, -4.234e-08
6716.7, -4.282e-08
6718.7, -3.872e-08
6720.7, -3.683e-08
6722.7, -3.557e-08
6724.7, -3.775e-08
6726.7, -3.802e-08
6728.7, -3.576e-08
6730.7, -3.707e-08
6732.7, -3.596e-08
6734.7, -3.93e-08
6736.7, -3.798e-08
6738.7, -3.971e-08
6740.7, -4.091e-08
6742.7, -3.974e-08
6744.7, -3.628e-08
6746.7, -3.974e-08
6748.7, -4.011e-08
6750.7, -3.982e-08
6752.7, -3.895e-08
6754.7, -4.186e-08
6756.7, -3.921e-08
6758.8, -4.029e-08
6760.8, -3.815e-08
6762.8, -3.563e-08
6764.8, -3.623e-08
6766.8, -3.629e-08
6768.8, -3.687e-08
6770.8, -3.976e-08
6772.8, -3.956e-08
6774.8, -4.023e-08
6776.8, -3.652e-08
6778.8, -3.71e-08
6780.8, -3.543e-08
6782.8, -3.485e-08
6784.8, -3.712e-08
6786.8, -3.946e-08
6788.8, -3.8e-08
6790.8, -3.685e-08
6792.8, -3.838e-08
6794.8, -3.73e-08
6796.8, -3.991e-08
6798.8, -3.802e-08
6800.8, -3.655e-08
6802.8, -3.804e-08
6804.8, -4.057e-08
6806.8, -4.267e-08
6808.8, -4.043e-08
6810.8, -3.656e-08
6812.8, -3.662e-08
6814.8, -3.733e-08
6816.8, -3.939e-08
6818.8, -4.164e-08
6820.8, -4.164e-08
6822.8, -4.328e-08
6824.8, -3.897e-08
6826.8, -4.079e-08
6828.8, -3.931e-08
6830.8, -3.746e-08
6832.8, -3.995e-08
6834.8, -4.063e-08
6836.8, -3.658e-08
6838.8, -4.149e-08
6840.8, -3.796e-08
6842.8, -3.968e-08
6844.8, -3.85e-08
6846.8, -3.798e-08
6848.8, -3.627e-08
6850.8, -4.09e-08
6852.8, -3.729e-08
6854.8, -4.187e-08
6856.8, -3.756e-08
6858.9, -3.91e-08
6860.9, -3.842e-08
6862.9, -3.886e-08
6864.9, -3.829e-08
6866.9, -3.541e-08
6868.9, -3.679e-08
6870.9, -3.946e-08
6872.9, -3.701e-08
6874.9, -3.26e-08
6876.9, -3.502e-08
6878.9, -3.353e-08
6880.9, -3.638e-08
6882.9, -3.753e-08
6884.9, -3.322e-08
6886.9, -3.691e-08
6888.9, -3.74e-08
6890.9, -3.736e-08
6892.9, -3.76e-08
6894.9, -3.97e-08
6896.9, -3.375e-08
6898.9, -3.462e-08
6900.9, -3.392e-08
6902.9, -3.853e-08
6904.9, -3.62e-08
6906.9, -3.566e-08
6908.9, -3.365e-08
6910.9, -3.429e-08
6912.9, -3.832e-08
6914.9, -3.567e-08
6916.9, -3.545e-08
6918.9, -3.554e-08
6920.9, -3.828e-08
6922.9, -3.434e-08
6924.9, -3.805e-08
6926.9, -3.845e-08
6928.9, -3.889e-08
6930.9, -3.622e-08
6932.9, -3.792e-08
6934.9, -4.194e-08
6936.9, -3.878e-08
6938.9, -3.664e-08
6940.9, -4.087e-08
6942.9, -4.114e-08
6944.9, -4.032e-08
6946.9, -3.951e-08
6948.9, -3.766e-08
6950.9, -3.537e-08
6952.9, -3.79e-08
6954.9, -3.885e-08
6956.9, -3.608e-08
6959.0, -3.632e-08
6961.0, -3.389e-08
6963.0, -3.95e-08
6965.0, -3.903e-08
6967.0, -4.029e-08
6969.0, -4.245e-08
6971.0, -3.81e-08
6973.0, -3.817e-08
6975.0, -3.575e-08
6977.0, -3.685e-08
6979.0, -3.396e-08
6981.0, -4.025e-08
6983.0, -3.921e-08
6985.0, -4.11e-08
6987.0, -3.979e-08
6989.0, -4.254e-08
6991.0, -4.009e-08
6993.0, -3.988e-08
6995.0, -3.81e-08
6997.0, -3.93e-08
6999.0, -3.964e-08
7001.0, -3.77e-08
7003.0, -3.597e-08
7005.0, -3.77e-08
7007.0, -3.838e-08
7009.0, -3.493e-08
7011.0, -3.784e-08
7013.0, -3.746e-08
7015.0, -3.734e-08
7017.0, -3.61e-08
7019.0, -3.861e-08
7021.0, -3.512e-08
7023.0, -3.859e-08
7025.0, -3.645e-08
7027.0, -3.672e-08
7029.0, -3.7e-08
7031.0, -3.91e-08
7033.0, -3.697e-08
7035.0, -3.761e-08
7037.0, -3.233e-08
7039.0, -3.811e-08
7041.0, -3.663e-08
7043.0, -3.835e-08
7045.0, -4.117e-08
7047.0, -3.77e-08
7049.0, -3.947e-08
7051.0, -3.929e-08
7053.0, -4.085e-08
7055.0, -3.976e-08
7057.0, -3.752e-08
7059.1, -3.638e-08
7061.1, -4.164e-08
7063.1, -4.066e-08
7065.1, -3.883e-08
7067.1, -3.781e-08
7069.1, -4.104e-08
7071.1, -4.241e-08
7073.1, -4.017e-08
7075.1, -4.341e-08
7077.1, -3.952e-08
7079.1, -3.555e-08
7081.1, -3.54e-08
7083.1, -3.31e-08
7085.1, -3.385e-08
7087.1, -3.974e-08
7089.1, -3.728e-08
7091.1, -3.673e-08
7093.1, -3.483e-08
7095.1, -3.642e-08
7097.1, -3.705e-08
7099.1, -3.67e-08
7101.1, -3.769e-08
7103.1, -3.705e-08
7105.1, -3.294e-08
7107.1, -3.604e-08
7109.1, -3.521e-08
7111.1, -3.684e-08
7113.1, -3.894e-08
7115.1, -4.126e-08
7117.1, -3.619e-08
7119.1, -3.896e-08
7121.1, -3.715e-08
7123.1, -3.976e-08
7125.1, -3.789e-08
7127.1, -3.48e-08
7129.1, -3.661e-08
7131.1, -3.904e-08
7133.1, -3.87e-08
7135.1, -4.119e-08
7137.1, -3.896e-08
7139.1, -3.575e-08
7141.1, -4.018e-08
7143.1, -3.889e-08
7145.1, -3.88e-08
7147.1, -3.794e-08
7149.1, -3.765e-08
7151.1, -4.014e-08
7153.1, -4.187e-08
7155.1, -3.992e-08
7157.1, -3.929e-08
7159.2, -4.336e-08
7161.2, -4.569e-08
7163.2, -4.382e-08
7165.2, -3.822e-08
7167.2, -4.142e-08
7169.2, -4.09e-08
7171.2, -4.093e-08
7173.2, -4.006e-08
7175.2, 3.914e-07
7177.2, 5.9696e-07
7179.2, 6.7779e-07
7181.2, 5.6962e-07
7183.2, 6.326e-07
7185.2, 6.1582e-07
7187.2, 6.2384e-07
7189.2, 5.8343e-07
7191.2, 6.8541e-07
7193.2, 6.7029e-07
7195.2, 5.6827e-07
7197.2, 6.6669e-07
7199.2, 6.6283e-07
7201.2, 6.2225e-07
7203.2, 6.7001e-07
7205.2, 6.4964e-07
7207.2, 6.1843e-07
7209.2, 6.2151e-07
7211.2, 6.1397e-07
7213.2, 7.202e-07
7215.2, 6.2195e-07
7217.2, 7.2432e-07
7219.2, 6.6133e-07
7221.2, 5.7532e-07
7223.2, 6.378e-07
7225.2, 6.1103e-07
7227.2, 6.8881e-07
7229.2, 6.2854e-07
7231.2, 7.0691e-07
7233.2, 6.7708e-07
7235.2, 6.1507e-07
7237.2, 6.6478e-07
7239.2, 6.7754e-07
7241.2, 6.6408e-07
7243.2, 6.8413e-07
7245.2, 7.2607e-07
7247.2, 6.6827e-07
7249.2, 7.4675e-07
7251.2, 7.0232e-07
7253.2, 7.1021e-07
7255.2, 6.8739e-07
7257.2, 6.4775e-07
7259.3, 6.2928e-07
7261.3, 6.2977e-07
7263.3, 5.9445e-07
7265.3, 6.4975e-07
7267.3, 7.1142e-07
7269.3, 6.3386e-07
7271.3, 7.7502e-07
7273.3, 6.7611e-07
7275.3, 6.9825e-07
7277.3, 6.0773e-07
7279.3, 7.2928e-07
7281.3, 6.2932e-07
7283.3, 7.1529e-07
7285.3, 6.4349e-07
7287.3, 7.5619e-07
7289.3, 7.3817e-07
7291.3, 6.0773e-07
7293.3, 6.6449e-07
7295.3, 6.929e-07
7297.3, 6.919e-07
7299.3, 7.0136e-07
7301.3, 6.921e-07
7303.3, 7.6288e-07
7305.3, 6.85e-07
7307.3, 7.1663e-07
7309.3, 6.9583e-07
7311.3, 7.6524e-07
7313.3, 7.3539e-07
7315.3, 7.4157e-07
7317.3, 6.6647e-07
7319.3, 6.4033e-07
7321.3, 6.9486e-07
7323.3, 6.566e-07
7325.3, 6.6803e-07
7327.3, 6.6178e-07
7329.3, 6.537e-07
7331.3, 7.2713e-07
7333.3, 7.2642e-07
7335.3, 6.45e-07
7337.3, 6.9675e-07
7339.3, 6.9113e-07
7341.3, 7.641e-07
7343.3, 7.6056e-07
7345.3, 6.5739e-07
7347.3, 6.9393e-07
7349.3, 7.5594e-07
7351.3, 7.386e-07
7353.3, 6.8725e-07
7355.3, 7.1043e-07
7357.3, 6.9363e-07
7359.4, 7.0244e-07
7361.4, 7.636e-07
7363.4, 7.7311e-07
7365.4, 7.108e-07
7367.4, 7.1425e-07
7369.4, 6.7999e-07
7371.4, 6.9454e-07
7373.4, 6.6302e-07
7375.4, 6.3625e-07
7377.4, 6.7331e-07
7379.4, 6.4754e-07
7381.4, 6.8181e-07
7383.4, 6.836e-07
7385.4, 6.5937e-07
7387.4, 7.4131e-07
7389.4, 7.1427e-07
7391.4, 6.4695e-07
7393.4, 6.9224e-07
7395.4, 7.1026e-07
7397.4, 7.0483e-07
7399.4, 7.6777e-07
7401.4, 7.1917e-07
7403.4, 6.3551e-07
7405.4, 7.0858e-07
7407.4, 7.2806e-07
7409.4, 7.6297e-07
7411.4, 6.7818e-07
7413.4, 6.6221e-07
7415.4, 6.9394e-07
7417.4, 6.8409e-07
7419.4, 7.4067e-07
7421.4, 7.0354e-07
7423.4, 7.3636e-07
7425.4, 7.4148e-07
7427.4, 7.7317e-07
7429.4, 6.7957e-07
7431.4, 7.0374e-07
7433.4, 6.7497e-07
7435.4, 6.593e-07
7437.4, 7.1138e-07
7439.4, 6.9751e-07
7441.4, 7.4179e-07
7443.4, 7.7153e-07
7445.4, 6.9581e-07
7447.4, 7.1432e-07
7449.4, 7.1489e-07
7451.4, 7.3221e-07
7453.4, 7.1872e-07
7455.4, 6.4803e-07
7457.4, 7.0506e-07
7459.5, 7.1593e-07
7461.5, 7.0509e-07
7463.5, 6.9054e-07
7465.5, 6.739e-07
7467.5, 7.5866e-07
7469.5, 6.6754e-07
7471.5, 6.9974e-07
7473.5, 7.1826e-07
7475.5, 6.5303e-07
7477.5, 6.6718e-07
7479.5, 6.6728e-07
7481.5, 7.3726e-07
7483.5, 7.436e-07
7485.5, 6.6376e-07
7487.5, 7.2517e-07
7489.5, 6.9095e-07
7491.5, 6.8124e-07
7493.5, 7.0914e-07
7495.5, 6.6504e-07
7497.5, 7.3603e-07
7499.5, 7.665e-07
7501.5, 7.0083e-07
7503.5, 6.7583e-07
7505.5, 7.3044e-07
7507.5, 7.4729e-07
7509.5, 7.2738e-07
7511.5, 7.0501e-07
7513.5, 8.328e-07
7515.5, 7.3395e-07
7517.5, 7.2326e-07
7519.5, 6.8011e-07
7521.5, 6.8959e-07
7523.5, 7.235e-07
7525.5, 6.5853e-07
7527.5, 6.9088e-07
7529.5, 7.8633e-07
7531.5, 7.2683e-07
7533.5, 7.3151e-07
7535.5, 6.7614e-07
7537.5, 7.4669e-07
7539.5, 7.4656e-07
7541.5, 7.8963e-07
7543.5, 7.8292e-07
7545.5, 7.322e-07
7547.5, 7.5036e-07
7549.5, 6.4349e-07
7551.5, 7.305e-07
7553.5, 7.3699e-07
7555.5, 7.5704e-07
7557.5, 6.8587e-07
7559.6, 7.3223e-07
7561.6, 7.3278e-07
7563.6, 6.9645e-07
7565.6, 6.9759e-07
7567.6, 7.3575e-07
7569.6, 7.4334e-07
7571.6, 7.3922e-07
7573.6, 7.1708e-07
7575.6, 6.9239e-07
7577.6, 7.4798e-07
7579.6, 6.8828e-07
7581.6, 6.5185e-07
7583.6, 6.5468e-07
7585.6, 7.29e-07
7587.6, 6.742e-07
7589.6, 7.4862e-07
7591.6, 7.3449e-07
7593.6, 7.7028e-07
7595.6, 7.3809e-07
7597.6, 8.2934e-07
7599.6, 7.3596e-07
7601.6, 7.1262e-07
7603.6, 7.8624e-07
7605.6, 7.1778e-07
7607.6, 7.3741e-07
7609.6, 7.0387e-07
7611.6, 6.9915e-07
7613.6, 7.4159e-07
7615.6, 6.6689e-07
7617.6, 7.0727e-07
7619.6, 7.2094e-07
7621.6, 7.1133e-07
7623.6, 7.407e-07
7625.6, 7.0019e-07
7627.6, 7.8342e-07
7629.6, 6.918e-07
7631.6, 7.9823e-07
7633.6, 8.0286e-07
7635.6, 7.057e-07
7637.6, 7.4646e-07
7639.6, 7.9465e-07
7641.6, 7.1245e-07
7643.6, 7.2734e-07
7645.6, 8.1464e-07
7647.6, 7.4206e-07
7649.6, 6.9119e-07
7651.6, 7.8374e-07
7653.6, 7.4492e-07
7655.6, 7.6324e-07
7657.6, 7.3595e-07
7659.7, 7.515e-07
7661.7, 7.8605e-07
7663.7, 7.0706e-07
7665.7, 7.5768e-07
7667.7, 7.5947e-07
7669.7, 7.6806e-07
7671.7, 7.7472e-07
7673.7, 7.6322e-07
7675.7, 7.7681e-07
7677.7, 7.088e-07
7679.7, 6.9374e-07
7681.7, 6.6964e-07
7683.7, 7.9531e-07
7685.7, 6.9897e-07
7687.7, 7.3076e-07
7689.7, 7.6993e-07
7691.7, 7.4953e-07
7693.7, 6.8076e-07
7695.7, 7.5862e-07
7697.7, 7.1531e-07
7699.7, 7.3532e-07
7701.7, 7.6398e-07
7703.7, 7.7628e-07
7705.7, 6.9116e-07
7707.7, 7.6807e-07
7709.7, 7.281e-07
7711.7, 7.2969e-07
7713.7, 7.3404e-07
7715.7, 7.4074e-07
7717.7, 7.4968e-07
7719.7, 6.9348e-07
7721.7, 6.8199e-07
7723.7, 7.2404e-07
7725.7, 7.4501e-07
7727.7, 7.4317e-07
7729.7, 7.2436e-07
7731.7, 7.5566e-07
7733.7, 8.1193e-07
7735.7, 7.2406e-07
7737.7, 7.5884e-07
7739.7, 7.6402e-07
7741.7, 6.8711e-07
7743.7, 7.4375e-07
7745.7, 7.0525e-07
7747.7, 7.095e-07
7749.7, 7.3065e-07
7751.7, 7.0311e-07
7753.7, 7.7208e-07
7755.7, 7.2054e-07
7757.7, 7.3895e-07
7759.8, 7.1071e-07
7761.8, 7.5132e-07
7763.8, 8.0271e-07
7765.8, 7.4869e-07
7767.8, 7.067e-07
7769.8, 7.6488e-07
7771.8, 7.4936e-07
7773.8, 6.8307e-07
7775.8, 7.2479e-07
7777.8, 7.1936e-07
7779.8, 7.2566e-07
7781.8, 7.6756e-07
7783.8, 7.5464e-07
7785.8, 7.4852e-07
7787.8, 6.5226e-07
7789.8, 7.2707e-07
7791.8, 7.8564e-07
7793.8, 7.7251e-07
7795.8, 7.0807e-07
7797.8, 7.3741e-07
7799.8, 6.2887e-07
7801.8, 7.1829e-07
7803.8, 7.0289e-07
7805.8, 6.831e-07
7807.8, 7.4358e-07
7809.8, 7.4525e-07
7811.8, 7.1058e-07
7813.8, 6.1418e-07
7815.8, 7.5309e-07
7817.8, 7.8859e-07
7819.8, 7.9203e-07
7821.8, 7.4133e-07
7823.8, 7.0612e-07
7825.8, 7.3512e-07
7827.8, 7.1236e-07
7829.8, 7.2986e-07
7831.8, 6.7377e-07
7833.8, 6.891e-07
7835.8, 7.7535e-07
7837.8, 7.627e-07
7839.8, 7.1785e-07
7841.8, 6.9999e-07
7843.8, 7.6569e-07
7845.8, 7.8717e-07
7847.8, 7.1402e-07
7849.8, 7.77e-07
7851.8, 7.3601e-07
7853.8, 6.9193e-07
7855.8, 6.974e-07
7857.8, 6.942e-07
7859.9, 7.6657e-07
7861.9, 8.1771e-07
7863.9, 7.0002e-07
7865.9, 7.6371e-07
7867.9, 6.8195e-07
7869.9, 8.4363e-07
7871.9, 7.6697e-07
7873.9, 7.6541e-07
7875.9, 7.3575e-07
7877.9, 7.2934e-07
7879.9, 7.2985e-07
7881.9, 7.605e-07
7883.9, 8.1297e-07
7885.9, 6.8473e-07
7887.9, 7.3477e-07
7889.9, 7.1873e-07
7891.9, 7.5102e-07
7893.9, 7.4621e-07
7895.9, 7.0165e-07
7897.9, 6.9651e-07
7899.9, 6.927e-07
7901.9, 7.9427e-07
7903.9, 7.9388e-07
7905.9, 7.8499e-07
7907.9, 7.4191e-07
7909.9, 7.8523e-07
7911.9, 6.6928e-07
7913.9, 7.3363e-07
7915.9, 7.1099e-07
7917.9, 6.8396e-07
7919.9, 7.6564e-07
7921.9, 7.6422e-07
7923.9, 8.3696e-07
7925.9, 7.7489e-07
7927.9, 7.5811e-07
7929.9, 7.5667e-07
7931.9, 6.7067e-07
7933.9, 6.5681e-07
7935.9, 7.3152e-07
7937.9, 7.9498e-07
7939.9, 7.8055e-07
7941.9, 7.507e-07
7943.9, 7.4081e-07
7945.9, 7.4699e-07
7947.9, 7.423e-07
7949.9, 7.5159e-07
7951.9, 7.4961e-07
7953.9, 7.1834e-07
7955.9, 7.5451e-07
7957.9, 7.107e-07
7960.0, 7.5684e-07
7962.0, 7.1982e-07
7964.0, 7.7829e-07
7966.0, 7.4046e-07
7968.0, 6.679e-07
7970.0, 7.22e-07
7972.0, 7.5725e-07
7974.0, 6.7066e-07
7976.0, 7.44e-07
7978.0, 7.1319e-07
7980.0, 8.2722e-07
7982.0, 7.8338e-07
7984.0, 7.2557e-07
7986.0, 6.9877e-07
7988.0, 7.2644e-07
7990.0, 7.6877e-07
7992.0, 7.1451e-07
7994.0, 7.178e-07
7996.0, 6.8758e-07
7998.0, 6.968e-07
8000.0, 6.9757e-07
8002.0, 7.8751e-07
8004.0, 7.1512e-07
8006.0, 7.5556e-07
8008.0, 7.7191e-07
8010.0, 7.2371e-07
8012.0, 7.325e-07
8014.0, 7.4861e-07
8016.0, 7.0828e-07
8018.0, 7.7804e-07
8020.0, 7.1774e-07
8022.0, 7.4736e-07
8024.0, 6.808e-07
8026.0, 8.1377e-07
8028.0, 8.2391e-07
8030.0, 7.3012e-07
8032.0, 7.7132e-07
8034.0, 7.0095e-07
8036.0, 6.5571e-07
8038.0, 7.3566e-07
8040.0, 7.6695e-07
8042.0, 6.7823e-07
8044.0, 7.5972e-07
8046.0, 7.9823e-07
8048.0, 6.53e-07
8050.0, 7.3206e-07
8052.0, 7.667e-07
8054.0, 7.5989e-07
8056.0, 7.403e-07
8058.0, 7.3991e-07
8060.1, 7.1178e-07
8062.1, 7.5646e-07
8064.1, 8.1429e-07
8066.1, 7.6854e-07
8068.1, 7.3748e-07
8070.1, 7.3556e-07
8072.1, 6.8603e-07
8074.1, 7.9919e-07
8076.1, 7.5487e-07
8078.1, 7.8137e-07
8080.1, 8.3135e-07
8082.1, 7.4131e-07
8084.1, 6.9618e-07
8086.1, 7.1262e-07
8088.1, 7.1089e-07
8090.1, 6.882e-07
8092.1, 6.7254e-07
8094.1, 7.2105e-07
8096.1, 7.4188e-07
8098.1, 7.0904e-07
8100.1, 8.0512e-07
8102.1, 7.6758e-07
8104.1, 7.5243e-07
8106.1, 7.4618e-07
8108.1, 7.1883e-07
8110.1, 7.5738e-07
8112.1, 7.3441e-07
8114.1, 7.3051e-07
8116.1, 7.7657e-07
8118.1, 7.6859e-07
8120.1, 7.5515e-07
8122.1, 7.0468e-07
8124.1, 6.7854e-07
8126.1, 7.1483e-07
8128.1, 6.8695e-07
8130.1, 7.3948e-07
8132.1, 7.3889e-07
8134.1, 7.0052e-07
8136.1, 7.1895e-07
8138.1, 7.4076e-07
8140.1, 7.5701e-07
8142.1, 6.7893e-07
8144.1, 7.6377e-07
8146.1, 7.3817e-07
8148.1, 7.4651e-07
8150.1, 7.2922e-07
8152.1, 7.9021e-07
8154.1, 7.8404e-07
8156.1, 7.5346e-07
8158.1, 7.5616e-07
8160.2, 7.4928e-07
8162.2, 7.6492e-07
8164.2, 7.6448e-07
8166.2, 7.7056e-07
8168.2, 6.9324e-07
8170.2, 7.7729e-07
8172.2, 7.831e-07
8174.2, 6.7821e-07
8176.2, 9.668e-08
8178.2, -3.8e-08
8180.2, -3.867e-08
8182.2, -3.862e-08
8184.2, -3.935e-08
8186.2, -3.727e-08
8188.2, -3.429e-08
8190.2, -3.63e-08
8192.2, -3.274e-08
8194.2, -3.791e-08
8196.2, -3.389e-08
8198.2, -3.625e-08
8200.2, -3.623e-08
8202.2, -3.775e-08
8204.2, -3.334e-08
8206.2, -3.196e-08
8208.2, -3.532e-08
8210.2, -3.781e-08
8212.2, -3.921e-08
8214.2, -3.725e-08
8216.2, -3.991e-08
8218.2, -3.56e-08
8220.2, -3.721e-08
8222.2, -3.754e-08
8224.2, -3.995e-08
8226.2, -3.963e-08
8228.2, -3.785e-08
8230.2, -3.689e-08
8232.2, -3.867e-08
8234.2, -4.169e-08
8236.2, -3.777e-08
8238.2, -3.859e-08
8240.2, -3.89e-08
8242.2, -3.58e-08
8244.2, -4.049e-08
8246.2, -4.151e-08
8248.2, -4.225e-08
8250.2, -4.178e-08
8252.2, -3.821e-08
8254.2, -3.972e-08
8256.2, -4e-08
8258.2, -3.485e-08
8260.3, -3.477e-08
8262.3, -3.73e-08
8264.3, -3.617e-08
8266.3, -4.041e-08
8268.3, -3.582e-08
8270.3, -3.388e-08
8272.3, -3.459e-08
8274.3, -3.784e-08
8276.3, -3.708e-08
8278.3, -3.755e-08
8280.3, -3.57e-08
8282.3, -3.813e-08
8284.3, -3.647e-08
8286.3, -3.94e-08
8288.3, -3.756e-08
8290.3, -3.538e-08
8292.3, -3.701e-08
8294.3, -4.306e-08
8296.3, -4.184e-08
8298.3, -3.645e-08
8300.3, -3.972e-08
8302.3, -4.079e-08
8304.3, -4.144e-08
8306.3, -3.988e-08
8308.3, -3.628e-08
8310.3, -3.681e-08
8312.3, -3.682e-08
8314.3, -3.793e-08
8316.3, -3.623e-08
8318.3, -3.652e-08
8320.3, -3.58e-08
8322.3, -3.52e-08
8324.3, -3.562e-08
8326.3, -3.437e-08
8328.3, -3.81e-08
8330.3, -3.751e-08
8332.3, -3.729e-08
8334.3, -4.031e-08
8336.3, -3.95e-08
8338.3, -3.893e-08
8340.3, -3.764e-08
8342.3, -3.752e-08
8344.3, -3.745e-08
8346.3, -3.778e-08
8348.3, -3.464e-08
8350.3, -3.485e-08
8352.3, -3.481e-08
8354.3, -3.63e-08
8356.3, -3.998e-08
8358.3, -3.565e-08
8360.4, -3.814e-08
8362.4, -3.691e-08
8364.4, -3.568e-08
8366.4, -3.406e-08
8368.4, -3.533e-08
8370.4, -3.567e-08
8372.4, -3.716e-08
8374.4, -3.456e-08
8376.4, -3.485e-08
8378.4, -3.261e-08
8380.4, -3.435e-08
8382.4, -3.479e-08
8384.4, -3.571e-08
8386.4, -3.511e-08
8388.4, -3.622e-08
8390.4, -3.804e-08
8392.4, -3.645e-08
8394.4, -3.753e-08
8396.4, -3.714e-08
8398.4, -3.103e-08
8400.4, -3.148e-08
8402.4, -3.523e-08
8404.4, -3.4e-08
8406.4, -3.41e-08
8408.4, -3.198e-08
8410.4, -3.112e-08
8412.4, -3.194e-08
8414.4, -3.098e-08
8416.4, -3.567e-08
8418.4, -3.812e-08
8420.4, -3.364e-08
8422.4, -3.66e-08
8424.4, -3.957e-08
8426.4, -3.5e-08
8428.4, -3.495e-08
8430.4, -3.338e-08
8432.4, -3.346e-08
8434.4, -3.619e-08
8436.4, -3.587e-08
8438.4, -3.492e-08
8440.4, -3.327e-08
8442.4, -3.793e-08
8444.4, -3.512e-08
8446.4, -3.9e-08
8448.4, -3.31e-08
8450.4, -3.801e-08
8452.4, -3.758e-08
8454.4, -3.749e-08
8456.4, -3.384e-08
8458.4, -3.72e-08
8460.5, -3.618e-08
8462.5, -3.303e-08
8464.5, -3.663e-08
8466.5, -3.287e-08
8468.5, -3.31e-08
8470.5, -3.4e-08
8472.5, -3.311e-08
8474.5, -3.751e-08
8476.5, -3.22e-08
8478.5, -3.4e-08
8480.5, -3.445e-08
8482.5, -3.391e-08
8484.5, -3.602e-08
8486.5, -3.456e-08
8488.5, -3.436e-08
8490.5, -3.779e-08
8492.5, -3.218e-08
8494.5, -3.568e-08
8496.5, -3.835e-08
8498.5, -3.889e-08
8500.5, -3.85e-08
8502.5, -3.821e-08
8504.5, -3.565e-08
8506.5, -3.838e-08
8508.5, -3.657e-08
8510.5, -3.896e-08
8512.5, -3.64e-08
8514.5, -3.793e-08
8516.5, -3.42e-08
8518.5, -3.513e-08
8520.5, -3.646e-08
8522.5, -3.387e-08
8524.5, -3.406e-08
8526.5, -3.313e-08
8528.5, -3.546e-08
8530.5, -3.531e-08
8532.5, -3.656e-08
8534.5, -3.926e-08
8536.5, -3.536e-08
8538.5, -3.455e-08
8540.5, -3.757e-08
8542.5, -3.276e-08
8544.5, -3.544e-08
8546.5, -3.602e-08
8548.5, -3.729e-08
8550.5, -3.715e-08
8552.5, -3.789e-08
8554.5, -3.632e-08
8556.5, -3.776e-08
8558.5, -3.747e-08
8560.6, -3.901e-08
8562.6, -3.586e-08
8564.6, -3.836e-08
8566.6, -3.79e-08
8568.6, -3.531e-08
8570.6, -3.69e-08
8572.6, -3.472e-08
8574.6, -3.576e-08
8576.6, -3.327e-08
8578.6, -3.3e-08
8580.6, -3.306e-08
8582.6, -3.573e-08
8584.6, -3.613e-08
8586.6, -3.62e-08
8588.6, -3.404e-08
8590.6, -3.309e-08
8592.6, -3.415e-08
8594.6, -3.573e-08
8596.6, -3.325e-08
8598.6, -2.997e-08
8600.6, -3.384e-08
8602.6, -3.616e-08
8604.6, -3.341e-08
8606.6, -3.497e-08
8608.6, -3.43e-08
8610.6, -3.872e-08
8612.6, -3.695e-08
8614.6, -3.543e-08
8616.6, -3.714e-08
8618.6, -3.564e-08
8620.6, -3.414e-08
8622.6, -3.424e-08
8624.6, -3.239e-08
8626.6, -3.733e-08
8628.6, -2.763e-08
8630.6, -3.449e-08
8632.6, -3.17e-08
8634.6, -3.326e-08
8636.6, -3.578e-08
8638.6, -3.272e-08
8640.6, -3.55e-08
8642.6, -3.735e-08
8644.6, -3.826e-08
8646.6, -3.435e-08
8648.6, -3.045e-08
8650.6, -3.178e-08
8652.6, -3.497e-08
8654.6, -3.412e-08
8656.6, -3.441e-08
8658.6, -3.652e-08
8660.7, -3.264e-08
8662.7, -3.365e-08
8664.7, -3.475e-08
8666.7, -3.447e-08
8668.7, -3.18e-08
8670.7, -3.714e-08
8672.7, -3.515e-08
8674.7, -3.696e-08
8676.7, -3.572e-08
8678.7, -3.691e-08
8680.7, -3.548e-08
8682.7, -3.273e-08
8684.7, -3.883e-08
8686.7, -3.832e-08
8688.7, -3.482e-08
8690.7, -3.421e-08
8692.7, -3.488e-08
8694.7, -3.777e-08
8696.7, -3.598e-08
8698.7, -3.802e-08
8700.7, -3.582e-08
8702.7, -3.977e-08
8704.7, -4.015e-08
8706.7, -3.642e-08
8708.7, -3.622e-08
8710.7, -3.538e-08
8712.7, -3.475e-08
8714.7, -3.872e-08
8716.7, -3.659e-08
8718.7, -3.682e-08
8720.7, -3.456e-08
8722.7, -3.616e-08
8724.7, -3.523e-08
8726.7, -3.711e-08
8728.7, -3.484e-08
8730.7, -3.397e-08
8732.7, -3.89e-08
8734.7, -3.83e-08
8736.7, -3.69e-08
8738.7, -3.498e-08
8740.7, -3.491e-08
8742.7, -3.736e-08
8744.7, -3.579e-08
8746.7, -3.927e-08
8748.7, -3.782e-08
8750.7, -3.751e-08
8752.7, -3.457e-08
8754.7, -3.675e-08
8756.7, -3.535e-08
8758.7, -3.6e-08
8760.8, -3.386e-08
8762.8, -3.412e-08
8764.8, -3.451e-08
8766.8, -3.476e-08
8768.8, -3.64e-08
8770.8, -3.307e-08
8772.8, -3.274e-08
8774.8, -3.611e-08
8776.8, -3.369e-08
8778.8, -3.785e-08
8780.8, -3.46e-08
8782.8, -3.449e-08
8784.8, -3.611e-08
8786.8, -3.429e-08
8788.8, -3.574e-08
8790.8, -3.403e-08
8792.8, -3.756e-08
8794.8, -3.487e-08
8796.8, -3.461e-08
8798.8, -3.453e-08
8800.8, -3.337e-08
8802.8, -3.577e-08
8804.8, -3.099e-08
8806.8, -3.234e-08
8808.8, -3.277e-08
8810.8, -3.619e-08
8812.8, -3.512e-08
8814.8, -3.597e-08
8816.8, -3.507e-08
8818.8, -3.724e-08
8820.8, -4.11e-08
8822.8, -3.784e-08
8824.8, -3.583e-08
8826.8, -3.775e-08
8828.8, -3.492e-08
8830.8, -3.678e-08
8832.8, -3.86e-08
8834.8, -3.978e-08
8836.8, -4.095e-08
8838.8, -4.056e-08
8840.8, -3.852e-08
8842.8, -3.973e-08
8844.8, -3.996e-08
8846.8, -3.504e-08
8848.8, -3.084e-08
8850.8, -3.67e-08
8852.8, -3.535e-08
8854.8, -3.797e-08
8856.8, -3.822e-08
8858.8, -3.654e-08
8860.9, -3.538e-08
8862.9, -3.67e-08
8864.9, -3.612e-08
8866.9, -3.707e-08
8868.9, -3.691e-08
8870.9, -3.649e-08
8872.9, -3.723e-08
8874.9, -4.07e-08
8876.9, -3.696e-08
8878.9, -3.315e-08
8880.9, -3.501e-08
8882.9, -3.602e-08
8884.9, -3.386e-08
8886.9, -3.497e-08
8888.9, -3.57e-08
8890.9, -3.859e-08
8892.9, -3.783e-08
8894.9, -3.938e-08
8896.9, -3.796e-08
8898.9, -3.717e-08
8900.9, -3.767e-08
8902.9, -3.86e-08
8904.9, -3.771e-08
8906.9, -3.962e-08
8908.9, -3.937e-08
8910.9, -3.633e-08
8912.9, -3.95e-08
8914.9, -3.647e-08
8916.9, -3.684e-08
8918.9, -3.462e-08
8920.9, -3.534e-08
8922.9, -3.773e-08
8924.9, -3.614e-08
8926.9, -3.883e-08
8928.9, -3.767e-08
8930.9, -3.899e-08
8932.9, -3.939e-08
8934.9, -3.555e-08
8936.9, -3.787e-08
8938.9, -3.758e-08
8940.9, -3.625e-08
8942.9, -3.738e-08
8944.9, -3.787e-08
8946.9, -3.611e-08
8948.9, -3.37e-08
8950.9, -3.666e-08
8952.9, -3.708e-08
8954.9, -3.792e-08
8956.9, -4.084e-08
8958.9, -3.896e-08
8961.0, -3.802e-08
8963.0, -3.975e-08
8965.0, -3.881e-08
8967.0, -3.602e-08
8969.0, -3.762e-08
8971.0, -3.55e-08
8973.0, -3.543e-08
8975.0, -3.685e-08
8977.0, -3.674e-08
8979.0, -3.473e-08
8981.0, -3.655e-08
8983.0, -3.428e-08
8985.0, -3.875e-08
8987.0, -3.805e-08
8989.0, -3.921e-08
8991.0, -3.852e-08
8993.0, -3.942e-08
8995.0, -4.007e-08
8997.0, -3.744e-08
8999.0, -4.06e-08
9001.0, -3.691e-08
9003.0, -3.789e-08
9005.0, -3.798e-08
9007.0, -3.619e-08
9009.0, -3.569e-08
9011.0, -3.736e-08
9013.0, -3.559e-08
9015.0, -3.935e-08
9017.0, -3.61e-08
9019.0, -3.717e-08
9021.0, -3.857e-08
9023.0, -3.525e-08
9025.0, -3.548e-08
9027.0, -3.507e-08
9029.0, -3.535e-08
9031.0, -3.546e-08
9033.0, -3.665e-08
9035.0, -3.66e-08
9037.0, -3.834e-08
9039.0, -3.314e-08
9041.0, -3.537e-08
9043.0, -3.687e-08
9045.0, -3.741e-08
9047.0, -3.828e-08
9049.0, -3.549e-08
9051.0, -3.63e-08
9053.0, -3.401e-08
9055.0, -3.573e-08
9057.0, -3.486e-08
9059.0, -3.678e-08
9061.1, -3.654e-08
9063.1, -3.711e-08
9065.1, -3.907e-08
9067.1, -3.938e-08
9069.1, -3.863e-08
9071.1, -4e-08
9073.1, -3.881e-08
9075.1, -3.544e-08
9077.1, -3.864e-08
9079.1, -3.538e-08
9081.1, -3.893e-08
9083.1, -3.718e-08
9085.1, -3.989e-08
9087.1, -3.734e-08
9089.1, -3.673e-08
9091.1, -3.759e-08
9093.1, -3.588e-08
9095.1, -3.66e-08
9097.1, -3.433e-08
9099.1, -3.583e-08
9101.1, -3.641e-08
9103.1, -3.692e-08
9105.1, -3.7e-08
9107.1, -3.742e-08
9109.1, -3.774e-08
9111.1, -3.593e-08
9113.1, -3.6e-08
9115.1, -3.729e-08
9117.1, -3.621e-08
9119.1, -3.691e-08
9121.1, -3.526e-08
9123.1, -3.477e-08
9125.1, -3.346e-08
9127.1, -3.541e-08
9129.1, -3.723e-08
9131.1, -3.543e-08
9133.1, -3.418e-08
9135.1, -3.305e-08
9137.1, -3.149e-08
9139.1, -3.606e-08
9141.1, -3.622e-08
9143.1, -3.51e-08
9145.1, -3.778e-08
9147.1, -3.867e-08
9149.1, -3.479e-08
9151.1, -3.552e-08
9153.1, -3.86e-08
9155.1, -3.659e-08
9157.1, -3.631e-08
9159.1, -3.72e-08
9161.2, -3.73e-08
9163.2, -3.605e-08
9165.2, -3.51e-08
9167.2, -3.474e-08
9169.2, -3.75e-08
9171.2, -3.728e-08
9173.2, -3.614e-08
9175.2, -3.906e-08
9177.2, -4.052e-08
9179.2, -4.104e-08
9181.2, -3.605e-08
9183.2, -3.525e-08
9185.2, -3.253e-08
9187.2, -3.449e-08
9189.2, -4.059e-08
9191.2, -3.823e-08
9193.2, -3.568e-08
9195.2, -3.803e-08
9197.2, -3.862e-08
9199.2, -3.578e-08
9201.2, -3.674e-08
9203.2, -3.663e-08
9205.2, -3.655e-08
9207.2, 7.1013e-07
9209.2, 6.211e-07
9211.2, 6.3557e-07
9213.2, 6.7873e-07
9215.2, 6.8262e-07
9217.2, 6.7075e-07
9219.2, 6.3629e-07
9221.2, 7.016e-07
9223.2, 6.5294e-07
9225.2, 7.4855e-07
9227.2, 6.2854e-07
9229.2, 6.8054e-07
9231.2, 6.767e-07
9233.2, 6.8918e-07
9235.2, 6.404e-07
9237.2, 7.6968e-07
9239.2, 6.0835e-07
9241.2, 6.8503e-07
9243.2, 7.2798e-07
9245.2, 6.898e-07
9247.2, 7.0571e-07
9249.2, 7.5394e-07
9251.2, 7.4134e-07
9253.2, 7.136e-07
9255.2, 6.9041e-07
9257.2, 6.503e-07
9259.2, 7.1202e-07
9261.3, 7.4305e-07
9263.3, 6.8479e-07
9265.3, 7.679e-07
9267.3, 7.8367e-07
9269.3, 6.8029e-07
9271.3, 6.9934e-07
9273.3, 7.0762e-07
9275.3, 6.56e-07
9277.3, 7.0955e-07
9279.3, 7.1235e-07
9281.3, 6.1242e-07
9283.3, 6.9474e-07
9285.3, 7.2585e-07
9287.3, 7.0984e-07
9289.3, 7.0609e-07
9291.3, 7.4699e-07
9293.3, 7.3067e-07
9295.3, 6.9934e-07
9297.3, 7.3772e-07
9299.3, 7.4818e-07
9301.3, 7.191e-07
9303.3, 6.6466e-07
9305.3, 7.2607e-07
9307.3, 7.5648e-07
9309.3, 6.5813e-07
9311.3, 7.4886e-07
9313.3, 7.7035e-07
9315.3, 7.1252e-07
9317.3, 7.5616e-07
9319.3, 7.0122e-07
9321.3, 6.7789e-07
9323.3, 6.837e-07
9325.3, 7.0206e-07
9327.3, 7.5576e-07
9329.3, 7.5565e-07
9331.3, 7.3447e-07
9333.3, 7.5218e-07
9335.3, 7.6573e-07
9337.3, 7.3896e-07
9339.3, 6.9873e-07
9341.3, 7.5887e-07
9343.3, 7.0635e-07
9345.3, 7.112e-07
9347.3, 8.2376e-07
9349.3, 7.1064e-07
9351.3, 7.6438e-07
9353.3, 7.276e-07
9355.3, 7.7568e-07
9357.3, 7.558e-07
9359.3, 7.8999e-07
9361.4, 7.22e-07
9363.4, 7.0681e-07
9365.4, 7.5636e-07
9367.4, 7.0341e-07
9369.4, 7.6274e-07
9371.4, 6.9623e-07
9373.4, 7.9855e-07
9375.4, 6.842e-07
9377.4, 6.8654e-07
9379.4, 7.7036e-07
9381.4, 7.0748e-07
9383.4, 7.7938e-07
9385.4, 7.072e-07
9387.4, 7.7574e-07
9389.4, 6.9759e-07
9391.4, 7.0243e-07
9393.4, 7.4086e-07
9395.4, 7.3658e-07
9397.4, 7.9002e-07
9399.4, 7.8628e-07
9401.4, 7.5188e-07
9403.4, 7.747e-07
9405.4, 7.3871e-07
9407.4, 6.9103e-07
9409.4, 7.5767e-07
9411.4, 7.0416e-07
9413.4, 7.0112e-07
9415.4, 7.9831e-07
9417.4, 7.7862e-07
9419.4, 7.7282e-07
9421.4, 7.6447e-07
9423.4, 7.4245e-07
9425.4, 7.304e-07
9427.4, 7.2359e-07
9429.4, 7.3428e-07
9431.4, 8.2509e-07
9433.4, 7.3028e-07
9435.4, 7.1683e-07
9437.4, 8.2271e-07
9439.4, 8.0513e-07
9441.4, 6.7337e-07
9443.4, 7.8027e-07
9445.4, 7.2137e-07
9447.4, 7.6437e-07
9449.4, 7.8228e-07
9451.4, 8.2267e-07
9453.4, 6.8019e-07
9455.4, 7.4796e-07
9457.4, 8.1766e-07
9459.4, 7.5251e-07
9461.5, 6.8988e-07
9463.5, 7.1392e-07
9465.5, 7.5586e-07
9467.5, 8.0135e-07
9469.5, 7.2096e-07
9471.5, 7.5366e-07
9473.5, 7.4145e-07
9475.5, 6.9237e-07
9477.5, 7.1474e-07
9479.5, 7.3625e-07
9481.5, 7.7145e-07
9483.5, 7.5345e-07
9485.5, 7.3658e-07
9487.5, 7.8303e-07
9489.5, 7.9345e-07
9491.5, 7.0842e-07
9493.5, 7.3071e-07
9495.5, 7.7018e-07
9497.5, 6.9787e-07
9499.5, 7.95e-07
9501.5, 8.2842e-07
9503.5, 7.6128e-07
9505.5, 7.3381e-07
9507.5, 7.7164e-07
9509.5, 7.3177e-07
9511.5, 7.6048e-07
9513.5, 8.4667e-07
9515.5, 8.1773e-07
9517.5, 7.9182e-07
9519.5, 8.8698e-07
9521.5, 7.6319e-07
9523.5, 7.9269e-07
9525.5, 7.9055e-07
9527.5, 7.2565e-07
9529.5, 7.624e-07
9531.5, 7.3424e-07
9533.5, 7.9041e-07
9535.5, 7.8009e-07
9537.5, 6.7693e-07
9539.5, 7.3672e-07
9541.5, 7.6066e-07
9543.5, 6.6817e-07
9545.5, 8.3838e-07
9547.5, 6.3557e-07
9549.5, 7.2216e-07
9551.5, 7.4781e-07
9553.5, 7.7486e-07
9555.5, 7.4691e-07
9557.5, 7.9375e-07
9559.5, 7.4797e-07
9561.6, 7.6521e-07
9563.6, 7.0214e-07
9565.6, 8.1017e-07
9567.6, 7.7685e-07
9569.6, 7.3199e-07
9571.6, 7.5787e-07
9573.6, 7.7726e-07
9575.6, 7.6317e-07
9577.6, 9.0849e-07
9579.6, 7.6105e-07
9581.6, 7.4856e-07
9583.6, 7.2464e-07
9585.6, 6.7917e-07
9587.6, 8.2427e-07
9589.6, 8.6025e-07
9591.6, 8.2919e-07
9593.6, 7.4419e-07
9595.6, 7.8519e-07
9597.6, 7.6638e-07
9599.6, 7.1092e-07
9601.6, 7.9102e-07
9603.6, 7.5759e-07
9605.6, 7.9131e-07
9607.6, 7.5827e-07
9609.6, 7.7026e-07
9611.6, 6.7335e-07
9613.6, 8.3777e-07
9615.6, 7.8118e-07
9617.6, 8.0503e-07
9619.6, 6.4658e-07
9621.6, 7.5576e-07
9623.6, 7.719e-07
9625.6, 7.4782e-07
9627.6, 7.4513e-07
9629.6, 8.0737e-07
9631.6, 8.1658e-07
9633.6, 6.978e-07
9635.6, 8.3263e-07
9637.6, 7.817e-07
9639.6, 6.8775e-07
9641.6, 8.0378e-07
9643.6, 8.0977e-07
9645.6, 7.6712e-07
9647.6, 8.0049e-07
9649.6, 8.0692e-07
9651.6, 7.3466e-07
9653.6, 7.1779e-07
9655.6, 7.88e-07
9657.6, 7.6744e-07
9659.6, 7.5774e-07
9661.7, 7.979e-07
9663.7, 7.8785e-07
9665.7, 7.2383e-07
9667.7, 8.586e-07
9669.7, 8.0738e-07
9671.7, 7.7556e-07
9673.7, 7.6928e-07
9675.7, 7.3239e-07
9677.7, 7.6252e-07
9679.7, 8.5073e-07
9681.7, 8.5621e-07
9683.7, 7.7374e-07
9685.7, 7.7267e-07
9687.7, 7.2937e-07
9689.7, 7.7147e-07
9691.7, 6.6352e-07
9693.7, 7.6931e-07
9695.7, 7.8707e-07
9697.7, 7.4436e-07
9699.7, 7.2948e-07
9701.7, 7.8181e-07
9703.7, 7.4374e-07
9705.7, 7.9128e-07
9707.7, 8.0628e-07
9709.7, 7.7872e-07
9711.7, 7.182e-07
9713.7, 7.7339e-07
9715.7, 7.9157e-07
9717.7, 7.525e-07
9719.7, 8.1671e-07
9721.7, 8.5863e-07
9723.7, 7.5546e-07
9725.7, 7.0523e-07
9727.7, 7.0935e-07
9729.7, 7.6441e-07
9731.7, 7.8186e-07
9733.7, 7.7919e-07
9735.7, 8.5392e-07
9737.7, 7.8097e-07
9739.7, 7.5118e-07
9741.7, 7.7245e-07
9743.7, 7.9163e-07
9745.7, 7.3789e-07
9747.7, 7.8636e-07
9749.7, 8.036e-07
9751.7, 6.7686e-07
9753.7, 7.7484e-07
9755.7, 7.5162e-07
9757.7, 7.5573e-07
9759.7, 7.5523e-07
9761.8, 8.2808e-07
9763.8, 8.3621e-07
9765.8, 7.7846e-07
9767.8, 7.9158e-07
9769.8, 8.9302e-07
9771.8, 7.1861e-07
9773.8, 8.1705e-07
9775.8, 7.7875e-07
9777.8, 8.2385e-07
9779.8, 7.7886e-07
9781.8, 8.1359e-07
9783.8, 7.9305e-07
9785.8, 7.181e-07
9787.8, 8.405e-07
9789.8, 7.4689e-07
9791.8, 8.3104e-07
9793.8, 8.2001e-07
9795.8, 7.6326e-07
9797.8, 7.0432e-07
9799.8, 7.8247e-07
9801.8, 8.2137e-07
9803.8, 8.1878e-07
9805.8, 7.5934e-07
9807.8, 7.5175e-07
9809.8, 8.6232e-07
9811.8, 7.9365e-07
9813.8, 8.4632e-07
9815.8, 8.3298e-07
9817.8, 8.8989e-07
9819.8, 7.1922e-07
9821.8, 8.0369e-07
9823.8, 7.4607e-07
9825.8, 6.8695e-07
9827.8, 8.383e-07
9829.8, 7.4071e-07
9831.8, 7.6273e-07
9833.8, 7.233e-07
9835.8, 7.5e-07
9837.8, 7.3016e-07
9839.8, 8.2699e-07
9841.8, 8.2656e-07
9843.8, 8.298e-07
9845.8, 7.4389e-07
9847.8, 7.2507e-07
9849.8, 7.9599e-07
9851.8, 7.4954e-07
9853.8, 7.3733e-07
9855.8, 7.1294e-07
9857.8, 7.9541e-07
9859.8, 7.4724e-07
9861.9, 8.0648e-07
9863.9, 7.543e-07
9865.9, 7.7304e-07
9867.9, 7.8999e-07
9869.9, 7.7895e-07
9871.9, 7.5274e-07
9873.9, 7.2977e-07
9875.9, 6.6583e-07
9877.9, 7.7188e-07
9879.9, 7.735e-07
9881.9, 7.5602e-07
9883.9, 7.3105e-07
9885.9, 7.6752e-07
9887.9, 7.6952e-07
9889.9, 7.9221e-07
9891.9, 7.423e-07
9893.9, 7.5785e-07
9895.9, 8.654e-07
9897.9, 7.7946e-07
9899.9, 6.9474e-07
9901.9, 8.5261e-07
9903.9, 7.9998e-07
9905.9, 7.8677e-07
9907.9, 8.1538e-07
9909.9, 7.7403e-07
9911.9, 7.952e-07
9913.9, 8.3495e-07
9915.9, 7.4599e-07
9917.9, 7.7932e-07
9919.9, 8.4256e-07
9921.9, 8.3392e-07
9923.9, 8.5195e-07
9925.9, 7.6925e-07
9927.9, 8.3572e-07
9929.9, 8.187e-07
9931.9, 7.8964e-07
9933.9, 8.2411e-07
9935.9, 7.4043e-07
9937.9, 7.8645e-07
9939.9, 8.1434e-07
9941.9, 7.9085e-07
9943.9, 8.359e-07
9945.9, 7.7164e-07
9947.9, 7.6526e-07
9949.9, 7.4612e-07
9951.9, 8.3169e-07
9953.9, 8.7861e-07
9955.9, 7.7215e-07
9957.9, 8.3652e-07
9959.9, 7.2564e-07
9962.0, 9.2058e-07
9964.0, 8.021e-07
9966.0, 7.6378e-07
9968.0, 7.756e-07
9970.0, 7.8055e-07
9972.0, 7.4981e-07
9974.0, 7.148e-07
9976.0, 7.5274e-07
9978.0, 8.121e-07
9980.0, 7.5185e-07
9982.0, 7.6871e-07
9984.0, 7.0715e-07
9986.0, 7.4467e-07
9988.0, 8.1107e-07
9990.0, 8.2023e-07
9992.0, 7.8653e-07
9994.0, 7.1442e-07
9996.0, 8.0625e-07
9998.0, 8.1202e-07
10000.0, 8.1751e-07
10002.0, 8.6356e-07
10004.0, 7.7362e-07
10006.0, 7.7691e-07
10008.0, 7.6527e-07
10010.0, 8.4468e-07
10012.0, 7.0222e-07
10014.0, 7.3917e-07
10016.0, 8.3578e-07
10018.0, 8.4516e-07
10020.0, 7.5286e-07
10022.0, 8.0052e-07
10024.0, 8.3149e-07
10026.0, 7.7708e-07
10028.0, 7.5391e-07
10030.0, 7.7431e-07
10032.0, 7.7451e-07
10034.0, 7.5733e-07
10036.0, 7.6523e-07
10038.0, 7.9995e-07
10040.0, 7.3998e-07
10042.0, 7.7842e-07
10044.0, 7.7119e-07
10046.0, 7.1388e-07
10048.0, 7.6937e-07
10050.0, 7.4792e-07
10052.0, 7.8297e-07
10054.0, 7.7268e-07
10056.0, 8.1613e-07
10058.0, 7.4423e-07
10060.0, 8.2891e-07
10062.0, 8.6401e-07
10064.0, 7.9834e-07
10066.0, 8.2614e-07
10068.0, 7.6686e-07
10070.0, 7.6867e-07
10072.0, 7.6888e-07
10074.0, 7.5412e-07
10076.0, 7.6313e-07
10078.0, 7.7753e-07
10080.0, 7.4782e-07
10082.0, 7.1472e-07
10084.0, 7.6385e-07
10086.0, 8.4491e-07
10088.0, 7.8259e-07
10090.0, 7.2025e-07
10092.0, 8.5981e-07
10094.0, 7.9339e-07
10096.0, 7.4045e-07
10098.0, 7.6359e-07
10100.0, 8.4194e-07
10102.0, 7.5216e-07
10104.0, 7.2207e-07
10106.0, 8.0864e-07
10108.0, 8.5532e-07
10110.0, 7.7679e-07
10112.0, 8.032e-07
10114.0, 7.9545e-07
10116.0, 7.792e-07
10118.0, 8.1123e-07
10120.0, 6.8151e-07
10122.0, 8.5038e-07
10124.0, 8.1699e-07
10126.0, 7.5097e-07
10128.0, 7.4102e-07
10130.0, 7.1862e-07
10132.0, 7.7377e-07
10134.0, 8.0435e-07
10136.0, 8.0239e-07
10138.0, 7.2244e-07
10140.0, 7.0697e-07
10142.0, 7.2622e-07
10144.0, 7.287e-07
10146.0, 8.3552e-07
10148.0, 8.1812e-07
10150.0, 7.6792e-07
10152.0, 8.0637e-07
10154.0, 8.0068e-07
10156.0, 8.3207e-07
10158.0, 8.7381e-07
10160.0, 8.1701e-07
10162.0, 7.9123e-07
10164.0, 7.2556e-07
10166.0, 7.6239e-07
10168.0, 7.7421e-07
10170.0, 7.7653e-07
10172.0, 7.9898e-07
10174.0, 8.2726e-07
10176.0, 7.672e-07
10178.0, 7.7605e-07
10180.0, 8.1039e-07
10182.0, 8.2295e-07
10184.0, 7.4874e-07
10186.0, 7.8188e-07
10188.0, 8.6804e-07
10190.0, 7.7431e-07
10192.0, 7.6572e-07
10194.0, 7.4164e-07
10196.0, 7.8528e-07
10198.0, 8.0103e-07
10200.0, 7.116e-07
10202.0, 8.7303e-07
10204.0, 7.545e-07
10206.0, 8.3131e-07
10208.0, -4.525e-08
10210.0, -3.367e-08
10212.0, -3.319e-08
10214.0, -3.664e-08
10216.0, -3.826e-08
10218.0, -3.26e-08
10220.0, -3.626e-08
10222.0, -3.464e-08
10224.0, -3.81e-08
10226.0, -3.498e-08
10228.0, -3.3e-08
10230.0, -3.725e-08
10232.0, -3.677e-08
10234.0, -3.297e-08
10236.0, -3.732e-08
10238.0, -3.742e-08
10240.0, -3.369e-08
10242.0, -3.505e-08
10244.0, -3.669e-08
10246.0, -3.703e-08
10248.0, -3.679e-08
10250.0, -3.361e-08
10252.0, -3.684e-08
10254.0, -3.531e-08
10256.0, -3.356e-08
10258.0, -3.484e-08
10260.0, -3.532e-08
10262.0, -3.672e-08
10264.0, -3.293e-08
10266.0, -3.57e-08
10268.0, -3.553e-08
10270.0, -3.58e-08
10272.0, -3.451e-08
10274.0, -3.719e-08
10276.0, -3.472e-08
10278.0, -3.711e-08
10280.0, -3.298e-08
10282.0, -3.323e-08
10284.0, -3.4e-08
10286.0, -3.463e-08
10288.0, -3.098e-08
10290.0, -3.408e-08
10292.0, -3.471e-08
10294.0, -3.195e-08
10296.0, -3.454e-08
10298.0, -3.493e-08
10300.0, -3.695e-08
10302.0, -3.688e-08
10304.0, -3.689e-08
10306.0, -3.42e-08
10308.0, -3.919e-08
10310.0, -3.577e-08
10312.0, -3.571e-08
10314.0, -3.503e-08
10316.0, -3.34e-08
10318.0, -3.382e-08
10320.0, -3.643e-08
10322.0, -3.553e-08
10324.0, -3.624e-08
10326.0, -3.586e-08
10328.0, -3.681e-08
10330.0, -3.375e-08
10332.0, -3.43e-08
10334.0, -3.272e-08
10336.0, -3.306e-08
10338.0, -3.608e-08
10340.0, -3.424e-08
10342.0, -3.805e-08
10344.0, -3.127e-08
10346.0, -3.6e-08
10348.0, -3.985e-08
10350.0, -3.611e-08
10352.0, -3.376e-08
10354.0, -3.587e-08
10356.0, -3.574e-08
10358.0, -3.326e-08
10360.0, -3.616e-08
10362.0, -3.362e-08
10364.0, -3.297e-08
10366.0, -3.604e-08
10368.0, -3.76e-08
10370.0, -3.384e-08
10372.0, -3.403e-08
10374.0, -3.592e-08
10376.0, -3.371e-08
10378.0, -3.509e-08
10380.0, -2.727e-08
10382.0, -3.378e-08
10384.0, -3.102e-08
10386.0, -3.094e-08
10388.0, -3.221e-08
10390.0, -3.214e-08
10392.0, -3.432e-08
10394.0, -3.275e-08
10396.0, -3.27e-08
10398.0, -3.712e-08
10400.0, -3.866e-08
10402.0, -3.463e-08
10404.0, -3.468e-08
10406.0, -3.353e-08
10408.0, -3.419e-08
10410.0, -3.47e-08
10412.0, -3.206e-08
10414.0, -3.164e-08
10416.0, -3.125e-08
10418.0, -3.426e-08
10420.0, -3.303e-08
10422.0, -3.065e-08
10424.0, -3.095e-08
10426.0, -2.86e-08
10428.0, -3.319e-08
10430.0, -3.283e-08
10432.0, -3.453e-08
10434.0, -3.222e-08
10436.0, -2.982e-08
10438.0, -3.009e-08
10440.0, -3.439e-08
10442.0, -3.04e-08
10444.0, -3.466e-08
10446.0, -3.441e-08
10448.0, -3.648e-08
10450.0, -3.46e-08
10452.0, -3.572e-08
10454.0, -3.771e-08
10456.0, -3.651e-08
10458.0, -3.202e-08
10460.0, -3.536e-08
10462.0, -3.04e-08
10464.0, -3.293e-08
10466.0, -3.478e-08
10468.0, -3.575e-08
10470.0, -3.413e-08
10472.0, -3.307e-08
10474.0, -3.309e-08
10476.0, -3.141e-08
10478.0, -3.514e-08
10480.0, -3.589e-08
10482.0, -3.915e-08
10484.0, -3.614e-08
10486.0, -3.551e-08
10488.0, -3.54e-08
10490.0, -3.618e-08
10492.0, -3.571e-08
10494.0, -3.577e-08
10496.0, -3.721e-08
10498.0, -3.906e-08
10500.0, -3.256e-08
10502.0, -3.577e-08
10504.0, -3.327e-08
10506.0, -3.637e-08
10508.0, -3.307e-08
10510.0, -3.499e-08
10513.0, -3.272e-08
10515.0, -3.588e-08
10517.0, -3.479e-08
10519.0, -3.684e-08
10521.0, -4.013e-08
10523.0, -3.521e-08
10525.0, -3.547e-08
10527.0, -3.839e-08
10529.0, -3.36e-08
10531.0, -3.701e-08
10533.0, -3.434e-08
10535.0, -3.171e-08
10537.0, -3.506e-08
10539.0, -3.498e-08
10541.0, -3.341e-08
10543.0, -3.22e-08
10545.0, -3.67e-08
10547.0, -3.764e-08
10549.0, -3.586e-08
10551.0, -3.771e-08
10553.0, -3.556e-08
10555.0, -3.615e-08
10557.0, -3.59e-08
10559.0, -3.465e-08
10561.0, -3.993e-08
10563.0, -3.548e-08
10565.0, -3.227e-08
10567.0, -3.809e-08
10569.0, -3.405e-08
10571.0, -3.47e-08
10573.0, -3.801e-08
10575.0, -3.378e-08
10577.0, -3.197e-08
10579.0, -3.66e-08
10581.0, -3.514e-08
10583.0, -3.924e-08
10585.0, -3.882e-08
10587.0, -3.634e-08
10589.0, -3.897e-08
10591.0, -3.861e-08
10593.0, -4.042e-08
10595.0, -4.032e-08
10597.0, -3.918e-08
10599.0, -3.704e-08
10601.0, -3.697e-08
10603.0, -3.825e-08
10605.0, -4.281e-08
10607.0, -4.103e-08
10609.0, -3.777e-08
10611.0, -4.334e-08
10613.0, -3.962e-08
10615.0, -4.062e-08
10617.0, -3.738e-08
10619.0, -3.347e-08
10621.0, -3.799e-08
10623.0, -3.898e-08
10625.0, -3.603e-08
10627.0, -4.129e-08
10629.0, -3.711e-08
10631.0, -3.759e-08
10633.0, -3.884e-08
10635.0, -3.717e-08
10637.0, -3.789e-08
10639.0, -3.985e-08
10641.0, -4.007e-08
10643.0, -3.396e-08
10645.0, -3.524e-08
10647.0, -3.551e-08
10649.0, -3.573e-08
10651.0, -3.213e-08
10653.0, -3.436e-08
10655.0, -3.446e-08
10657.0, -3.534e-08
10659.0, -3.593e-08
10661.0, -3.917e-08
10663.0, -3.594e-08
10665.0, -3.753e-08
10667.0, -3.286e-08
10669.0, -3.47e-08
10671.0, -3.876e-08
10673.0, -3.36e-08
10675.0, -3.472e-08
10677.0, -3.656e-08
10679.0, -3.717e-08
10681.0, -3.708e-08
10683.0, -4.001e-08
10685.0, -3.732e-08
10687.0, -3.731e-08
10689.0, -3.518e-08
10691.0, -3.705e-08
10693.0, -3.805e-08
10695.0, -3.713e-08
10697.0, -3.939e-08
10699.0, -3.838e-08
10701.0, -3.579e-08
10703.0, -3.67e-08
10705.0, -3.578e-08
10707.0, -3.565e-08
10709.0, -3.474e-08
10711.0, -3.762e-08
10713.0, -3.572e-08
10715.0, -3.32e-08
10717.0, -3.406e-08
10719.0, -3.348e-08
10721.0, -3.655e-08
10723.0, -3.672e-08
10725.0, -3.359e-08
10727.0, -3.753e-08
10729.0, -3.679e-08
10731.0, -3.674e-08
10733.0, -3.43e-08
10735.0, -3.61e-08
10737.0, -3.686e-08
10739.0, -3.831e-08
10741.0, -3.62e-08
10743.0, -3.549e-08
10745.0, -3.863e-08
10747.0, -3.454e-08
10749.0, -3.541e-08
10751.0, -3.512e-08
10753.0, -3.66e-08
10755.0, -3.782e-08
10757.0, -3.52e-08
10759.0, -3.788e-08
10761.0, -3.361e-08
10763.0, -3.423e-08
10765.0, -3.791e-08
10767.0, -3.623e-08
10769.0, -3.553e-08
10771.0, -3.627e-08
10773.0, -3.511e-08
10775.0, -3.538e-08
10777.0, -3.862e-08
10779.0, -3.835e-08
10781.0, -3.698e-08
10783.0, -3.641e-08
10785.0, -3.866e-08
10787.0, -3.736e-08
10789.0, -3.912e-08
10791.0, -3.585e-08
10793.0, -3.357e-08
10795.0, -3.198e-08
10797.0, -3.765e-08
10799.0, -3.393e-08
10801.0, -3.591e-08
10803.0, -3.154e-08
10805.0, -3.242e-08
10807.0, -3.409e-08
10809.0, -3.559e-08
10811.0, -3.737e-08
10813.0, -3.486e-08
10815.0, -3.471e-08
10817.0, -3.88e-08
10819.0, -3.617e-08
10821.0, -3.475e-08
10823.0, -3.519e-08
10825.0, -3.764e-08
10827.0, -3.477e-08
10829.0, -3.369e-08
10831.0, -3.53e-08
10833.0, -3.588e-08
10835.0, -3.653e-08
10837.0, -3.719e-08
10839.0, -3.673e-08
10841.0, -3.873e-08
10843.0, -3.675e-08
10845.0, -3.555e-08
10847.0, -3.953e-08
10849.0, -3.741e-08
10851.0, -3.947e-08
10853.0, -3.752e-08
10855.0, -3.53e-08
10857.0, -3.475e-08
10859.0, -3.856e-08
10861.0, -3.643e-08
10863.0, -3.642e-08
10865.0, -3.695e-08
10867.0, -3.91e-08
10869.0, -3.934e-08
10871.0, -3.553e-08
10873.0, -3.347e-08
10875.0, -3.198e-08
10877.0, -3.406e-08
10879.0, -3.79e-08
10881.0, -3.534e-08
10883.0, -3.561e-08
10885.0, -3.462e-08
10887.0, -3.594e-08
10889.0, -3.845e-08
10891.0, -3.838e-08
10893.0, -4.433e-08
10895.0, -3.78e-08
10897.0, -3.782e-08
10899.0, -3.852e-08
10901.0, -3.626e-08
10903.0, -3.697e-08
10905.0, -3.657e-08
10907.0, -3.677e-08
10909.0, -3.589e-08
10911.0, -3.62e-08
10913.0, -3.713e-08
10915.0, -3.698e-08
10917.0, -3.78e-08
10919.0, -3.774e-08
10921.0, -3.294e-08
10923.0, -3.852e-08
10925.0, -3.966e-08
10927.0, -3.863e-08
10929.0, -3.874e-08
10931.0, -3.98e-08
10933.0, -3.816e-08
10935.0, -4.164e-08
10937.0, -3.975e-08
10939.0, -4.057e-08
10941.0, -4.314e-08
10943.0, -4.117e-08
10945.0, -4.048e-08
10947.0, -3.797e-08
10949.0, -3.583e-08
10951.0, -3.737e-08
10953.0, -3.923e-08
10955.0, -3.455e-08
10957.0, -3.921e-08
10959.0, -3.916e-08
10961.0, -3.785e-08
10963.0, -3.844e-08
10965.0, -3.629e-08
10967.0, -3.765e-08
10969.0, -3.629e-08
10971.0, -3.852e-08
10973.0, -3.912e-08
10975.0, -3.754e-08
10977.0, -3.908e-08
10979.0, -4.047e-08
10981.0, -3.964e-08
10983.0, -3.782e-08
10985.0, -3.72e-08
10987.0, -4.222e-08
10989.0, -4.002e-08
10991.0, -3.958e-08
10993.0, -3.858e-08
10995.0, -3.856e-08
10997.0, -4.095e-08
10999.0, -4.011e-08
11001.0, -3.916e-08
11003.0, -3.848e-08
11005.0, -4.073e-08
11007.0, -3.883e-08
11009.0, -3.607e-08
