Time sep (ms?), Current (A)
0.0, -3.005e-08
2.002, -3.142e-08
4.004, -2.82e-08
6.006, -2.772e-08
8.008, -2.608e-08
10.01, -2.814e-08
12.012, -2.716e-08
14.014, -2.557e-08
16.016, -2.955e-08
18.018, -2.941e-08
20.02, -2.923e-08
22.022, -2.96e-08
24.024, -3.164e-08
26.026, -3.524e-08
28.028, -2.926e-08
30.03, -3.171e-08
32.032, -2.933e-08
34.034, -3e-08
36.036, -2.921e-08
38.038, -2.713e-08
40.04, -2.79e-08
42.042, -2.649e-08
44.044, -3.08e-08
46.046, -2.621e-08
48.048, -2.774e-08
50.05, -2.725e-08
52.052, -2.847e-08
54.054, -3.307e-08
56.056, -2.996e-08
58.058, -2.999e-08
60.06, -3.252e-08
62.062, -3.371e-08
64.064, -3.146e-08
66.066, -3.148e-08
68.068, -3.038e-08
70.07, -2.954e-08
72.072, -2.973e-08
74.074, -3.075e-08
76.076, -2.834e-08
78.078, -2.746e-08
80.08, -2.964e-08
82.082, -2.88e-08
84.084, -3.228e-08
86.086, -3.346e-08
88.088, -3.293e-08
90.09, -3.227e-08
92.092, -3.435e-08
94.094, -3.404e-08
96.096, -3.162e-08
98.098, -3.381e-08
100.1, -3.011e-08
102.1, -3.342e-08
104.1, -3.173e-08
106.11, -2.967e-08
108.11, -3.034e-08
110.11, -3.213e-08
112.11, -3.587e-08
114.11, -3.11e-08
116.12, -3.001e-08
118.12, -3.428e-08
120.12, -3.465e-08
122.12, -3.351e-08
124.12, -3.314e-08
126.13, -3.899e-08
128.13, -3.254e-08
130.13, -3.242e-08
132.13, -3.442e-08
134.13, -3.328e-08
136.14, -3.633e-08
138.14, -3.418e-08
140.14, -4.02e-08
142.14, -4.009e-08
144.14, -4.063e-08
146.15, -3.947e-08
148.15, -4.036e-08
150.15, -3.956e-08
152.15, -4.257e-08
154.15, -3.963e-08
156.16, -3.957e-08
158.16, -4.13e-08
160.16, -4.315e-08
162.16, -4.103e-08
164.16, -3.635e-08
166.17, -3.84e-08
168.17, -3.731e-08
170.17, -3.58e-08
172.17, -3.702e-08
174.17, -3.727e-08
176.18, -3.566e-08
178.18, -3.275e-08
180.18, -3.766e-08
182.18, -3.374e-08
184.18, -3.388e-08
186.19, -3.651e-08
188.19, -4.115e-08
190.19, -3.688e-08
192.19, -3.496e-08
194.19, -3.431e-08
196.2, -3.205e-08
198.2, -3.421e-08
200.2, -3.638e-08
202.2, -3.521e-08
204.2, -3.248e-08
206.21, -3.705e-08
208.21, -3.317e-08
210.21, -3.398e-08
212.21, -3.183e-08
214.21, -3.187e-08
216.22, -3.359e-08
218.22, -3.301e-08
220.22, -3.739e-08
222.22, -3.626e-08
224.22, -3.502e-08
226.23, -3.897e-08
228.23, -3.681e-08
230.23, -3.907e-08
232.23, -3.742e-08
234.23, -3.7e-08
236.24, -3.506e-08
238.24, -3.865e-08
240.24, -3.54e-08
242.24, -3.564e-08
244.24, -3.668e-08
246.25, -3.406e-08
248.25, -3.068e-08
250.25, -3.509e-08
252.25, -3.514e-08
254.25, -3.65e-08
256.26, -3.267e-08
258.26, -3.204e-08
260.26, -3.33e-08
262.26, -3.223e-08
264.26, -3.118e-08
266.27, -3.5e-08
268.27, -3.005e-08
270.27, -3.164e-08
272.27, -3.408e-08
274.27, -3.357e-08
276.28, -3.501e-08
278.28, -3.436e-08
280.28, -3.886e-08
282.28, -4.015e-08
284.28, -3.406e-08
286.29, -3.521e-08
288.29, -3.379e-08
290.29, -3.626e-08
292.29, -3.676e-08
294.29, -3.37e-08
296.3, -3.207e-08
298.3, -3.321e-08
300.3, -3.407e-08
302.3, -3.684e-08
304.3, -3.534e-08
306.31, -3.376e-08
308.31, -3.459e-08
310.31, -3.426e-08
312.31, -3.564e-08
314.31, -3.492e-08
316.32, -3.171e-08
318.32, -3.549e-08
320.32, -3.368e-08
322.32, -3.424e-08
324.32, -3.529e-08
326.33, -3.43e-08
328.33, -3.646e-08
330.33, -3.906e-08
332.33, -3.451e-08
334.33, -3.626e-08
336.34, -3.523e-08
338.34, -3.664e-08
340.34, -3.481e-08
342.34, -3.393e-08
344.34, -3.39e-08
346.35, -3.669e-08
348.35, -3.084e-08
350.35, -3.462e-08
352.35, -3.455e-08
354.35, -3.263e-08
356.36, -3.029e-08
358.36, -3.021e-08
360.36, -3.306e-08
362.36, -3.41e-08
364.36, -3.177e-08
366.37, -3.17e-08
368.37, -3.51e-08
370.37, -3.391e-08
372.37, -3.557e-08
374.37, -3.255e-08
376.38, -3.504e-08
378.38, -3.227e-08
380.38, -3.269e-08
382.38, -3.414e-08
384.38, -3.561e-08
386.39, -3.186e-08
388.39, -3.479e-08
390.39, -3.512e-08
392.39, -3.567e-08
394.39, -3.534e-08
396.4, -3.471e-08
398.4, -3.464e-08
400.4, -3.224e-08
402.4, -3.222e-08
404.4, -3.119e-08
406.41, -3.022e-08
408.41, -3.026e-08
410.41, -3.469e-08
412.41, -3.411e-08
414.41, -3.401e-08
416.42, -3.269e-08
418.42, -3.229e-08
420.42, -3.345e-08
422.42, -3.362e-08
424.42, -3.227e-08
426.43, -3.427e-08
428.43, -2.919e-08
430.43, -3.057e-08
432.43, -3.135e-08
434.43, -3.443e-08
436.44, -3.122e-08
438.44, -2.965e-08
440.44, -3.293e-08
442.44, -3.229e-08
444.44, -3.117e-08
446.45, -3.072e-08
448.45, -3.238e-08
450.45, -2.957e-08
452.45, -3.067e-08
454.45, -3.069e-08
456.46, -3.387e-08
458.46, -3.139e-08
460.46, -3.669e-08
462.46, -3.25e-08
464.46, -3.647e-08
466.47, -3.754e-08
468.47, -3.171e-08
470.47, -3.535e-08
472.47, -3.811e-08
474.47, -4.027e-08
476.48, -3.851e-08
478.48, -3.703e-08
480.48, -3.347e-08
482.48, -3.669e-08
484.48, -3.325e-08
486.49, -3.845e-08
488.49, -3.276e-08
490.49, -3.665e-08
492.49, -3.524e-08
494.49, -3.625e-08
496.5, -3.722e-08
498.5, -3.825e-08
500.5, -3.942e-08
502.5, -3.628e-08
504.5, -3.646e-08
506.51, -3.645e-08
508.51, -3.811e-08
510.51, -4.063e-08
512.51, -4.066e-08
514.51, -3.82e-08
516.52, -3.571e-08
518.52, -3.703e-08
520.52, -4.147e-08
522.52, -4.053e-08
524.52, -3.766e-08
526.53, -3.489e-08
528.53, -3.588e-08
530.53, -3.677e-08
532.53, -4.04e-08
534.53, -3.391e-08
536.54, -3.683e-08
538.54, -4.13e-08
540.54, -3.866e-08
542.54, -3.735e-08
544.54, -3.856e-08
546.55, -3.595e-08
548.55, -3.696e-08
550.55, -4.015e-08
552.55, -4.142e-08
554.55, -3.985e-08
556.56, -4.204e-08
558.56, -3.855e-08
560.56, -4.033e-08
562.56, -3.887e-08
564.56, -4.237e-08
566.57, -3.939e-08
568.57, -3.602e-08
570.57, -3.803e-08
572.57, -3.504e-08
574.57, -3.85e-08
576.58, -3.997e-08
578.58, -3.953e-08
580.58, -4.252e-08
582.58, -3.739e-08
584.58, -3.726e-08
586.59, -3.522e-08
588.59, -3.247e-08
590.59, -3.496e-08
592.59, -3.43e-08
594.59, -3.631e-08
596.6, -3.11e-08
598.6, -3.231e-08
600.6, -3.513e-08
602.6, -3.123e-08
604.6, -3.42e-08
606.61, -3.629e-08
608.61, -3.367e-08
610.61, -3.579e-08
612.61, -3.75e-08
614.61, -3.441e-08
616.62, -3.35e-08
618.62, -3.685e-08
620.62, -4.14e-08
622.62, -3.21e-08
624.62, -3.406e-08
626.63, -3.788e-08
628.63, -3.487e-08
630.63, -3.119e-08
632.63, -3.111e-08
634.63, -3.762e-08
636.64, -3.729e-08
638.64, -3.782e-08
640.64, -3.792e-08
642.64, -3.718e-08
644.64, -3.788e-08
646.65, -3.33e-08
648.65, -3.516e-08
650.65, -3.57e-08
652.65, -3.754e-08
654.65, -3.626e-08
656.66, -4.007e-08
658.66, -3.857e-08
660.66, -3.841e-08
662.66, -3.911e-08
664.66, -3.914e-08
666.67, -3.662e-08
668.67, -3.916e-08
670.67, -3.708e-08
672.67, -3.388e-08
674.67, -3.209e-08
676.68, -3.299e-08
678.68, -3.702e-08
680.68, -3.478e-08
682.68, -3.551e-08
684.68, -3.288e-08
686.69, -3.52e-08
688.69, -3.297e-08
690.69, -3.301e-08
692.69, -3.673e-08
694.69, -3.422e-08
696.7, -3.283e-08
698.7, -3.41e-08
700.7, -3.753e-08
702.7, -4.082e-08
704.7, -3.675e-08
706.71, -3.5e-08
708.71, -3.517e-08
710.71, -3.275e-08
712.71, -3.215e-08
714.71, -2.922e-08
716.72, -3.157e-08
718.72, -3.191e-08
720.72, -3.314e-08
722.72, -3.286e-08
724.72, -3.082e-08
726.73, -3.418e-08
728.73, -3.274e-08
730.73, -3.407e-08
732.73, -3.158e-08
734.73, -2.75e-08
736.74, -3.132e-08
738.74, -3.222e-08
740.74, -3.226e-08
742.74, -3.281e-08
744.74, -3.303e-08
746.75, -3.448e-08
748.75, -3.256e-08
750.75, -3.212e-08
752.75, -3.442e-08
754.75, -3.36e-08
756.76, -3.368e-08
758.76, -2.893e-08
760.76, -3.468e-08
762.76, -3.172e-08
764.76, -3.415e-08
766.77, -3.262e-08
768.77, -3.228e-08
770.77, -3.336e-08
772.77, -3.309e-08
774.77, -2.948e-08
776.78, -3.23e-08
778.78, -3.153e-08
780.78, -3.239e-08
782.78, -3.165e-08
784.78, -3.376e-08
786.79, -3.359e-08
788.79, -3.381e-08
790.79, -3.377e-08
792.79, -3.435e-08
794.79, -3.737e-08
796.8, -3.505e-08
798.8, -3.241e-08
800.8, -3.155e-08
802.8, -3.315e-08
804.8, -3.395e-08
806.81, -3.394e-08
808.81, -3.149e-08
810.81, -3.451e-08
812.81, -3.624e-08
814.81, -3.42e-08
816.82, -3.326e-08
818.82, -3.765e-08
820.82, -3.443e-08
822.82, -3.386e-08
824.82, -3.47e-08
826.83, -3.532e-08
828.83, -3.279e-08
830.83, -3.963e-08
832.83, -3.45e-08
834.83, -3.59e-08
836.84, -3.19e-08
838.84, -3.258e-08
840.84, -3.561e-08
842.84, -3.237e-08
844.84, -2.981e-08
846.85, -3.136e-08
848.85, -3.335e-08
850.85, -3.008e-08
852.85, -3.234e-08
854.85, -3.324e-08
856.86, -3.141e-08
858.86, -3.309e-08
860.86, -3.139e-08
862.86, -3.472e-08
864.86, -3.599e-08
866.87, -3.501e-08
868.87, -3.489e-08
870.87, -3.124e-08
872.87, -3.442e-08
874.87, -2.873e-08
876.88, -2.892e-08
878.88, -2.775e-08
880.88, -2.676e-08
882.88, -2.913e-08
884.88, -2.49e-08
886.89, -3.038e-08
888.89, -2.989e-08
890.89, -3.501e-08
892.89, -3.625e-08
894.89, -3.614e-08
896.9, -3.446e-08
898.9, -3.638e-08
900.9, -3.403e-08
902.9, -3.545e-08
904.9, -3.398e-08
906.91, -3.42e-08
908.91, -3.452e-08
910.91, -3.293e-08
912.91, -3.268e-08
914.91, -3.86e-08
916.92, -3.637e-08
918.92, -3.647e-08
920.92, -3.57e-08
922.92, -3.685e-08
924.92, -3.485e-08
926.93, -3.358e-08
928.93, -3.218e-08
930.93, -3.23e-08
932.93, -3.431e-08
934.93, -2.889e-08
936.94, -3.103e-08
938.94, -3.179e-08
940.94, -3.405e-08
942.94, -3.569e-08
944.94, -3.235e-08
946.95, -3.557e-08
948.95, -3.694e-08
950.95, -3.417e-08
952.95, -3.632e-08
954.95, -3.393e-08
956.96, -3.248e-08
958.96, -3.273e-08
960.96, -3.593e-08
962.96, -3.493e-08
964.96, -3.645e-08
966.97, -3.314e-08
968.97, -3.781e-08
970.97, -3.179e-08
972.97, -3.312e-08
974.97, -3.668e-08
976.98, -3.662e-08
978.98, -3.396e-08
980.98, -3.51e-08
982.98, -3.656e-08
984.98, -3.376e-08
986.99, -3.079e-08
988.99, -3.409e-08
990.99, -2.908e-08
992.99, -3.17e-08
994.99, -3.089e-08
997.0, -3.238e-08
999.0, -3.378e-08
1001.0, -3.496e-08
1003.0, -3.375e-08
1005.0, -3.4e-08
1007.0, -3.14e-08
1009.0, -3.321e-08
1011.0, 1.8073e-07
1013.0, 3.6451e-07
1015.0, 4.1486e-07
1017.0, 3.567e-07
1019.0, 4.1227e-07
1021.0, 4.0346e-07
1023.0, 3.9001e-07
1025.0, 4.0177e-07
1027.0, 4.0194e-07
1029.0, 4.1846e-07
1031.0, 4.0369e-07
1033.0, 4.3916e-07
1035.0, 3.9708e-07
1037.0, 3.9055e-07
1039.0, 4.206e-07
1041.0, 3.5854e-07
1043.0, 4.0293e-07
1045.0, 3.9596e-07
1047.0, 4.0064e-07
1049.0, 3.844e-07
1051.0, 4.1149e-07
1053.1, 4.4654e-07
1055.1, 4.0916e-07
1057.1, 3.8392e-07
1059.1, 4.204e-07
1061.1, 4.2035e-07
1063.1, 3.916e-07
1065.1, 3.9717e-07
1067.1, 4.0666e-07
1069.1, 4.2258e-07
1071.1, 4.3444e-07
1073.1, 4.0126e-07
1075.1, 4.3125e-07
1077.1, 3.9209e-07
1079.1, 4.5852e-07
1081.1, 4.3717e-07
1083.1, 4.1663e-07
1085.1, 4.3973e-07
1087.1, 4.0658e-07
1089.1, 4.2087e-07
1091.1, 4.5959e-07
1093.1, 4.1509e-07
1095.1, 4.154e-07
1097.1, 4.4822e-07
1099.1, 4.3922e-07
1101.1, 4.0805e-07
1103.1, 3.8744e-07
1105.1, 4.2896e-07
1107.1, 4.2132e-07
1109.1, 4.0229e-07
1111.1, 4.4699e-07
1113.1, 3.83e-07
1115.1, 4.1603e-07
1117.1, 4.3489e-07
1119.1, 3.9348e-07
1121.1, 4.2775e-07
1123.1, 4.5802e-07
1125.1, 4.3337e-07
1127.1, 4.03e-07
1129.1, 4.4126e-07
1131.1, 4.0719e-07
1133.1, 4.2171e-07
1135.1, 4.6969e-07
1137.1, 4.0835e-07
1139.1, 4.8336e-07
1141.1, 4.6921e-07
1143.1, 4.4257e-07
1145.1, 4.5325e-07
1147.1, 4.336e-07
1149.1, 4.2555e-07
1151.1, 3.7938e-07
1153.2, 3.9988e-07
1155.2, 4.4566e-07
1157.2, 4.4067e-07
1159.2, 3.8962e-07
1161.2, 4.0246e-07
1163.2, 3.9823e-07
1165.2, 4.6863e-07
1167.2, 4.3232e-07
1169.2, 4.301e-07
1171.2, 3.9125e-07
1173.2, 4.0159e-07
1175.2, 4.5422e-07
1177.2, 4.7111e-07
1179.2, 4.4809e-07
1181.2, 4.1192e-07
1183.2, 4.4357e-07
1185.2, 4.225e-07
1187.2, 4.3533e-07
1189.2, 4.2533e-07
1191.2, 4.3388e-07
1193.2, 4.461e-07
1195.2, 4.3163e-07
1197.2, 4.5173e-07
1199.2, 4.639e-07
1201.2, 3.8676e-07
1203.2, 4.8887e-07
1205.2, 4.1902e-07
1207.2, 4.4293e-07
1209.2, 4.3937e-07
1211.2, 4.6894e-07
1213.2, 4.0249e-07
1215.2, 4.4328e-07
1217.2, 4.4424e-07
1219.2, 4.3912e-07
1221.2, 4.5522e-07
1223.2, 4.0978e-07
1225.2, 4.4871e-07
1227.2, 4.493e-07
1229.2, 4.3857e-07
1231.2, 4.1604e-07
1233.2, 4.7909e-07
1235.2, 4.2859e-07
1237.2, 4.6652e-07
1239.2, 4.5091e-07
1241.2, 4.6456e-07
1243.2, 4.5312e-07
1245.2, 4.5802e-07
1247.2, 3.9945e-07
1249.2, 4.402e-07
1251.2, 5.3356e-07
1253.3, 4.2876e-07
1255.3, 4.4723e-07
1257.3, 4.5962e-07
1259.3, 4.0692e-07
1261.3, 4.4651e-07
1263.3, 4.048e-07
1265.3, 4.3734e-07
1267.3, 4.3901e-07
1269.3, 4.0724e-07
1271.3, 4.1319e-07
1273.3, 4.7219e-07
1275.3, 4.3125e-07
1277.3, 4.5102e-07
1279.3, 4.0543e-07
1281.3, 4.4971e-07
1283.3, 4.4584e-07
1285.3, 4.317e-07
1287.3, 4.6843e-07
1289.3, 4.3295e-07
1291.3, 4.7503e-07
1293.3, 4.1352e-07
1295.3, 4.6939e-07
1297.3, 4.1563e-07
1299.3, 4.4697e-07
1301.3, 4.6823e-07
1303.3, 4.4348e-07
1305.3, 4.2667e-07
1307.3, 4.7618e-07
1309.3, 4.2865e-07
1311.3, 4.397e-07
1313.3, 4.0813e-07
1315.3, 4.0501e-07
1317.3, 4.4841e-07
1319.3, 4.4527e-07
1321.3, 4.6675e-07
1323.3, 4.1085e-07
1325.3, 4.6913e-07
1327.3, 4.9177e-07
1329.3, 4.8359e-07
1331.3, 4.4518e-07
1333.3, 4.6482e-07
1335.3, 4.4225e-07
1337.3, 4.6253e-07
1339.3, 5.1859e-07
1341.3, 4.2137e-07
1343.3, 4.5032e-07
1345.3, 4.6754e-07
1347.3, 4.6201e-07
1349.3, 4.3378e-07
1351.3, 4.6705e-07
1353.4, 4.2365e-07
1355.4, 4.8789e-07
1357.4, 4.604e-07
1359.4, 4.3087e-07
1361.4, 4.6248e-07
1363.4, 4.6066e-07
1365.4, 4.1811e-07
1367.4, 4.4767e-07
1369.4, 4.3843e-07
1371.4, 4.5273e-07
1373.4, 4.3915e-07
1375.4, 4.6179e-07
1377.4, 4.3107e-07
1379.4, 4.6061e-07
1381.4, 4.328e-07
1383.4, 4.3387e-07
1385.4, 4.2017e-07
1387.4, 4.6782e-07
1389.4, 4.6818e-07
1391.4, 4.4181e-07
1393.4, 4.4913e-07
1395.4, 4.3349e-07
1397.4, 4.3032e-07
1399.4, 4.7272e-07
1401.4, 5.4472e-07
1403.4, 4.4392e-07
1405.4, 4.3309e-07
1407.4, 4.4624e-07
1409.4, 4.2094e-07
1411.4, 4.295e-07
1413.4, 4.526e-07
1415.4, 4.4724e-07
1417.4, 4.5598e-07
1419.4, 4.3667e-07
1421.4, 4.8947e-07
1423.4, 4.6044e-07
1425.4, 4.6214e-07
1427.4, 4.4319e-07
1429.4, 4.9024e-07
1431.4, 4.2752e-07
1433.4, 4.4318e-07
1435.4, 4.5453e-07
1437.4, 4.3828e-07
1439.4, 4.6587e-07
1441.4, 4.898e-07
1443.4, 4.629e-07
1445.4, 4.4245e-07
1447.4, 4.6121e-07
1449.4, 4.2446e-07
1451.4, 4.7587e-07
1453.5, 4.6182e-07
1455.5, 4.6267e-07
1457.5, 4.6605e-07
1459.5, 4.639e-07
1461.5, 3.9089e-07
1463.5, 4.4927e-07
1465.5, 4.5907e-07
1467.5, 4.6252e-07
1469.5, 4.3609e-07
1471.5, 4.0524e-07
1473.5, 4.5325e-07
1475.5, 4.7602e-07
1477.5, 5.0137e-07
1479.5, 4.985e-07
1481.5, 4.6087e-07
1483.5, 4.4265e-07
1485.5, 4.1425e-07
1487.5, 4.1186e-07
1489.5, 4.3301e-07
1491.5, 4.518e-07
1493.5, 4.7272e-07
1495.5, 4.4035e-07
1497.5, 4.5888e-07
1499.5, 4.839e-07
1501.5, 4.9674e-07
1503.5, 5.0871e-07
1505.5, 4.5463e-07
1507.5, 4.5344e-07
1509.5, 4.9658e-07
1511.5, 4.8664e-07
1513.5, 4.3609e-07
1515.5, 4.6898e-07
1517.5, 4.7341e-07
1519.5, 4.3173e-07
1521.5, 4.3631e-07
1523.5, 4.5742e-07
1525.5, 4.4568e-07
1527.5, 4.5428e-07
1529.5, 4.7183e-07
1531.5, 4.2394e-07
1533.5, 4.5069e-07
1535.5, 4.6131e-07
1537.5, 4.4472e-07
1539.5, 4.1778e-07
1541.5, 4.7016e-07
1543.5, 4.1803e-07
1545.5, 4.3702e-07
1547.5, 4.5e-07
1549.5, 4.8339e-07
1551.5, 4.2314e-07
1553.6, 4.2893e-07
1555.6, 4.534e-07
1557.6, 4.9542e-07
1559.6, 4.5099e-07
1561.6, 4.3823e-07
1563.6, 4.3276e-07
1565.6, 4.5731e-07
1567.6, 4.5123e-07
1569.6, 5.0482e-07
1571.6, 4.1809e-07
1573.6, 4.7704e-07
1575.6, 4.7491e-07
1577.6, 4.5522e-07
1579.6, 4.7009e-07
1581.6, 4.0463e-07
1583.6, 4.6516e-07
1585.6, 4.4003e-07
1587.6, 4.906e-07
1589.6, 4.0126e-07
1591.6, 4.555e-07
1593.6, 4.3215e-07
1595.6, 4.776e-07
1597.6, 4.8468e-07
1599.6, 4.0009e-07
1601.6, 4.8698e-07
1603.6, 4.3708e-07
1605.6, 4.8331e-07
1607.6, 4.3033e-07
1609.6, 4.7015e-07
1611.6, 4.6183e-07
1613.6, 4.9364e-07
1615.6, 4.5889e-07
1617.6, 4.4855e-07
1619.6, 4.2799e-07
1621.6, 4.9719e-07
1623.6, 4.5068e-07
1625.6, 5.0226e-07
1627.6, 4.1653e-07
1629.6, 4.5763e-07
1631.6, 4.7179e-07
1633.6, 4.081e-07
1635.6, 4.2549e-07
1637.6, 4.4489e-07
1639.6, 4.4702e-07
1641.6, 4.1519e-07
1643.6, 4.69e-07
1645.6, 4.1073e-07
1647.6, 4.7025e-07
1649.6, 4.489e-07
1651.6, 4.6915e-07
1653.7, 4.5245e-07
1655.7, 4.6971e-07
1657.7, 4.5598e-07
1659.7, 5.0637e-07
1661.7, 4.4353e-07
1663.7, 4.8023e-07
1665.7, 4.2946e-07
1667.7, 4.5647e-07
1669.7, 4.9303e-07
1671.7, 4.7839e-07
1673.7, 4.6432e-07
1675.7, 4.7013e-07
1677.7, 4.2543e-07
1679.7, 4.5031e-07
1681.7, 4.9242e-07
1683.7, 4.6263e-07
1685.7, 4.4646e-07
1687.7, 4.3916e-07
1689.7, 4.772e-07
1691.7, 4.3792e-07
1693.7, 4.4065e-07
1695.7, 4.5112e-07
1697.7, 4.6e-07
1699.7, 4.9888e-07
1701.7, 4.7631e-07
1703.7, 4.4242e-07
1705.7, 4.2266e-07
1707.7, 4.5078e-07
1709.7, 4.7037e-07
1711.7, 4.734e-07
1713.7, 4.6169e-07
1715.7, 4.6007e-07
1717.7, 4.4861e-07
1719.7, 4.4884e-07
1721.7, 4.8152e-07
1723.7, 4.7816e-07
1725.7, 4.8548e-07
1727.7, 4.724e-07
1729.7, 4.4109e-07
1731.7, 4.7914e-07
1733.7, 4.3407e-07
1735.7, 4.7265e-07
1737.7, 4.1132e-07
1739.7, 4.2839e-07
1741.7, 4.1387e-07
1743.7, 4.5515e-07
1745.7, 4.4784e-07
1747.7, 4.3374e-07
1749.7, 4.4841e-07
1751.7, 4.559e-07
1753.8, 4.4073e-07
1755.8, 4.4383e-07
1757.8, 4.521e-07
1759.8, 4.1936e-07
1761.8, 4.6569e-07
1763.8, 4.2947e-07
1765.8, 4.4177e-07
1767.8, 4.3365e-07
1769.8, 4.9172e-07
1771.8, 4.7468e-07
1773.8, 4.4259e-07
1775.8, 4.5341e-07
1777.8, 4.8608e-07
1779.8, 5.1663e-07
1781.8, 5.0562e-07
1783.8, 5.1659e-07
1785.8, 4.7339e-07
1787.8, 4.4484e-07
1789.8, 4.6666e-07
1791.8, 4.8105e-07
1793.8, 4.6199e-07
1795.8, 4.6138e-07
1797.8, 4.6286e-07
1799.8, 4.7467e-07
1801.8, 4.989e-07
1803.8, 4.3551e-07
1805.8, 4.8324e-07
1807.8, 4.7847e-07
1809.8, 4.8941e-07
1811.8, 4.7514e-07
1813.8, 4.702e-07
1815.8, 4.7404e-07
1817.8, 4.316e-07
1819.8, 4.6239e-07
1821.8, 4.771e-07
1823.8, 4.5221e-07
1825.8, 4.7296e-07
1827.8, 4.4976e-07
1829.8, 4.5709e-07
1831.8, 4.7107e-07
1833.8, 4.6546e-07
1835.8, 4.7431e-07
1837.8, 4.5499e-07
1839.8, 4.9485e-07
1841.8, 4.9036e-07
1843.8, 4.6908e-07
1845.8, 5.2553e-07
1847.8, 4.717e-07
1849.8, 4.8411e-07
1851.8, 5.1052e-07
1853.9, 4.6237e-07
1855.9, 4.5692e-07
1857.9, 4.7546e-07
1859.9, 4.8797e-07
1861.9, 4.2385e-07
1863.9, 4.7912e-07
1865.9, 4.9444e-07
1867.9, 4.3355e-07
1869.9, 4.7375e-07
1871.9, 4.6264e-07
1873.9, 5.0843e-07
1875.9, 4.357e-07
1877.9, 4.6209e-07
1879.9, 4.3497e-07
1881.9, 4.6516e-07
1883.9, 4.4843e-07
1885.9, 5.1213e-07
1887.9, 4.8495e-07
1889.9, 4.4568e-07
1891.9, 4.3282e-07
1893.9, 4.4734e-07
1895.9, 4.5453e-07
1897.9, 4.6343e-07
1899.9, 4.1986e-07
1901.9, 4.5404e-07
1903.9, 4.4313e-07
1905.9, 4.4683e-07
1907.9, 5.0211e-07
1909.9, 4.4572e-07
1911.9, 4.7754e-07
1913.9, 5.1726e-07
1915.9, 4.2799e-07
1917.9, 4.5618e-07
1919.9, 4.5598e-07
1921.9, 4.6152e-07
1923.9, 4.5809e-07
1925.9, 4.9716e-07
1927.9, 4.549e-07
1929.9, 4.4217e-07
1931.9, 4.6338e-07
1933.9, 4.5028e-07
1935.9, 4.0986e-07
1937.9, 4.8832e-07
1939.9, 4.9575e-07
1941.9, 4.6361e-07
1943.9, 4.7221e-07
1945.9, 5.154e-07
1947.9, 4.6932e-07
1949.9, 5.123e-07
1951.9, 4.6893e-07
1954.0, 4.709e-07
1956.0, 4.4472e-07
1958.0, 4.82e-07
1960.0, 4.8145e-07
1962.0, 4.6751e-07
1964.0, 5.2191e-07
1966.0, 4.1998e-07
1968.0, 4.6231e-07
1970.0, 4.8941e-07
1972.0, 4.7168e-07
1974.0, 4.6349e-07
1976.0, 4.8607e-07
1978.0, 4.9157e-07
1980.0, 5.0131e-07
1982.0, 4.7153e-07
1984.0, 4.2622e-07
1986.0, 4.8595e-07
1988.0, 4.8407e-07
1990.0, 4.7323e-07
1992.0, 4.7159e-07
1994.0, 4.691e-07
1996.0, 4.5631e-07
1998.0, 4.517e-07
2000.0, 4.5751e-07
2002.0, 4.2039e-07
2004.0, 4.6714e-07
2006.0, 4.4537e-07
2008.0, 4.784e-07
2010.0, 4.9073e-07
2012.0, 2.2494e-07
2014.0, -3.586e-08
2016.0, -3.634e-08
2018.0, -3.301e-08
2020.0, -3.537e-08
2022.0, -3.592e-08
2024.0, -3.784e-08
2026.0, -3.207e-08
2028.0, -3.085e-08
2030.0, -3.387e-08
2032.0, -3.334e-08
2034.0, -3.218e-08
2036.0, -3.415e-08
2038.0, -3.391e-08
2040.0, -3.196e-08
2042.0, -3.625e-08
2044.0, -3.435e-08
2046.0, -3.413e-08
2048.0, -3.461e-08
2050.0, -3.422e-08
2052.0, -3.591e-08
2054.1, -3.791e-08
2056.1, -3.27e-08
2058.1, -3.219e-08
2060.1, -4.029e-08
2062.1, -3.587e-08
2064.1, -3.483e-08
2066.1, -3.497e-08
2068.1, -3.529e-08
2070.1, -3.594e-08
2072.1, -3.705e-08
2074.1, -3.916e-08
2076.1, -3.249e-08
2078.1, -3.419e-08
2080.1, -3.457e-08
2082.1, -3.518e-08
2084.1, -3.654e-08
2086.1, -3.355e-08
2088.1, -3.891e-08
2090.1, -3.554e-08
2092.1, -3.598e-08
2094.1, -3.287e-08
2096.1, -3.514e-08
2098.1, -3.442e-08
2100.1, -3.342e-08
2102.1, -3.291e-08
2104.1, -3.42e-08
2106.1, -3.168e-08
2108.1, -3.486e-08
2110.1, -3.43e-08
2112.1, -3.408e-08
2114.1, -3.573e-08
2116.1, -3.339e-08
2118.1, -3.551e-08
2120.1, -3.697e-08
2122.1, -3.556e-08
2124.1, -3.541e-08
2126.1, -3.524e-08
2128.1, -3.36e-08
2130.1, -3.628e-08
2132.1, -3.94e-08
2134.1, -3.632e-08
2136.1, -3.81e-08
2138.1, -3.76e-08
2140.1, -3.718e-08
2142.1, -4.127e-08
2144.1, -3.958e-08
2146.1, -3.394e-08
2148.1, -3.904e-08
2150.1, -3.764e-08
2152.1, -3.753e-08
2154.2, -3.87e-08
2156.2, -3.804e-08
2158.2, -3.834e-08
2160.2, -3.774e-08
2162.2, -3.852e-08
2164.2, -3.583e-08
2166.2, -3.629e-08
2168.2, -3.707e-08
2170.2, -3.637e-08
2172.2, -3.671e-08
2174.2, -3.712e-08
2176.2, -3.99e-08
2178.2, -3.521e-08
2180.2, -3.575e-08
2182.2, -3.791e-08
2184.2, -3.609e-08
2186.2, -3.812e-08
2188.2, -3.609e-08
2190.2, -3.619e-08
2192.2, -3.809e-08
2194.2, -3.46e-08
2196.2, -3.431e-08
2198.2, -3.902e-08
2200.2, -3.224e-08
2202.2, -3.172e-08
2204.2, -3.388e-08
2206.2, -3.309e-08
2208.2, -3.588e-08
2210.2, -3.668e-08
2212.2, -3.752e-08
2214.2, -3.413e-08
2216.2, -3.225e-08
2218.2, -3.393e-08
2220.2, -3.379e-08
2222.2, -3.63e-08
2224.2, -3.673e-08
2226.2, -3.528e-08
2228.2, -3.095e-08
2230.2, -3.156e-08
2232.2, -3.048e-08
2234.2, -3.268e-08
2236.2, -3.148e-08
2238.2, -3.715e-08
2240.2, -3.275e-08
2242.2, -3.624e-08
2244.2, -3.43e-08
2246.2, -3.725e-08
2248.2, -3.252e-08
2250.2, -3.085e-08
2252.2, -3.523e-08
2254.3, -3.27e-08
2256.3, -3.488e-08
2258.3, -3.227e-08
2260.3, -3.407e-08
2262.3, -3.48e-08
2264.3, -3.284e-08
2266.3, -3.189e-08
2268.3, -3.314e-08
2270.3, -3.584e-08
2272.3, -3.142e-08
2274.3, -3.327e-08
2276.3, -2.992e-08
2278.3, -3.089e-08
2280.3, -2.814e-08
2282.3, -3.029e-08
2284.3, -2.915e-08
2286.3, -2.917e-08
2288.3, -3.397e-08
2290.3, -3.359e-08
2292.3, -3.334e-08
2294.3, -3.177e-08
2296.3, -3.471e-08
2298.3, -3.363e-08
2300.3, -3.362e-08
2302.3, -2.91e-08
2304.3, -3.076e-08
2306.3, -3.022e-08
2308.3, -2.941e-08
2310.3, -3.131e-08
2312.3, -3.489e-08
2314.3, -3.483e-08
2316.3, -3.142e-08
2318.3, -3.292e-08
2320.3, -3.201e-08
2322.3, -3.472e-08
2324.3, -3.282e-08
2326.3, -3.478e-08
2328.3, -3.412e-08
2330.3, -3.091e-08
2332.3, -3.352e-08
2334.3, -3.164e-08
2336.3, -3.267e-08
2338.3, -3.219e-08
2340.3, -3.362e-08
2342.3, -3.409e-08
2344.3, -3.234e-08
2346.3, -3.076e-08
2348.3, -3.045e-08
2350.3, -3.274e-08
2352.3, -3.344e-08
2354.4, -3.22e-08
2356.4, -3.231e-08
2358.4, -3.549e-08
2360.4, -2.914e-08
2362.4, -3.356e-08
2364.4, -3.283e-08
2366.4, -3.162e-08
2368.4, -3.173e-08
2370.4, -3.343e-08
2372.4, -3.303e-08
2374.4, -3.299e-08
2376.4, -3.102e-08
2378.4, -2.727e-08
2380.4, -3.084e-08
2382.4, -2.958e-08
2384.4, -3.292e-08
2386.4, -2.884e-08
2388.4, -2.626e-08
2390.4, -3.159e-08
2392.4, -2.98e-08
2394.4, -3.134e-08
2396.4, -3.355e-08
2398.4, -3.392e-08
2400.4, -3.086e-08
2402.4, -3.172e-08
2404.4, -2.991e-08
2406.4, -3.073e-08
2408.4, -3.061e-08
2410.4, -2.999e-08
2412.4, -3.12e-08
2414.4, -2.806e-08
2416.4, -2.872e-08
2418.4, -2.531e-08
2420.4, -2.949e-08
2422.4, -2.669e-08
2424.4, -3.054e-08
2426.4, -3.426e-08
2428.4, -3.277e-08
2430.4, -3.199e-08
2432.4, -3.219e-08
2434.4, -3.177e-08
2436.4, -3.406e-08
2438.4, -3.002e-08
2440.4, -3.193e-08
2442.4, -2.987e-08
2444.4, -3.062e-08
2446.4, -2.96e-08
2448.4, -3.211e-08
2450.4, -3.168e-08
2452.4, -3.516e-08
2454.5, -3.35e-08
2456.5, -3.43e-08
2458.5, -3.134e-08
2460.5, -3.389e-08
2462.5, -3.264e-08
2464.5, -3.246e-08
2466.5, -3.039e-08
2468.5, -3.243e-08
2470.5, -3.18e-08
2472.5, -3.479e-08
2474.5, -3.173e-08
2476.5, -2.831e-08
2478.5, -3.228e-08
2480.5, -2.529e-08
2482.5, -3.52e-08
2484.5, -3.262e-08
2486.5, -2.737e-08
2488.5, -3.024e-08
2490.5, -2.781e-08
2492.5, -3.258e-08
2494.5, -3.169e-08
2496.5, -3.313e-08
2498.5, -3.169e-08
2500.5, -2.819e-08
2502.5, -2.866e-08
2504.5, -2.964e-08
2506.5, -2.903e-08
2508.5, -2.942e-08
2510.5, -3.264e-08
2512.5, -3.127e-08
2514.5, -2.954e-08
2516.5, -2.764e-08
2518.5, -2.996e-08
2520.5, -3.203e-08
2522.5, -3.407e-08
2524.5, -3.043e-08
2526.5, -3.306e-08
2528.5, -2.897e-08
2530.5, -3.249e-08
2532.5, -3.212e-08
2534.5, -3.234e-08
2536.5, -2.939e-08
2538.5, -2.757e-08
2540.5, -3.09e-08
2542.5, -3.292e-08
2544.5, -3.041e-08
2546.5, -3.09e-08
2548.5, -2.99e-08
2550.5, -3.144e-08
2552.5, -2.998e-08
2554.6, -3.405e-08
2556.6, -3.1e-08
2558.6, -3.333e-08
2560.6, -3.034e-08
2562.6, -3.197e-08
2564.6, -3.193e-08
2566.6, -3.267e-08
2568.6, -3.426e-08
2570.6, -3.41e-08
2572.6, -3.136e-08
2574.6, -3.421e-08
2576.6, -3.396e-08
2578.6, -3.707e-08
2580.6, -3.511e-08
2582.6, -4.012e-08
2584.6, -3.931e-08
2586.6, -3.823e-08
2588.6, -3.106e-08
2590.6, -3.482e-08
2592.6, -3.038e-08
2594.6, -3.139e-08
2596.6, -3.119e-08
2598.6, -3.072e-08
2600.6, -2.869e-08
2602.6, -3.02e-08
2604.6, -3.014e-08
2606.6, -3.163e-08
2608.6, -3.213e-08
2610.6, -3.202e-08
2612.6, -3.287e-08
2614.6, -3.549e-08
2616.6, -3.508e-08
2618.6, -3.281e-08
2620.6, -3.283e-08
2622.6, -3.266e-08
2624.6, -3.312e-08
2626.6, -3.3e-08
2628.6, -3.468e-08
2630.6, -3.338e-08
2632.6, -3.273e-08
2634.6, -3.593e-08
2636.6, -3.52e-08
2638.6, -3.409e-08
2640.6, -3.574e-08
2642.6, -3.376e-08
2644.6, -3.32e-08
2646.6, -3.304e-08
2648.6, -3.219e-08
2650.6, -3.422e-08
2652.6, -3.906e-08
2654.7, -3.732e-08
2656.7, -3.532e-08
2658.7, -3.609e-08
2660.7, -3.726e-08
2662.7, -3.597e-08
2664.7, -3.326e-08
2666.7, -3.552e-08
2668.7, -3.421e-08
2670.7, -3.16e-08
2672.7, -3.027e-08
2674.7, -3.198e-08
2676.7, -3.372e-08
2678.7, -3.456e-08
2680.7, -3.279e-08
2682.7, -3.333e-08
2684.7, -3.376e-08
2686.7, -3.527e-08
2688.7, -3.132e-08
2690.7, -3.147e-08
2692.7, -3.005e-08
2694.7, -2.886e-08
2696.7, -2.788e-08
2698.7, -2.94e-08
2700.7, -2.745e-08
2702.7, -3.235e-08
2704.7, -2.888e-08
2706.7, -3.212e-08
2708.7, -2.835e-08
2710.7, -3.059e-08
2712.7, -3.118e-08
2714.7, -3.451e-08
2716.7, -3.359e-08
2718.7, -2.825e-08
2720.7, -3.041e-08
2722.7, -3.241e-08
2724.7, -3.34e-08
2726.7, -3.02e-08
2728.7, -3.183e-08
2730.7, -3.453e-08
2732.7, -3.145e-08
2734.7, -3.168e-08
2736.7, -3.027e-08
2738.7, -3.304e-08
2740.7, -3.248e-08
2742.7, -3.113e-08
2744.7, -3.271e-08
2746.7, -3.378e-08
2748.7, -3.52e-08
2750.7, -3.612e-08
2752.7, -3.384e-08
2754.8, -3.646e-08
2756.8, -3.034e-08
2758.8, -3.223e-08
2760.8, -3.38e-08
2762.8, -3.312e-08
2764.8, -3.387e-08
2766.8, -3.52e-08
2768.8, -3.411e-08
2770.8, -3.295e-08
2772.8, -3.458e-08
2774.8, -3.341e-08
2776.8, -3.3e-08
2778.8, -3.202e-08
2780.8, -3.449e-08
2782.8, -3.155e-08
2784.8, -3.237e-08
2786.8, -3.408e-08
2788.8, -3.572e-08
2790.8, -3.561e-08
2792.8, -3.701e-08
2794.8, -3.634e-08
2796.8, -3.839e-08
2798.8, -3.417e-08
2800.8, -3.668e-08
2802.8, -3.276e-08
2804.8, -3.241e-08
2806.8, -3.635e-08
2808.8, -3.368e-08
2810.8, -3.323e-08
2812.8, -3.302e-08
2814.8, -3.559e-08
2816.8, -3.16e-08
2818.8, -3.413e-08
2820.8, -3.183e-08
2822.8, -2.921e-08
2824.8, -3.167e-08
2826.8, -3.175e-08
2828.8, -3.065e-08
2830.8, -3e-08
2832.8, -3.315e-08
2834.8, -3.444e-08
2836.8, -3.634e-08
2838.8, -3.389e-08
2840.8, -3.286e-08
2842.8, -3.446e-08
2844.8, -3.261e-08
2846.8, -3.111e-08
2848.8, -3.13e-08
2850.8, -2.946e-08
2852.8, -3.161e-08
2854.9, -2.883e-08
2856.9, -3.797e-08
2858.9, -3.439e-08
2860.9, -3.133e-08
2862.9, -3.239e-08
2864.9, -3.336e-08
2866.9, -3.043e-08
2868.9, -3.121e-08
2870.9, -2.909e-08
2872.9, -3.284e-08
2874.9, -3.348e-08
2876.9, -3.262e-08
2878.9, -3.393e-08
2880.9, -3.057e-08
2882.9, -3.021e-08
2884.9, -3.344e-08
2886.9, -3.358e-08
2888.9, -3.713e-08
2890.9, -3.676e-08
2892.9, -3.286e-08
2894.9, -3.586e-08
2896.9, -3.31e-08
2898.9, -3.378e-08
2900.9, -3.19e-08
2902.9, -3.322e-08
2904.9, -3.505e-08
2906.9, -3.352e-08
2908.9, -3.262e-08
2910.9, -3.218e-08
2912.9, -3.33e-08
2914.9, -3.428e-08
2916.9, -3.02e-08
2918.9, -3.015e-08
2920.9, -3.296e-08
2922.9, -3.732e-08
2924.9, -3.496e-08
2926.9, -3.303e-08
2928.9, -3.568e-08
2930.9, -3.379e-08
2932.9, -3.643e-08
2934.9, -3.317e-08
2936.9, -3.121e-08
2938.9, -2.967e-08
2940.9, -3.364e-08
2942.9, -3.512e-08
2944.9, -3.589e-08
2946.9, -3.676e-08
2948.9, -3.399e-08
2950.9, -3.335e-08
2952.9, -3.127e-08
2955.0, -3.425e-08
2957.0, -3.364e-08
2959.0, -3.444e-08
2961.0, -3.303e-08
2963.0, -3.637e-08
2965.0, -3.953e-08
2967.0, -3.648e-08
2969.0, -3.218e-08
2971.0, -3.409e-08
2973.0, -3.686e-08
2975.0, -3.084e-08
2977.0, -3.403e-08
2979.0, -3.731e-08
2981.0, -3.07e-08
2983.0, -3.166e-08
2985.0, -3.076e-08
2987.0, -3.597e-08
2989.0, -3.227e-08
2991.0, -3.45e-08
2993.0, -3.371e-08
2995.0, -2.902e-08
2997.0, -3.323e-08
2999.0, -2.735e-08
3001.0, -3.293e-08
3003.0, -3.481e-08
3005.0, -3.623e-08
3007.0, -2.983e-08
3009.0, -3.235e-08
3011.0, -3.27e-08
3013.0, -3.146e-08
3015.0, -2.985e-08
3017.0, -3.224e-08
3019.0, -3.126e-08
3021.0, -3.009e-08
3023.0, -3.165e-08
3025.0, -3.308e-08
3027.0, -3.337e-08
3029.0, -3.203e-08
3031.0, -3.503e-08
3033.0, -3.297e-08
3035.0, -3.623e-08
3037.0, -2.961e-08
3039.0, -3.365e-08
3041.0, -3.161e-08
3043.0, -3.606e-08
3045.0, -3.635e-08
3047.0, -3.286e-08
3049.0, -3.12e-08
3051.0, -3.293e-08
3053.0, -3.381e-08
3055.1, -3.232e-08
3057.1, -3.419e-08
3059.1, -3.429e-08
3061.1, -3.296e-08
3063.1, -3.502e-08
3065.1, 2.1198e-07
3067.1, 4.2351e-07
3069.1, 4.3503e-07
3071.1, 4.3161e-07
3073.1, 3.9326e-07
3075.1, 4.1787e-07
3077.1, 3.9863e-07
3079.1, 4.122e-07
3081.1, 4.1616e-07
3083.1, 4.021e-07
3085.1, 4.1793e-07
3087.1, 4.2621e-07
3089.1, 4.1279e-07
3091.1, 3.8497e-07
3093.1, 3.9809e-07
3095.1, 4.3845e-07
3097.1, 4.2112e-07
3099.1, 4.5258e-07
3101.1, 4.7381e-07
3103.1, 4.7315e-07
3105.1, 4.0989e-07
3107.1, 4.1917e-07
3109.1, 4.2808e-07
3111.1, 4.5776e-07
3113.1, 4.403e-07
3115.1, 3.8897e-07
3117.1, 4.1071e-07
3119.1, 4.6988e-07
3121.1, 4.2094e-07
3123.1, 4.1109e-07
3125.1, 4.5178e-07
3127.1, 4.3102e-07
3129.1, 4.4343e-07
3131.1, 4.2536e-07
3133.1, 4.3523e-07
3135.1, 3.9433e-07
3137.1, 4.4234e-07
3139.1, 4.3519e-07
3141.1, 3.8467e-07
3143.1, 4.2984e-07
3145.1, 4.5933e-07
3147.1, 4.3002e-07
3149.1, 4.2079e-07
3151.1, 4.08e-07
3153.1, 4.2294e-07
3155.2, 4.3155e-07
3157.2, 4.3764e-07
3159.2, 4.3716e-07
3161.2, 4.3999e-07
3163.2, 4.4751e-07
3165.2, 4.3759e-07
3167.2, 4.6488e-07
3169.2, 4.4107e-07
3171.2, 4.0714e-07
3173.2, 4.2312e-07
3175.2, 4.8192e-07
3177.2, 5.1631e-07
3179.2, 4.34e-07
3181.2, 4.1717e-07
3183.2, 4.2194e-07
3185.2, 4.4735e-07
3187.2, 4.4537e-07
3189.2, 4.409e-07
3191.2, 4.5681e-07
3193.2, 4.5154e-07
3195.2, 4.7562e-07
3197.2, 4.0435e-07
3199.2, 4.7255e-07
3201.2, 4.4654e-07
3203.2, 4.5953e-07
3205.2, 3.8829e-07
3207.2, 4.4938e-07
3209.2, 4.4617e-07
3211.2, 4.3177e-07
3213.2, 4.2008e-07
3215.2, 4.7039e-07
3217.2, 4.0919e-07
3219.2, 4.8799e-07
3221.2, 4.4112e-07
3223.2, 4.7574e-07
3225.2, 4.4875e-07
3227.2, 4.4532e-07
3229.2, 4.1111e-07
3231.2, 4.3559e-07
3233.2, 4.453e-07
3235.2, 4.6301e-07
3237.2, 3.9883e-07
3239.2, 4.6118e-07
3241.2, 4.5384e-07
3243.2, 4.1044e-07
3245.2, 4.2604e-07
3247.2, 4.4609e-07
3249.2, 4.6012e-07
3251.2, 4.6294e-07
3253.2, 4.1486e-07
3255.3, 4.5543e-07
3257.3, 4.1967e-07
3259.3, 4.5749e-07
3261.3, 4.7962e-07
3263.3, 4.3324e-07
3265.3, 4.2604e-07
3267.3, 4.511e-07
3269.3, 4.3997e-07
3271.3, 4.9059e-07
3273.3, 4.6585e-07
3275.3, 4.3975e-07
3277.3, 4.5855e-07
3279.3, 4.2897e-07
3281.3, 4.3669e-07
3283.3, 4.0764e-07
3285.3, 4.2841e-07
3287.3, 4.9195e-07
3289.3, 4.4857e-07
3291.3, 4.4366e-07
3293.3, 4.2183e-07
3295.3, 4.6259e-07
3297.3, 4.7404e-07
3299.3, 4.6067e-07
3301.3, 4.6615e-07
3303.3, 4.3641e-07
3305.3, 4.5996e-07
3307.3, 5.0607e-07
3309.3, 4.4647e-07
3311.3, 4.5848e-07
3313.3, 4.5723e-07
3315.3, 4.0797e-07
3317.3, 4.6837e-07
3319.3, 4.2901e-07
3321.3, 4.5385e-07
3323.3, 4.4178e-07
3325.3, 4.6488e-07
3327.3, 4.425e-07
3329.3, 4.4211e-07
3331.3, 4.6013e-07
3333.3, 4.6149e-07
3335.3, 4.874e-07
3337.3, 4.5522e-07
3339.3, 4.3304e-07
3341.3, 4.4409e-07
3343.3, 4.3376e-07
3345.3, 4.4519e-07
3347.3, 4.5803e-07
3349.3, 4.48e-07
3351.3, 4.3466e-07
3353.3, 4.7617e-07
3355.4, 4.294e-07
3357.4, 4.4235e-07
3359.4, 4.4914e-07
3361.4, 4.4944e-07
3363.4, 4.7372e-07
3365.4, 4.5921e-07
3367.4, 4.5076e-07
3369.4, 5.0032e-07
3371.4, 4.6435e-07
3373.4, 4.363e-07
3375.4, 4.8428e-07
3377.4, 4.6319e-07
3379.4, 4.5785e-07
3381.4, 4.8389e-07
3383.4, 4.6342e-07
3385.4, 3.8874e-07
3387.4, 4.378e-07
3389.4, 4.8406e-07
3391.4, 4.7073e-07
3393.4, 4.1032e-07
3395.4, 4.4538e-07
3397.4, 4.1991e-07
3399.4, 4.5389e-07
3401.4, 4.6146e-07
3403.4, 4.2298e-07
3405.4, 4.5053e-07
3407.4, 4.7625e-07
3409.4, 4.3303e-07
3411.4, 3.9113e-07
3413.4, 4.8589e-07
3415.4, 4.7183e-07
3417.4, 4.5159e-07
3419.4, 4.7934e-07
3421.4, 4.6435e-07
3423.4, 4.6817e-07
3425.4, 4.2402e-07
3427.4, 4.5253e-07
3429.4, 4.2279e-07
3431.4, 4.2535e-07
3433.4, 4.185e-07
3435.4, 3.9832e-07
3437.4, 4.1755e-07
3439.4, 4.4947e-07
3441.4, 4.6317e-07
3443.4, 4.956e-07
3445.4, 4.607e-07
3447.4, 4.2075e-07
3449.4, 4.3731e-07
3451.4, 3.8028e-07
3453.4, 4.662e-07
3455.5, 4.7511e-07
3457.5, 4.7817e-07
3459.5, 4.71e-07
3461.5, 4.5664e-07
3463.5, 4.23e-07
3465.5, 4.3848e-07
3467.5, 4.1765e-07
3469.5, 4.5989e-07
3471.5, 5.1812e-07
3473.5, 4.7165e-07
3475.5, 4.765e-07
3477.5, 4.6413e-07
3479.5, 4.538e-07
3481.5, 4.5183e-07
3483.5, 4.5255e-07
3485.5, 4.479e-07
3487.5, 4.3029e-07
3489.5, 5.0056e-07
3491.5, 4.5345e-07
3493.5, 4.8559e-07
3495.5, 5.1668e-07
3497.5, 4.7669e-07
3499.5, 4.891e-07
3501.5, 4.3706e-07
3503.5, 4.2841e-07
3505.5, 5.2956e-07
3507.5, 4.803e-07
3509.5, 4.4747e-07
3511.5, 4.3516e-07
3513.5, 4.5851e-07
3515.5, 4.4231e-07
3517.5, 4.3676e-07
3519.5, 4.6815e-07
3521.5, 4.7445e-07
3523.5, 4.8405e-07
3525.5, 4.616e-07
3527.5, 4.25e-07
3529.5, 4.2905e-07
3531.5, 4.6619e-07
3533.5, 4.6337e-07
3535.5, 4.0129e-07
3537.5, 4.3074e-07
3539.5, 5.0169e-07
3541.5, 4.3349e-07
3543.5, 4.7196e-07
3545.5, 4.4922e-07
3547.5, 4.4986e-07
3549.5, 4.5759e-07
3551.5, 4.5717e-07
3553.5, 4.5991e-07
3555.6, 4.8513e-07
3557.6, 4.5134e-07
3559.6, 4.4151e-07
3561.6, 4.46e-07
3563.6, 4.7463e-07
3565.6, 4.2208e-07
3567.6, 4.6069e-07
3569.6, 4.531e-07
3571.6, 4.7117e-07
3573.6, 4.6925e-07
3575.6, 4.4453e-07
3577.6, 4.8668e-07
3579.6, 4.4903e-07
3581.6, 4.3622e-07
3583.6, 4.1214e-07
3585.6, 4.6659e-07
3587.6, 4.7688e-07
3589.6, 5.0586e-07
3591.6, 4.3471e-07
3593.6, 4.6996e-07
3595.6, 4.6981e-07
3597.6, 4.9297e-07
3599.6, 4.5903e-07
3601.6, 4.4488e-07
3603.6, 4.4863e-07
3605.6, 4.6446e-07
3607.6, 4.6716e-07
3609.6, 4.4688e-07
3611.6, 4.6234e-07
3613.6, 4.334e-07
3615.6, 5.3152e-07
3617.6, 4.7303e-07
3619.6, 4.4713e-07
3621.6, 4.252e-07
3623.6, 5.1249e-07
3625.6, 4.6881e-07
3627.6, 4.9439e-07
3629.6, 4.9528e-07
3631.6, 5.5262e-07
3633.6, 4.7952e-07
3635.6, 4.7149e-07
3637.6, 4.6088e-07
3639.6, 4.6393e-07
3641.6, 4.7065e-07
3643.6, 4.7635e-07
3645.6, 4.8435e-07
3647.6, 4.7391e-07
3649.6, 4.471e-07
3651.6, 4.8226e-07
3653.6, 4.9887e-07
3655.7, 4.5407e-07
3657.7, 4.6444e-07
3659.7, 4.6797e-07
3661.7, 5.2621e-07
3663.7, 4.2274e-07
3665.7, 5.0332e-07
3667.7, 4.9683e-07
3669.7, 5.056e-07
3671.7, 5.0428e-07
3673.7, 5.1252e-07
3675.7, 4.6655e-07
3677.7, 4.9004e-07
3679.7, 4.857e-07
3681.7, 4.3901e-07
3683.7, 4.7246e-07
3685.7, 4.5395e-07
3687.7, 4.8798e-07
3689.7, 4.3832e-07
3691.7, 4.2317e-07
3693.7, 5.0218e-07
3695.7, 5.0534e-07
3697.7, 4.7547e-07
3699.7, 4.7404e-07
3701.7, 4.8522e-07
3703.7, 4.3353e-07
3705.7, 4.61e-07
3707.7, 5.0129e-07
3709.7, 4.8248e-07
3711.7, 4.7069e-07
3713.7, 4.6551e-07
3715.7, 4.8375e-07
3717.7, 5.4843e-07
3719.7, 4.6384e-07
3721.7, 4.5701e-07
3723.7, 5.0086e-07
3725.7, 4.9703e-07
3727.7, 4.9227e-07
3729.7, 4.2338e-07
3731.7, 4.6281e-07
3733.7, 4.9155e-07
3735.7, 4.6793e-07
3737.7, 4.6416e-07
3739.7, 4.0777e-07
3741.7, 4.7797e-07
3743.7, 5.1471e-07
3745.7, 4.5192e-07
3747.7, 4.7183e-07
3749.7, 4.369e-07
3751.7, 4.9219e-07
3753.7, 4.924e-07
3755.8, 4.4353e-07
3757.8, 4.8007e-07
3759.8, 4.8762e-07
3761.8, 4.4222e-07
3763.8, 4.3158e-07
3765.8, 4.2446e-07
3767.8, 5.1734e-07
3769.8, 4.5016e-07
3771.8, 4.69e-07
3773.8, 4.718e-07
3775.8, 4.3113e-07
3777.8, 4.4456e-07
3779.8, 5.2677e-07
3781.8, 4.6531e-07
3783.8, 4.5383e-07
3785.8, 4.9729e-07
3787.8, 4.6655e-07
3789.8, 5.0465e-07
3791.8, 4.7637e-07
3793.8, 4.2841e-07
3795.8, 4.3695e-07
3797.8, 4.3149e-07
3799.8, 4.2781e-07
3801.8, 5.2211e-07
3803.8, 4.5009e-07
3805.8, 4.4095e-07
3807.8, 4.186e-07
3809.8, 5.0334e-07
3811.8, 4.8706e-07
3813.8, 4.3892e-07
3815.8, 4.6771e-07
3817.8, 4.7429e-07
3819.8, 5.011e-07
3821.8, 4.5844e-07
3823.8, 4.5071e-07
3825.8, 4.8996e-07
3827.8, 4.2311e-07
3829.8, 4.8217e-07
3831.8, 4.3431e-07
3833.8, 5.0406e-07
3835.8, 4.5335e-07
3837.8, 4.8727e-07
3839.8, 4.5304e-07
3841.8, 5.1107e-07
3843.8, 5.507e-07
3845.8, 5.1055e-07
3847.8, 4.4411e-07
3849.8, 5.0649e-07
3851.8, 4.6206e-07
3853.8, 4.8146e-07
3855.9, 4.9129e-07
3857.9, 4.8662e-07
3859.9, 4.4999e-07
3861.9, 4.9719e-07
3863.9, 4.3444e-07
3865.9, 4.6118e-07
3867.9, 4.573e-07
3869.9, 4.9747e-07
3871.9, 4.8185e-07
3873.9, 5.0403e-07
3875.9, 4.9653e-07
3877.9, 4.5199e-07
3879.9, 4.9194e-07
3881.9, 5.2036e-07
3883.9, 5.0092e-07
3885.9, 4.9944e-07
3887.9, 4.9356e-07
3889.9, 4.8506e-07
3891.9, 4.7343e-07
3893.9, 4.6493e-07
3895.9, 4.5053e-07
3897.9, 4.4669e-07
3899.9, 4.7233e-07
3901.9, 4.5882e-07
3903.9, 4.7258e-07
3905.9, 4.6683e-07
3907.9, 4.4468e-07
3909.9, 5.2358e-07
3911.9, 4.7971e-07
3913.9, 4.6906e-07
3915.9, 4.3171e-07
3917.9, 4.8474e-07
3919.9, 4.7842e-07
3921.9, 4.4536e-07
3923.9, 4.6977e-07
3925.9, 4.9513e-07
3927.9, 5.0595e-07
3929.9, 4.7101e-07
3931.9, 4.7927e-07
3933.9, 4.5875e-07
3935.9, 4.6234e-07
3937.9, 4.7055e-07
3939.9, 4.3756e-07
3941.9, 4.6501e-07
3943.9, 4.4519e-07
3945.9, 4.6997e-07
3947.9, 5.1269e-07
3949.9, 4.5813e-07
3951.9, 4.6043e-07
3953.9, 4.5257e-07
3956.0, 4.6401e-07
3958.0, 4.6779e-07
3960.0, 4.6986e-07
3962.0, 5.0012e-07
3964.0, 4.8656e-07
3966.0, 4.224e-07
3968.0, 4.5809e-07
3970.0, 4.3945e-07
3972.0, 4.5611e-07
3974.0, 4.5282e-07
3976.0, 4.7807e-07
3978.0, 4.8151e-07
3980.0, 4.3746e-07
3982.0, 4.5624e-07
3984.0, 4.1883e-07
3986.0, 4.8378e-07
3988.0, 4.526e-07
3990.0, 4.602e-07
3992.0, 4.4135e-07
3994.0, 4.7311e-07
3996.0, 4.83e-07
3998.0, 4.3997e-07
4000.0, 4.576e-07
4002.0, 4.7433e-07
4004.0, 3.9581e-07
4006.0, 4.9775e-07
4008.0, 4.5138e-07
4010.0, 4.4496e-07
4012.0, 4.6463e-07
4014.0, 4.7897e-07
4016.0, 4.7842e-07
4018.0, 4.5894e-07
4020.0, 4.2279e-07
4022.0, 4.5391e-07
4024.0, 4.9881e-07
4026.0, 4.6202e-07
4028.0, 4.7384e-07
4030.0, 5.2578e-07
4032.0, 4.7211e-07
4034.0, 4.4866e-07
4036.0, 4.5484e-07
4038.0, 4.9011e-07
4040.0, 5.0664e-07
4042.0, 4.6807e-07
4044.0, 4.6051e-07
4046.0, 4.3923e-07
4048.0, 4.5571e-07
4050.0, 4.3776e-07
4052.0, 4.8934e-07
4054.0, 4.453e-07
4056.1, 4.6451e-07
4058.1, 4.5585e-07
4060.1, 4.8831e-07
4062.1, 4.5646e-07
4064.1, 5.0231e-07
4066.1, 2.2808e-07
4068.1, -3.218e-08
4070.1, -3.677e-08
4072.1, -3.486e-08
4074.1, -3.683e-08
4076.1, -4.011e-08
4078.1, -3.776e-08
4080.1, -3.352e-08
4082.1, -3.565e-08
4084.1, -3.292e-08
4086.1, -3.573e-08
4088.1, -3.356e-08
4090.1, -3.165e-08
4092.1, -3.549e-08
4094.1, -3.447e-08
4096.1, -3.368e-08
4098.1, -3.532e-08
4100.1, -3.254e-08
4102.1, -3.303e-08
4104.1, -3.264e-08
4106.1, -3.427e-08
4108.1, -2.988e-08
4110.1, -2.996e-08
4112.1, -3.043e-08
4114.1, -3.765e-08
4116.1, -3.196e-08
4118.1, -3.606e-08
4120.1, -3.535e-08
4122.1, -3.447e-08
4124.1, -3.272e-08
4126.1, -3.69e-08
4128.1, -3.242e-08
4130.1, -3.099e-08
4132.1, -3.361e-08
4134.1, -3.777e-08
4136.1, -3.72e-08
4138.1, -3.322e-08
4140.1, -3.426e-08
4142.1, -3.462e-08
4144.1, -3.432e-08
4146.1, -3.37e-08
4148.1, -3.735e-08
4150.1, -3.797e-08
4152.1, -3.561e-08
4154.1, -3.691e-08
4156.2, -3.244e-08
4158.2, -3.543e-08
4160.2, -3.401e-08
4162.2, -3.764e-08
4164.2, -3.339e-08
4166.2, -3.208e-08
4168.2, -3.324e-08
4170.2, -3.306e-08
4172.2, -3.388e-08
4174.2, -3.627e-08
4176.2, -3.694e-08
4178.2, -3.652e-08
4180.2, -3.978e-08
4182.2, -3.752e-08
4184.2, -4.162e-08
4186.2, -4.03e-08
4188.2, -4.101e-08
4190.2, -3.896e-08
4192.2, -3.847e-08
4194.2, -4.152e-08
4196.2, -3.971e-08
4198.2, -3.925e-08
4200.2, -3.746e-08
4202.2, -3.92e-08
4204.2, -4.273e-08
4206.2, -4.215e-08
4208.2, -4.1e-08
4210.2, -3.793e-08
4212.2, -4.216e-08
4214.2, -4.043e-08
4216.2, -4.071e-08
4218.2, -4.269e-08
4220.2, -4.282e-08
4222.2, -4.308e-08
4224.2, -3.877e-08
4226.2, -4.002e-08
4228.2, -3.608e-08
4230.2, -3.574e-08
4232.2, -3.922e-08
4234.2, -3.598e-08
4236.2, -3.473e-08
4238.2, -3.576e-08
4240.2, -3.685e-08
4242.2, -3.93e-08
4244.2, -3.775e-08
4246.2, -3.88e-08
4248.2, -3.929e-08
4250.2, -3.283e-08
4252.2, -3.713e-08
4254.2, -3.818e-08
4256.3, -3.873e-08
4258.3, -3.525e-08
4260.3, -3.716e-08
4262.3, -3.755e-08
4264.3, -3.721e-08
4266.3, -3.304e-08
4268.3, -3.254e-08
4270.3, -3.609e-08
4272.3, -3.246e-08
4274.3, -3.651e-08
4276.3, -3.501e-08
4278.3, -3.392e-08
4280.3, -3.651e-08
4282.3, -3.608e-08
4284.3, -3.814e-08
4286.3, -3.766e-08
4288.3, -3.924e-08
4290.3, -3.488e-08
4292.3, -3.488e-08
4294.3, -3.66e-08
4296.3, -3.802e-08
4298.3, -3.353e-08
4300.3, -3.437e-08
4302.3, -3.815e-08
4304.3, -3.583e-08
4306.3, -3.695e-08
4308.3, -4.111e-08
4310.3, -4.105e-08
4312.3, -3.735e-08
4314.3, -3.93e-08
4316.3, -3.692e-08
4318.3, -4.072e-08
4320.3, -3.981e-08
4322.3, -3.861e-08
4324.3, -4.339e-08
4326.3, -4.106e-08
4328.3, -4.217e-08
4330.3, -4.236e-08
4332.3, -3.609e-08
4334.3, -4.173e-08
4336.3, -4.106e-08
4338.3, -3.947e-08
4340.3, -3.937e-08
4342.3, -3.987e-08
4344.3, -3.829e-08
4346.3, -3.919e-08
4348.3, -3.932e-08
4350.3, -4.063e-08
4352.3, -3.528e-08
4354.3, -3.608e-08
4356.4, -3.88e-08
4358.4, -4.054e-08
4360.4, -3.888e-08
4362.4, -3.879e-08
4364.4, -3.82e-08
4366.4, -4.032e-08
4368.4, -3.646e-08
4370.4, -3.56e-08
4372.4, -3.733e-08
4374.4, -3.973e-08
4376.4, -3.851e-08
4378.4, -3.758e-08
4380.4, -3.666e-08
4382.4, -3.954e-08
4384.4, -3.784e-08
4386.4, -3.837e-08
4388.4, -3.924e-08
4390.4, -3.491e-08
4392.4, -3.766e-08
4394.4, -3.978e-08
4396.4, -3.574e-08
4398.4, -3.446e-08
4400.4, -3.592e-08
4402.4, -3.845e-08
4404.4, -3.825e-08
4406.4, -3.773e-08
4408.4, -3.35e-08
4410.4, -3.532e-08
4412.4, -3.835e-08
4414.4, -3.773e-08
4416.4, -3.898e-08
4418.4, -3.603e-08
4420.4, -3.663e-08
4422.4, -3.676e-08
4424.4, -3.628e-08
4426.4, -3.566e-08
4428.4, -4.087e-08
4430.4, -3.788e-08
4432.4, -3.506e-08
4434.4, -3.713e-08
4436.4, -3.775e-08
4438.4, -3.615e-08
4440.4, -3.625e-08
4442.4, -3.321e-08
4444.4, -3.273e-08
4446.4, -3.487e-08
4448.4, -2.979e-08
4450.4, -3.217e-08
4452.4, -3.253e-08
4454.4, -3.345e-08
4456.5, -3.207e-08
4458.5, -3.691e-08
4460.5, -3.33e-08
4462.5, -3.557e-08
4464.5, -3.688e-08
4466.5, -3.818e-08
4468.5, -3.486e-08
4470.5, -3.317e-08
4472.5, -3.5e-08
4474.5, -3.339e-08
4476.5, -2.992e-08
4478.5, -3.429e-08
4480.5, -3.348e-08
4482.5, -3.169e-08
4484.5, -3.197e-08
4486.5, -3.332e-08
4488.5, -3.412e-08
4490.5, -3.194e-08
4492.5, -3.063e-08
4494.5, -3.427e-08
4496.5, -3.329e-08
4498.5, -3.189e-08
4500.5, -3.394e-08
4502.5, -3.488e-08
4504.5, -3.445e-08
4506.5, -3.406e-08
4508.5, -3.545e-08
4510.5, -3.709e-08
4512.5, -3.734e-08
4514.5, -3.574e-08
4516.5, -3.973e-08
4518.5, -3.518e-08
4520.5, -3.935e-08
4522.5, -3.873e-08
4524.5, -3.448e-08
4526.5, -3.525e-08
4528.5, -3.552e-08
4530.5, -3.768e-08
4532.5, -3.574e-08
4534.5, -3.612e-08
4536.5, -3.286e-08
4538.5, -3.388e-08
4540.5, -3.562e-08
4542.5, -3.282e-08
4544.5, -3.363e-08
4546.5, -3.03e-08
4548.5, -3.049e-08
4550.5, -2.918e-08
4552.5, -3.322e-08
4554.5, -3.128e-08
4556.6, -3.6e-08
4558.6, -3.506e-08
4560.6, -3.616e-08
4562.6, -3.39e-08
4564.6, -3.254e-08
4566.6, -3.469e-08
4568.6, -3.705e-08
4570.6, -3.927e-08
4572.6, -3.492e-08
4574.6, -3.567e-08
4576.6, -3.453e-08
4578.6, -3.72e-08
4580.6, -3.602e-08
4582.6, -3.531e-08
4584.6, -3.437e-08
4586.6, -3.459e-08
4588.6, -3.471e-08
4590.6, -3.56e-08
4592.6, -3.432e-08
4594.6, -3.493e-08
4596.6, -3.324e-08
4598.6, -3.495e-08
4600.6, -3.095e-08
4602.6, -3.355e-08
4604.6, -3.163e-08
4606.6, -3.402e-08
4608.6, -3.547e-08
4610.6, -3.699e-08
4612.6, -3.449e-08
4614.6, -3.235e-08
4616.6, -3.444e-08
4618.6, -4.049e-08
4620.6, -3.323e-08
4622.6, -3.458e-08
4624.6, -3.79e-08
4626.6, -3.684e-08
4628.6, -3.768e-08
4630.6, -3.254e-08
4632.6, -3.447e-08
4634.6, -3.802e-08
4636.6, -3.534e-08
4638.6, -3.704e-08
4640.6, -3.434e-08
4642.6, -3.092e-08
4644.6, -3.907e-08
4646.6, -3.58e-08
4648.6, -3.649e-08
4650.6, -3.641e-08
4652.6, -3.905e-08
4654.6, -3.86e-08
4656.7, -3.715e-08
4658.7, -3.651e-08
4660.7, -3.443e-08
4662.7, -3.483e-08
4664.7, -3.814e-08
4666.7, -3.484e-08
4668.7, -3.452e-08
4670.7, -3.37e-08
4672.7, -3.705e-08
4674.7, -3.679e-08
4676.7, -3.295e-08
4678.7, -3.383e-08
4680.7, -3.824e-08
4682.7, -3.678e-08
4684.7, -3.699e-08
4686.7, -3.842e-08
4688.7, -3.289e-08
4690.7, -3.568e-08
4692.7, -3.462e-08
4694.7, -3.482e-08
4696.7, -3.445e-08
4698.7, -4.112e-08
4700.7, -4.038e-08
4702.7, -4.047e-08
4704.7, -3.663e-08
4706.7, -3.836e-08
4708.7, -3.689e-08
4710.7, -3.443e-08
4712.7, -3.992e-08
4714.7, -3.965e-08
4716.7, -3.507e-08
4718.7, -3.744e-08
4720.7, -3.751e-08
4722.7, -3.993e-08
4724.7, -3.611e-08
4726.7, -3.556e-08
4728.7, -3.768e-08
4730.7, -3.824e-08
4732.7, -3.788e-08
4734.7, -3.844e-08
4736.7, -3.348e-08
4738.7, -3.929e-08
4740.7, -3.524e-08
4742.7, -3.78e-08
4744.7, -3.684e-08
4746.7, -3.514e-08
4748.7, -3.54e-08
4750.7, -3.605e-08
4752.7, -3.459e-08
4754.7, -3.256e-08
4756.8, -3.422e-08
4758.8, -3.404e-08
4760.8, -3.595e-08
4762.8, -3.41e-08
4764.8, -3.66e-08
4766.8, -3.401e-08
4768.8, -3.398e-08
4770.8, -3.515e-08
4772.8, -3.644e-08
4774.8, -3.706e-08
4776.8, -3.58e-08
4778.8, -3.647e-08
4780.8, -3.518e-08
4782.8, -3.835e-08
4784.8, -4.193e-08
4786.8, -3.515e-08
4788.8, -3.398e-08
4790.8, -3.718e-08
4792.8, -3.696e-08
4794.8, -3.932e-08
4796.8, -3.625e-08
4798.8, -3.743e-08
4800.8, -3.572e-08
4802.8, -3.899e-08
4804.8, -4.059e-08
4806.8, -3.952e-08
4808.8, -3.747e-08
4810.8, -3.717e-08
4812.8, -3.668e-08
4814.8, -3.75e-08
4816.8, -3.799e-08
4818.8, -4.021e-08
4820.8, -3.84e-08
4822.8, -3.695e-08
4824.8, -3.506e-08
4826.8, -3.561e-08
4828.8, -3.516e-08
4830.8, -3.539e-08
4832.8, -3.754e-08
4834.8, -3.92e-08
4836.8, -3.834e-08
4838.8, -3.528e-08
4840.8, -3.476e-08
4842.8, -3.328e-08
4844.8, -3.856e-08
4846.8, -3.58e-08
4848.8, -3.789e-08
4850.8, -4.065e-08
4852.8, -3.676e-08
4854.8, -3.506e-08
4856.9, -3.666e-08
4858.9, -3.596e-08
4860.9, -3.551e-08
4862.9, -3.556e-08
4864.9, -3.863e-08
4866.9, -3.513e-08
4868.9, -3.585e-08
4870.9, -3.637e-08
4872.9, -3.612e-08
4874.9, -3.97e-08
4876.9, -3.787e-08
4878.9, -3.681e-08
4880.9, -3.675e-08
4882.9, -3.689e-08
4884.9, -3.371e-08
4886.9, -3.495e-08
4888.9, -3.536e-08
4890.9, -3.654e-08
4892.9, -4.077e-08
4894.9, -3.862e-08
4896.9, -3.705e-08
4898.9, -3.779e-08
4900.9, -3.59e-08
4902.9, -3.067e-08
4904.9, -3.337e-08
4906.9, -3.319e-08
4908.9, -3.45e-08
4910.9, -3.386e-08
4912.9, -3.33e-08
4914.9, -3.577e-08
4916.9, -3.77e-08
4918.9, -3.672e-08
4920.9, -3.75e-08
4922.9, -3.805e-08
4924.9, -3.683e-08
4926.9, -3.777e-08
4928.9, -3.411e-08
4930.9, -3.592e-08
4932.9, -3.552e-08
4934.9, -4.08e-08
4936.9, -3.513e-08
4938.9, -3.576e-08
4940.9, -3.507e-08
4942.9, -3.686e-08
4944.9, -3.857e-08
4946.9, -3.998e-08
4948.9, -4.113e-08
4950.9, -3.587e-08
4952.9, -3.856e-08
4954.9, -3.675e-08
4957.0, -3.34e-08
4959.0, -3.746e-08
4961.0, -3.54e-08
4963.0, -3.857e-08
4965.0, -3.817e-08
4967.0, -4.037e-08
4969.0, -3.645e-08
4971.0, -4.453e-08
4973.0, -4.023e-08
4975.0, -3.752e-08
4977.0, -3.731e-08
4979.0, -3.682e-08
4981.0, -3.497e-08
4983.0, -3.507e-08
4985.0, -3.953e-08
4987.0, -3.602e-08
4989.0, -3.396e-08
4991.0, -3.575e-08
4993.0, -3.43e-08
4995.0, -3.479e-08
4997.0, -3.474e-08
4999.0, -3.142e-08
5001.0, -3.326e-08
5003.0, -3.42e-08
5005.0, -3.468e-08
5007.0, -3.334e-08
5009.0, -3.426e-08
5011.0, -3.224e-08
5013.0, -3.131e-08
5015.0, -3.333e-08
5017.0, -3.722e-08
5019.0, -3.523e-08
5021.0, -3.441e-08
5023.0, -3.643e-08
5025.0, -3.428e-08
5027.0, -3.362e-08
5029.0, -3.58e-08
5031.0, -3.55e-08
5033.0, -3.727e-08
5035.0, -3.464e-08
5037.0, -3.56e-08
5039.0, -3.244e-08
5041.0, -3.436e-08
5043.0, -3.145e-08
5045.0, -3.434e-08
5047.0, -3.41e-08
5049.0, -3.542e-08
5051.0, -3.482e-08
5053.0, -3.434e-08
5055.0, -3.303e-08
5057.1, -3.784e-08
5059.1, -3.17e-08
5061.1, -3.489e-08
5063.1, -3.7e-08
5065.1, -3.588e-08
5067.1, -3.607e-08
5069.1, -3.674e-08
5071.1, -3.802e-08
5073.1, -3.831e-08
5075.1, -4.001e-08
5077.1, -3.808e-08
5079.1, -4.086e-08
5081.1, -4.117e-08
5083.1, -4.092e-08
5085.1, -3.838e-08
5087.1, -3.835e-08
5089.1, -3.632e-08
5091.1, -3.978e-08
5093.1, -3.934e-08
5095.1, -3.781e-08
5097.1, -3.492e-08
5099.1, -3.497e-08
5101.1, -3.43e-08
5103.1, -3.46e-08
5105.1, -3.919e-08
5107.1, -3.725e-08
5109.1, -3.541e-08
5111.1, -3.744e-08
5113.1, -3.772e-08
5115.1, -3.31e-08
5117.1, -3.66e-08
5119.1, -3.704e-08
5121.1, 2.1185e-07
5123.1, 3.8511e-07
5125.1, 3.945e-07
5127.1, 4.3255e-07
5129.1, 4.1715e-07
5131.1, 3.8729e-07
5133.1, 3.8734e-07
5135.1, 3.9156e-07
5137.1, 3.8037e-07
5139.1, 3.7456e-07
5141.1, 4.3546e-07
5143.1, 4.0445e-07
5145.1, 4.886e-07
5147.1, 4.5033e-07
5149.1, 4.2261e-07
5151.1, 4.249e-07
5153.1, 4.4393e-07
5155.1, 4.966e-07
5157.2, 4.2598e-07
5159.2, 4.2843e-07
5161.2, 3.9208e-07
5163.2, 4.0633e-07
5165.2, 4.2519e-07
5167.2, 4.3765e-07
5169.2, 4.097e-07
5171.2, 4.4044e-07
5173.2, 4.286e-07
5175.2, 4.4642e-07
5177.2, 4.3217e-07
5179.2, 4.3471e-07
5181.2, 4.3831e-07
5183.2, 4.639e-07
5185.2, 4.921e-07
5187.2, 4.4606e-07
5189.2, 4.4566e-07
5191.2, 3.8494e-07
5193.2, 4.3315e-07
5195.2, 4.3105e-07
5197.2, 4.3166e-07
5199.2, 4.4682e-07
5201.2, 4.254e-07
5203.2, 4.6398e-07
5205.2, 4.1659e-07
5207.2, 4.3995e-07
5209.2, 4.1778e-07
5211.2, 4.493e-07
5213.2, 4.5076e-07
5215.2, 4.3201e-07
5217.2, 4.1303e-07
5219.2, 4.251e-07
5221.2, 3.9977e-07
5223.2, 4.1591e-07
5225.2, 4.5982e-07
5227.2, 4.0999e-07
5229.2, 4.5451e-07
5231.2, 4.4339e-07
5233.2, 4.8244e-07
5235.2, 4.161e-07
5237.2, 4.5858e-07
5239.2, 4.2073e-07
5241.2, 4.1437e-07
5243.2, 4.1222e-07
5245.2, 4.586e-07
5247.2, 4.2553e-07
5249.2, 4.0891e-07
5251.2, 4.607e-07
5253.2, 4.0554e-07
5255.2, 4.372e-07
5257.3, 4.4641e-07
5259.3, 4.8109e-07
5261.3, 4.7913e-07
5263.3, 4.8586e-07
5265.3, 4.8786e-07
5267.3, 4.402e-07
5269.3, 4.3774e-07
5271.3, 3.9526e-07
5273.3, 4.5455e-07
5275.3, 4.4127e-07
5277.3, 4.0785e-07
5279.3, 4.4059e-07
5281.3, 4.559e-07
5283.3, 4.3164e-07
5285.3, 4.5483e-07
5287.3, 4.3645e-07
5289.3, 4.2973e-07
5291.3, 4.6163e-07
5293.3, 4.3334e-07
5295.3, 4.3406e-07
5297.3, 4.7203e-07
5299.3, 4.5411e-07
5301.3, 4.3422e-07
5303.3, 4.8014e-07
5305.3, 4.5532e-07
5307.3, 4.2407e-07
5309.3, 4.3026e-07
5311.3, 4.5313e-07
5313.3, 4.5983e-07
5315.3, 4.4278e-07
5317.3, 4.2991e-07
5319.3, 4.6835e-07
5321.3, 4.2177e-07
5323.3, 4.418e-07
5325.3, 4.4675e-07
5327.3, 4.4782e-07
5329.3, 4.349e-07
5331.3, 4.3892e-07
5333.3, 4.2468e-07
5335.3, 4.0507e-07
5337.3, 4.5685e-07
5339.3, 4.518e-07
5341.3, 4.8421e-07
5343.3, 4.6272e-07
5345.3, 4.157e-07
5347.3, 4.2517e-07
5349.3, 4.3947e-07
5351.3, 4.8795e-07
5353.3, 4.4913e-07
5355.3, 4.3827e-07
5357.4, 4.4641e-07
5359.4, 4.4405e-07
5361.4, 4.2746e-07
5363.4, 4.2721e-07
5365.4, 4.3745e-07
5367.4, 4.3905e-07
5369.4, 4.5273e-07
5371.4, 4.0284e-07
5373.4, 4.9843e-07
5375.4, 4.5909e-07
5377.4, 4.098e-07
5379.4, 4.5022e-07
5381.4, 4.2326e-07
5383.4, 4.908e-07
5385.4, 4.5908e-07
5387.4, 4.7072e-07
5389.4, 4.5105e-07
5391.4, 4.3697e-07
5393.4, 4.9169e-07
5395.4, 4.2663e-07
5397.4, 5.0656e-07
5399.4, 4.456e-07
5401.4, 4.86e-07
5403.4, 4.2475e-07
5405.4, 4.3303e-07
5407.4, 4.6509e-07
5409.4, 4.499e-07
5411.4, 4.5238e-07
5413.4, 4.645e-07
5415.4, 4.9384e-07
5417.4, 4.5815e-07
5419.4, 4.5256e-07
5421.4, 5.2902e-07
5423.4, 4.9996e-07
5425.4, 4.5654e-07
5427.4, 4.158e-07
5429.4, 4.5007e-07
5431.4, 4.0521e-07
5433.4, 4.3958e-07
5435.4, 4.5519e-07
5437.4, 4.8232e-07
5439.4, 4.7796e-07
5441.4, 4.6024e-07
5443.4, 4.4508e-07
5445.4, 4.469e-07
5447.4, 4.9835e-07
5449.4, 4.7441e-07
5451.4, 4.474e-07
5453.4, 4.6058e-07
5455.4, 4.8258e-07
5457.5, 4.9077e-07
5459.5, 4.5499e-07
5461.5, 4.5205e-07
5463.5, 4.4646e-07
5465.5, 4.5139e-07
5467.5, 4.7462e-07
5469.5, 4.613e-07
5471.5, 5.0014e-07
5473.5, 4.2572e-07
5475.5, 4.4253e-07
5477.5, 4.5925e-07
5479.5, 4.5885e-07
5481.5, 4.3154e-07
5483.5, 4.4741e-07
5485.5, 4.9596e-07
5487.5, 4.794e-07
5489.5, 4.2329e-07
5491.5, 4.3584e-07
5493.5, 4.671e-07
5495.5, 4.4343e-07
5497.5, 4.4206e-07
5499.5, 4.8369e-07
5501.5, 4.9395e-07
5503.5, 4.9037e-07
5505.5, 4.4753e-07
5507.5, 4.3238e-07
5509.5, 4.6177e-07
5511.5, 4.8635e-07
5513.5, 4.0317e-07
5515.5, 4.5791e-07
5517.5, 4.257e-07
5519.5, 4.218e-07
5521.5, 4.3634e-07
5523.5, 4.523e-07
5525.5, 4.0839e-07
5527.5, 4.5086e-07
5529.5, 4.7706e-07
5531.5, 4.4033e-07
5533.5, 4.7399e-07
5535.5, 4.7918e-07
5537.5, 4.6408e-07
5539.5, 4.4776e-07
5541.5, 4.6169e-07
5543.5, 4.8768e-07
5545.5, 4.6363e-07
5547.5, 4.2687e-07
5549.5, 5.1949e-07
5551.5, 4.6941e-07
5553.5, 4.9341e-07
5555.5, 4.8842e-07
5557.6, 4.556e-07
5559.6, 4.7143e-07
5561.6, 4.8848e-07
5563.6, 4.9535e-07
5565.6, 4.7817e-07
5567.6, 4.6939e-07
5569.6, 4.4153e-07
5571.6, 4.6316e-07
5573.6, 4.6772e-07
5575.6, 4.7665e-07
5577.6, 4.738e-07
5579.6, 4.85e-07
5581.6, 4.7983e-07
5583.6, 4.7619e-07
5585.6, 4.5565e-07
5587.6, 4.2469e-07
5589.6, 4.3179e-07
5591.6, 4.5767e-07
5593.6, 4.451e-07
5595.6, 4.7548e-07
5597.6, 4.5514e-07
5599.6, 4.3705e-07
5601.6, 4.5917e-07
5603.6, 4.995e-07
5605.6, 4.4474e-07
5607.6, 4.7303e-07
5609.6, 5.1026e-07
5611.6, 4.7106e-07
5613.6, 4.7402e-07
5615.6, 5.0111e-07
5617.6, 4.8057e-07
5619.6, 4.9688e-07
5621.6, 5.1704e-07
5623.6, 4.2038e-07
5625.6, 4.4963e-07
5627.6, 4.6208e-07
5629.6, 4.338e-07
5631.6, 4.5762e-07
5633.6, 4.8298e-07
5635.6, 4.4779e-07
5637.6, 4.6505e-07
5639.6, 4.5269e-07
5641.6, 4.8168e-07
5643.6, 4.0696e-07
5645.6, 4.6632e-07
5647.6, 4.6342e-07
5649.6, 4.6971e-07
5651.6, 4.748e-07
5653.6, 4.5141e-07
5655.6, 5.0181e-07
5657.7, 4.5896e-07
5659.7, 4.277e-07
5661.7, 4.2986e-07
5663.7, 4.8703e-07
5665.7, 4.3417e-07
5667.7, 3.9139e-07
5669.7, 4.374e-07
5671.7, 4.7391e-07
5673.7, 4.7127e-07
5675.7, 4.5272e-07
5677.7, 4.5926e-07
5679.7, 4.5507e-07
5681.7, 4.226e-07
5683.7, 4.5366e-07
5685.7, 4.9517e-07
5687.7, 4.7909e-07
5689.7, 4.8802e-07
5691.7, 3.9785e-07
5693.7, 4.5082e-07
5695.7, 4.7774e-07
5697.7, 4.8018e-07
5699.7, 4.3671e-07
5701.7, 4.5618e-07
5703.7, 4.5213e-07
5705.7, 4.8308e-07
5707.7, 4.7307e-07
5709.7, 4.868e-07
5711.7, 4.7611e-07
5713.7, 4.6168e-07
5715.7, 5.3989e-07
5717.7, 4.7764e-07
5719.7, 5.2089e-07
5721.7, 5.1172e-07
5723.7, 4.2535e-07
5725.7, 4.5861e-07
5727.7, 4.7071e-07
5729.7, 4.7971e-07
5731.7, 4.5229e-07
5733.7, 4.3393e-07
5735.7, 4.6662e-07
5737.7, 4.7351e-07
5739.7, 4.9054e-07
5741.7, 4.4635e-07
5743.7, 4.6413e-07
5745.7, 4.4132e-07
5747.7, 4.551e-07
5749.7, 4.5197e-07
5751.7, 5.2398e-07
5753.7, 4.6061e-07
5755.7, 4.6091e-07
5757.8, 4.447e-07
5759.8, 4.4724e-07
5761.8, 4.8608e-07
5763.8, 4.4866e-07
5765.8, 4.7887e-07
5767.8, 4.598e-07
5769.8, 4.76e-07
5771.8, 4.8539e-07
5773.8, 4.6419e-07
5775.8, 4.1209e-07
5777.8, 4.7586e-07
5779.8, 4.8687e-07
5781.8, 4.5462e-07
5783.8, 4.4338e-07
5785.8, 4.5091e-07
5787.8, 4.4157e-07
5789.8, 4.3334e-07
5791.8, 4.5736e-07
5793.8, 4.3015e-07
5795.8, 4.7421e-07
5797.8, 4.6431e-07
5799.8, 4.5096e-07
5801.8, 4.2763e-07
5803.8, 4.9954e-07
5805.8, 4.5194e-07
5807.8, 4.7241e-07
5809.8, 4.5617e-07
5811.8, 4.6005e-07
5813.8, 4.6414e-07
5815.8, 4.7994e-07
5817.8, 4.487e-07
5819.8, 4.7504e-07
5821.8, 4.6269e-07
5823.8, 4.5566e-07
5825.8, 4.3143e-07
5827.8, 4.7938e-07
5829.8, 4.1334e-07
5831.8, 4.6049e-07
5833.8, 4.755e-07
5835.8, 4.5732e-07
5837.8, 4.4237e-07
5839.8, 4.5099e-07
5841.8, 4.6554e-07
5843.8, 4.4277e-07
5845.8, 4.2185e-07
5847.8, 4.8631e-07
5849.8, 4.6208e-07
5851.8, 4.2741e-07
5853.8, 4.6312e-07
5855.8, 4.923e-07
5857.9, 4.2631e-07
5859.9, 4.4081e-07
5861.9, 4.716e-07
5863.9, 4.6849e-07
5865.9, 4.437e-07
5867.9, 4.3097e-07
5869.9, 4.2632e-07
5871.9, 4.1697e-07
5873.9, 4.864e-07
5875.9, 4.3292e-07
5877.9, 4.3773e-07
5879.9, 4.3441e-07
5881.9, 4.3248e-07
5883.9, 4.543e-07
5885.9, 4.6309e-07
5887.9, 4.3093e-07
5889.9, 4.3326e-07
5891.9, 4.3551e-07
5893.9, 4.3592e-07
5895.9, 4.784e-07
5897.9, 4.4068e-07
5899.9, 4.733e-07
5901.9, 4.3446e-07
5903.9, 4.9277e-07
5905.9, 4.4278e-07
5907.9, 4.8291e-07
5909.9, 5.3752e-07
5911.9, 4.333e-07
5913.9, 4.5771e-07
5915.9, 4.8594e-07
5917.9, 4.692e-07
5919.9, 4.2109e-07
5921.9, 4.1211e-07
5923.9, 5.0084e-07
5925.9, 4.6857e-07
5927.9, 4.4029e-07
5929.9, 4.9492e-07
5931.9, 4.7287e-07
5933.9, 4.5096e-07
5935.9, 4.5164e-07
5937.9, 4.7455e-07
5939.9, 4.6327e-07
5941.9, 4.2844e-07
5943.9, 4.5867e-07
5945.9, 4.7493e-07
5947.9, 4.4471e-07
5949.9, 4.7635e-07
5951.9, 4.7569e-07
5953.9, 4.7142e-07
5955.9, 4.8493e-07
5958.0, 4.8071e-07
5960.0, 4.3783e-07
5962.0, 4.7531e-07
5964.0, 4.9453e-07
5966.0, 4.2538e-07
5968.0, 4.3457e-07
5970.0, 4.4959e-07
5972.0, 5.0597e-07
5974.0, 4.8913e-07
5976.0, 4.9084e-07
5978.0, 4.2393e-07
5980.0, 4.8993e-07
5982.0, 5.1737e-07
5984.0, 4.987e-07
5986.0, 4.6171e-07
5988.0, 4.656e-07
5990.0, 4.3231e-07
5992.0, 4.3409e-07
5994.0, 4.7111e-07
5996.0, 5.1215e-07
5998.0, 4.7684e-07
6000.0, 4.7357e-07
6002.0, 4.7941e-07
6004.0, 4.8951e-07
6006.0, 4.6457e-07
6008.0, 4.5342e-07
6010.0, 4.6902e-07
6012.0, 4.6275e-07
6014.0, 4.8341e-07
6016.0, 4.6019e-07
6018.0, 4.738e-07
6020.0, 4.9182e-07
6022.0, 4.627e-07
6024.0, 4.7651e-07
6026.0, 4.8402e-07
6028.0, 4.5785e-07
6030.0, 4.9107e-07
6032.0, 5.0685e-07
6034.0, 4.4037e-07
6036.0, 5.059e-07
6038.0, 5.2986e-07
6040.0, 4.9132e-07
6042.0, 4.7714e-07
6044.0, 4.4432e-07
6046.0, 4.7189e-07
6048.0, 4.3366e-07
6050.0, 4.7867e-07
6052.0, 4.7955e-07
6054.0, 4.8045e-07
6056.0, 4.5222e-07
6058.1, 4.4105e-07
6060.1, 4.8723e-07
6062.1, 4.4021e-07
6064.1, 4.6744e-07
6066.1, 4.3114e-07
6068.1, 4.6494e-07
6070.1, 4.4655e-07
6072.1, 4.4533e-07
6074.1, 4.6124e-07
6076.1, 4.5388e-07
6078.1, 4.9386e-07
6080.1, 4.2641e-07
6082.1, 4.52e-07
6084.1, 4.4984e-07
6086.1, 4.3746e-07
6088.1, 4.3738e-07
6090.1, 4.5931e-07
6092.1, 4.0978e-07
6094.1, 4.8147e-07
6096.1, 4.6376e-07
6098.1, 4.2686e-07
6100.1, 4.7554e-07
6102.1, 4.4464e-07
6104.1, 4.4623e-07
6106.1, 4.6633e-07
6108.1, 4.8012e-07
6110.1, 4.6875e-07
6112.1, 4.5903e-07
6114.1, 4.7162e-07
6116.1, 4.6051e-07
6118.1, 4.7978e-07
6120.1, 4.677e-07
6122.1, 2.1586e-07
6124.1, -3.771e-08
6126.1, -3.686e-08
6128.1, -3.907e-08
6130.1, -3.768e-08
6132.1, -3.774e-08
6134.1, -3.947e-08
6136.1, -4.094e-08
6138.1, -4.073e-08
6140.1, -3.869e-08
6142.1, -3.906e-08
6144.1, -4.145e-08
6146.1, -4.154e-08
6148.1, -3.667e-08
6150.1, -3.901e-08
6152.1, -4.369e-08
6154.1, -4.219e-08
6156.1, -4.121e-08
6158.2, -4.003e-08
6160.2, -4.066e-08
6162.2, -3.974e-08
6164.2, -4.014e-08
6166.2, -3.812e-08
6168.2, -3.612e-08
6170.2, -3.907e-08
6172.2, -3.963e-08
6174.2, -4.302e-08
6176.2, -4.011e-08
6178.2, -3.865e-08
6180.2, -3.775e-08
6182.2, -3.87e-08
6184.2, -4.217e-08
6186.2, -3.961e-08
6188.2, -3.788e-08
6190.2, -3.47e-08
6192.2, -3.396e-08
6194.2, -3.831e-08
6196.2, -3.848e-08
6198.2, -3.613e-08
6200.2, -3.767e-08
6202.2, -3.62e-08
6204.2, -3.716e-08
6206.2, -3.793e-08
6208.2, -3.885e-08
6210.2, -3.657e-08
6212.2, -3.726e-08
6214.2, -3.937e-08
6216.2, -3.95e-08
6218.2, -4.075e-08
6220.2, -3.904e-08
6222.2, -3.808e-08
6224.2, -3.858e-08
6226.2, -3.721e-08
6228.2, -4.098e-08
6230.2, -4.016e-08
6232.2, -4.075e-08
6234.2, -4.077e-08
6236.2, -4.226e-08
6238.2, -4.469e-08
6240.2, -4.173e-08
6242.2, -4.261e-08
6244.2, -3.988e-08
6246.2, -3.586e-08
6248.2, -3.996e-08
6250.2, -4.007e-08
6252.2, -3.66e-08
6254.2, -3.606e-08
6256.2, -3.546e-08
6258.3, -3.397e-08
6260.3, -3.411e-08
6262.3, -3.598e-08
6264.3, -3.363e-08
6266.3, -3.786e-08
6268.3, -3.221e-08
6270.3, -3.383e-08
6272.3, -3.555e-08
6274.3, -3.385e-08
6276.3, -3.686e-08
6278.3, -3.394e-08
6280.3, -3.505e-08
6282.3, -3.545e-08
6284.3, -4.061e-08
6286.3, -3.885e-08
6288.3, -4.141e-08
6290.3, -3.806e-08
6292.3, -3.515e-08
6294.3, -3.901e-08
6296.3, -3.692e-08
6298.3, -4.033e-08
6300.3, -3.755e-08
6302.3, -3.718e-08
6304.3, -4.224e-08
6306.3, -3.89e-08
6308.3, -3.465e-08
6310.3, -4.033e-08
6312.3, -3.784e-08
6314.3, -3.571e-08
6316.3, -3.838e-08
6318.3, -4.01e-08
6320.3, -3.692e-08
6322.3, -3.919e-08
6324.3, -4.245e-08
6326.3, -3.959e-08
6328.3, -4.154e-08
6330.3, -4.241e-08
6332.3, -4.131e-08
6334.3, -3.768e-08
6336.3, -3.884e-08
6338.3, -3.526e-08
6340.3, -3.953e-08
6342.3, -4.327e-08
6344.3, -4.21e-08
6346.3, -3.81e-08
6348.3, -4.027e-08
6350.3, -3.756e-08
6352.3, -3.94e-08
6354.3, -3.75e-08
6356.3, -3.851e-08
6358.4, -3.913e-08
6360.4, -3.648e-08
6362.4, -3.818e-08
6364.4, -3.782e-08
6366.4, -3.774e-08
6368.4, -3.488e-08
6370.4, -3.38e-08
6372.4, -3.577e-08
6374.4, -3.708e-08
6376.4, -3.94e-08
6378.4, -4.023e-08
6380.4, -3.782e-08
6382.4, -3.999e-08
6384.4, -4.096e-08
6386.4, -3.901e-08
6388.4, -3.736e-08
6390.4, -3.401e-08
6392.4, -3.668e-08
6394.4, -3.861e-08
6396.4, -3.783e-08
6398.4, -3.683e-08
6400.4, -3.714e-08
6402.4, -3.343e-08
6404.4, -3.454e-08
6406.4, -3.257e-08
6408.4, -3.614e-08
6410.4, -3.911e-08
6412.4, -3.865e-08
6414.4, -3.904e-08
6416.4, -4.086e-08
6418.4, -3.341e-08
6420.4, -3.403e-08
6422.4, -3.284e-08
6424.4, -4.168e-08
6426.4, -3.721e-08
6428.4, -3.736e-08
6430.4, -3.715e-08
6432.4, -3.533e-08
6434.4, -3.925e-08
6436.4, -4.093e-08
6438.4, -3.783e-08
6440.4, -3.964e-08
6442.4, -3.51e-08
6444.4, -3.425e-08
6446.4, -3.059e-08
6448.4, -3.334e-08
6450.4, -3.244e-08
6452.4, -3.042e-08
6454.4, -3.467e-08
6456.4, -3.746e-08
6458.5, -3.27e-08
6460.5, -3.346e-08
6462.5, -3.404e-08
6464.5, -3.579e-08
6466.5, -3.777e-08
6468.5, -3.44e-08
6470.5, -3.278e-08
6472.5, -3.285e-08
6474.5, -3.401e-08
6476.5, -3.89e-08
6478.5, -3.654e-08
6480.5, -3.725e-08
6482.5, -3.963e-08
6484.5, -3.383e-08
6486.5, -3.591e-08
6488.5, -3.649e-08
6490.5, -3.069e-08
6492.5, -3.777e-08
6494.5, -3.595e-08
6496.5, -4.101e-08
6498.5, -3.613e-08
6500.5, -3.929e-08
6502.5, -3.964e-08
6504.5, -3.778e-08
6506.5, -3.57e-08
6508.5, -3.461e-08
6510.5, -3.537e-08
6512.5, -3.823e-08
6514.5, -3.87e-08
6516.5, -3.941e-08
6518.5, -3.332e-08
6520.5, -3.769e-08
6522.5, -3.58e-08
6524.5, -3.629e-08
6526.5, -3.533e-08
6528.5, -3.731e-08
6530.5, -3.467e-08
6532.5, -3.319e-08
6534.5, -3.441e-08
6536.5, -3.552e-08
6538.5, -3.747e-08
6540.5, -3.79e-08
6542.5, -3.676e-08
6544.5, -3.444e-08
6546.5, -3.645e-08
6548.5, -3.504e-08
6550.5, -3.797e-08
6552.5, -3.945e-08
6554.5, -4.047e-08
6556.5, -3.776e-08
6558.6, -3.684e-08
6560.6, -3.818e-08
6562.6, -3.542e-08
6564.6, -3.615e-08
6566.6, -3.421e-08
6568.6, -3.742e-08
6570.6, -3.58e-08
6572.6, -3.87e-08
6574.6, -3.747e-08
6576.6, -3.822e-08
6578.6, -3.398e-08
6580.6, -3.452e-08
6582.6, -3.5e-08
6584.6, -3.849e-08
6586.6, -3.656e-08
6588.6, -3.41e-08
6590.6, -3.392e-08
6592.6, -3.351e-08
6594.6, -3.444e-08
6596.6, -3.417e-08
6598.6, -3.149e-08
6600.6, -3.068e-08
6602.6, -3.18e-08
6604.6, -3.403e-08
6606.6, -3.624e-08
6608.6, -3.389e-08
6610.6, -3.042e-08
6612.6, -2.995e-08
6614.6, -3.222e-08
6616.6, -3.091e-08
6618.6, -2.956e-08
6620.6, -3.142e-08
6622.6, -2.906e-08
6624.6, -3.043e-08
6626.6, -3.354e-08
6628.6, -3.019e-08
6630.6, -3.215e-08
6632.6, -3.201e-08
6634.6, -3.523e-08
6636.6, -3.271e-08
6638.6, -3.333e-08
6640.6, -2.978e-08
6642.6, -3.019e-08
6644.6, -3.023e-08
6646.6, -2.934e-08
6648.6, -3.099e-08
6650.6, -3.333e-08
6652.6, -3.465e-08
6654.6, -3.223e-08
6656.6, -3.433e-08
6658.7, -3.247e-08
6660.7, -3.482e-08
6662.7, -3.453e-08
6664.7, -3.831e-08
6666.7, -3.383e-08
6668.7, -3.657e-08
6670.7, -3.544e-08
6672.7, -3.835e-08
6674.7, -3.76e-08
6676.7, -3.781e-08
6678.7, -3.6e-08
6680.7, -3.985e-08
6682.7, -3.277e-08
6684.7, -3.74e-08
6686.7, -3.34e-08
6688.7, -3.709e-08
6690.7, -3.913e-08
6692.7, -3.631e-08
6694.7, -3.701e-08
6696.7, -3.617e-08
6698.7, -3.617e-08
6700.7, -3.481e-08
6702.7, -3.522e-08
6704.7, -3.581e-08
6706.7, -3.443e-08
6708.7, -3.65e-08
6710.7, -3.452e-08
6712.7, -3.807e-08
6714.7, -3.594e-08
6716.7, -3.585e-08
6718.7, -3.53e-08
6720.7, -3.128e-08
6722.7, -3.165e-08
6724.7, -3.2e-08
6726.7, -3.496e-08
6728.7, -3.183e-08
6730.7, -3.425e-08
6732.7, -3.462e-08
6734.7, -3.555e-08
6736.7, -3.661e-08
6738.7, -3.485e-08
6740.7, -3.78e-08
6742.7, -3.536e-08
6744.7, -3.611e-08
6746.7, -3.795e-08
6748.7, -3.531e-08
6750.7, -3.585e-08
6752.7, -3.909e-08
6754.7, -3.823e-08
6756.7, -3.824e-08
6758.8, -3.946e-08
6760.8, -3.919e-08
6762.8, -4.118e-08
6764.8, -3.876e-08
6766.8, -4.108e-08
6768.8, -3.833e-08
6770.8, -3.945e-08
6772.8, -3.842e-08
6774.8, -3.623e-08
6776.8, -3.645e-08
6778.8, -3.741e-08
6780.8, -3.759e-08
6782.8, -3.633e-08
6784.8, -3.448e-08
6786.8, -3.215e-08
6788.8, -3.872e-08
6790.8, -3.453e-08
6792.8, -3.307e-08
6794.8, -3.21e-08
6796.8, -2.841e-08
6798.8, -3.432e-08
6800.8, -2.689e-08
6802.8, -3.229e-08
6804.8, -2.968e-08
6806.8, -3.576e-08
6808.8, -3.193e-08
6810.8, -3.441e-08
6812.8, -3.295e-08
6814.8, -3.553e-08
6816.8, -3.429e-08
6818.8, -3.51e-08
6820.8, -3.727e-08
6822.8, -3.202e-08
6824.8, -3.895e-08
6826.8, -3.376e-08
6828.8, -3.098e-08
6830.8, -3.425e-08
6832.8, -2.987e-08
6834.8, -3.589e-08
6836.8, -3.686e-08
6838.8, -3.455e-08
6840.8, -3.648e-08
6842.8, -4.034e-08
6844.8, -3.638e-08
6846.8, -3.666e-08
6848.8, -3.377e-08
6850.8, -3.523e-08
6852.8, -3.322e-08
6854.8, -3.494e-08
6856.8, -3.487e-08
6858.9, -3.613e-08
6860.9, -3.497e-08
6862.9, -3.713e-08
6864.9, -3.223e-08
6866.9, -3.188e-08
6868.9, -2.975e-08
6870.9, -3.15e-08
6872.9, -3.337e-08
6874.9, -3.493e-08
6876.9, -3.557e-08
6878.9, -3.353e-08
6880.9, -3.352e-08
6882.9, -3.476e-08
6884.9, -3.618e-08
6886.9, -3.71e-08
6888.9, -3.577e-08
6890.9, -3.722e-08
6892.9, -3.55e-08
6894.9, -3.243e-08
6896.9, -3.736e-08
6898.9, -3.452e-08
6900.9, -3.426e-08
6902.9, -3.639e-08
6904.9, -3.8e-08
6906.9, -3.921e-08
6908.9, -3.887e-08
6910.9, -3.918e-08
6912.9, -3.607e-08
6914.9, -3.789e-08
6916.9, -3.644e-08
6918.9, -3.651e-08
6920.9, -3.691e-08
6922.9, -3.623e-08
6924.9, -3.627e-08
6926.9, -3.633e-08
6928.9, -3.944e-08
6930.9, -3.439e-08
6932.9, -3.476e-08
6934.9, -3.104e-08
6936.9, -3.739e-08
6938.9, -3.465e-08
6940.9, -3.518e-08
6942.9, -3.341e-08
6944.9, -3.903e-08
6946.9, -3.452e-08
6948.9, -3.809e-08
6950.9, -3.622e-08
6952.9, -3.215e-08
6954.9, -3.889e-08
6956.9, -3.45e-08
6959.0, -2.996e-08
6961.0, -3.296e-08
6963.0, -3.566e-08
6965.0, -3.291e-08
6967.0, -3.491e-08
6969.0, -3.942e-08
6971.0, -3.765e-08
6973.0, -3.934e-08
6975.0, -3.768e-08
6977.0, -3.708e-08
6979.0, -4.001e-08
6981.0, -3.439e-08
6983.0, -3.837e-08
6985.0, -3.977e-08
6987.0, -3.677e-08
6989.0, -4.057e-08
6991.0, -3.788e-08
6993.0, -3.842e-08
6995.0, -3.66e-08
6997.0, -3.416e-08
6999.0, -3.85e-08
7001.0, -3.562e-08
7003.0, -3.607e-08
7005.0, -3.782e-08
7007.0, -3.694e-08
7009.0, -3.75e-08
7011.0, -3.569e-08
7013.0, -3.71e-08
7015.0, -3.373e-08
7017.0, -3.351e-08
7019.0, -3.194e-08
7021.0, -3.381e-08
7023.0, -3.212e-08
7025.0, -2.93e-08
7027.0, -3.116e-08
7029.0, -3.339e-08
7031.0, -3.061e-08
7033.0, -3.152e-08
7035.0, -3.028e-08
7037.0, -3.273e-08
7039.0, -3.521e-08
7041.0, -3.19e-08
7043.0, -3.357e-08
7045.0, -3.249e-08
7047.0, -3.296e-08
7049.0, -3.215e-08
7051.0, -3.597e-08
7053.0, -3.36e-08
7055.0, -3.751e-08
7057.0, -3.532e-08
7059.1, -3.098e-08
7061.1, -3.317e-08
7063.1, -3.365e-08
7065.1, -2.91e-08
7067.1, -3.281e-08
7069.1, -3.22e-08
7071.1, -3.491e-08
7073.1, -3.362e-08
7075.1, -3.351e-08
7077.1, -3.599e-08
7079.1, -3.426e-08
7081.1, -3.387e-08
7083.1, -3.849e-08
7085.1, -3.514e-08
7087.1, -3.795e-08
7089.1, -3.32e-08
7091.1, -3.257e-08
7093.1, -3.387e-08
7095.1, -3.265e-08
7097.1, -3.299e-08
7099.1, -3.661e-08
7101.1, -3.61e-08
7103.1, -3.676e-08
7105.1, -3.56e-08
7107.1, -3.472e-08
7109.1, -3.605e-08
7111.1, -3.806e-08
7113.1, -3.509e-08
7115.1, -3.485e-08
7117.1, -3.125e-08
7119.1, -3.21e-08
7121.1, -3.554e-08
7123.1, -3.414e-08
7125.1, -3.388e-08
7127.1, -3.616e-08
7129.1, -3.501e-08
7131.1, -3.371e-08
7133.1, -3.316e-08
7135.1, -3.447e-08
7137.1, -3.718e-08
7139.1, -3.484e-08
7141.1, -3.339e-08
7143.1, -3.602e-08
7145.1, -3.793e-08
7147.1, -3.4e-08
7149.1, -2.879e-08
7151.1, -3.087e-08
7153.1, -3.399e-08
7155.1, -3.263e-08
7157.1, -3.667e-08
7159.2, -3.416e-08
7161.2, -3.09e-08
7163.2, -3.33e-08
7165.2, -3.4e-08
7167.2, -3.462e-08
7169.2, -3.45e-08
7171.2, -3.446e-08
7173.2, -3.344e-08
7175.2, -3.556e-08
7177.2, -3.485e-08
7179.2, -3.575e-08
7181.2, -3.019e-08
7183.2, -3.123e-08
7185.2, -3.465e-08
7187.2, -3.229e-08
7189.2, 2.6643e-07
7191.2, 4.1329e-07
7193.2, 4.2423e-07
7195.2, 3.9196e-07
7197.2, 4.367e-07
7199.2, 4.5086e-07
7201.2, 4.2184e-07
7203.2, 3.9421e-07
7205.2, 4.275e-07
7207.2, 4.0105e-07
7209.2, 3.6151e-07
7211.2, 3.5915e-07
7213.2, 3.7405e-07
7215.2, 4.0227e-07
7217.2, 3.7947e-07
7219.2, 4.1741e-07
7221.2, 4.1114e-07
7223.2, 4.1257e-07
7225.2, 4.114e-07
7227.2, 4.0697e-07
7229.2, 4.3829e-07
7231.2, 4.3812e-07
7233.2, 4.2166e-07
7235.2, 4.2398e-07
7237.2, 4.0385e-07
7239.2, 3.9873e-07
7241.2, 4.5233e-07
7243.2, 4.2022e-07
7245.2, 4.3173e-07
7247.2, 4.1523e-07
7249.2, 3.7207e-07
7251.2, 3.9857e-07
7253.2, 4.0875e-07
7255.2, 3.948e-07
7257.2, 4.1846e-07
7259.3, 4.209e-07
7261.3, 3.8064e-07
7263.3, 3.9179e-07
7265.3, 4.2913e-07
7267.3, 3.9523e-07
7269.3, 4.1039e-07
7271.3, 3.8359e-07
7273.3, 4.2367e-07
7275.3, 4.3003e-07
7277.3, 4.3555e-07
7279.3, 3.7953e-07
7281.3, 4.2293e-07
7283.3, 4.1549e-07
7285.3, 3.992e-07
7287.3, 4.0498e-07
7289.3, 3.742e-07
7291.3, 3.9892e-07
7293.3, 4.6216e-07
7295.3, 4.4111e-07
7297.3, 4.0429e-07
7299.3, 4.2661e-07
7301.3, 4.0126e-07
7303.3, 4.2311e-07
7305.3, 4.244e-07
7307.3, 4.2771e-07
7309.3, 4.1746e-07
7311.3, 4.3585e-07
7313.3, 4.4473e-07
7315.3, 4.0705e-07
7317.3, 4.2065e-07
7319.3, 4.4491e-07
7321.3, 4.2761e-07
7323.3, 4.0981e-07
7325.3, 4.2265e-07
7327.3, 4.2049e-07
7329.3, 3.9952e-07
7331.3, 3.9986e-07
7333.3, 4.3558e-07
7335.3, 4.0495e-07
7337.3, 4.2846e-07
7339.3, 4.2534e-07
7341.3, 4.6618e-07
7343.3, 4.3484e-07
7345.3, 4.3213e-07
7347.3, 4.1878e-07
7349.3, 3.9207e-07
7351.3, 4.5034e-07
7353.3, 4.4443e-07
7355.3, 4.7386e-07
7357.3, 4.1712e-07
7359.4, 4.2578e-07
7361.4, 4.0613e-07
7363.4, 4.7893e-07
7365.4, 4.2329e-07
7367.4, 4.2579e-07
7369.4, 4.3573e-07
7371.4, 4.5088e-07
7373.4, 4.2291e-07
7375.4, 4.3373e-07
7377.4, 4.3087e-07
7379.4, 3.9809e-07
7381.4, 4.6207e-07
7383.4, 4.2127e-07
7385.4, 3.8934e-07
7387.4, 4.1342e-07
7389.4, 4.5063e-07
7391.4, 4.3664e-07
7393.4, 4.2171e-07
7395.4, 4.207e-07
7397.4, 4.0489e-07
7399.4, 3.9565e-07
7401.4, 4.471e-07
7403.4, 4.2864e-07
7405.4, 4.2529e-07
7407.4, 4.3215e-07
7409.4, 4.4064e-07
7411.4, 4.2155e-07
7413.4, 4.4309e-07
7415.4, 4.5823e-07
7417.4, 4.6458e-07
7419.4, 4.349e-07
7421.4, 4.5756e-07
7423.4, 4.7161e-07
7425.4, 4.1405e-07
7427.4, 4.7016e-07
7429.4, 4.5459e-07
7431.4, 4.2871e-07
7433.4, 4.3679e-07
7435.4, 4.2434e-07
7437.4, 4.376e-07
7439.4, 4.2645e-07
7441.4, 4.3577e-07
7443.4, 4.2793e-07
7445.4, 4.0182e-07
7447.4, 4.4235e-07
7449.4, 4.161e-07
7451.4, 4.2993e-07
7453.4, 4.2301e-07
7455.4, 4.2762e-07
7457.4, 4.7542e-07
7459.5, 4.0823e-07
7461.5, 4.0453e-07
7463.5, 4.483e-07
7465.5, 4.2232e-07
7467.5, 4.3402e-07
7469.5, 4.4089e-07
7471.5, 4.727e-07
7473.5, 4.0206e-07
7475.5, 4.1431e-07
7477.5, 4.1382e-07
7479.5, 4.2978e-07
7481.5, 4.2263e-07
7483.5, 4.3853e-07
7485.5, 4.4255e-07
7487.5, 4.1447e-07
7489.5, 4.4151e-07
7491.5, 4.5141e-07
7493.5, 4.1537e-07
7495.5, 3.9677e-07
7497.5, 4.2801e-07
7499.5, 4.5214e-07
7501.5, 4.4154e-07
7503.5, 4.046e-07
7505.5, 4.4449e-07
7507.5, 4.3337e-07
7509.5, 3.9365e-07
7511.5, 4.2859e-07
7513.5, 4.3518e-07
7515.5, 4.4044e-07
7517.5, 4.3766e-07
7519.5, 4.0075e-07
7521.5, 4.4569e-07
7523.5, 4.5563e-07
7525.5, 4.231e-07
7527.5, 4.2396e-07
7529.5, 4.5764e-07
7531.5, 4.056e-07
7533.5, 3.8354e-07
7535.5, 4.4337e-07
7537.5, 4.0584e-07
7539.5, 4.5991e-07
7541.5, 4.8249e-07
7543.5, 4.2273e-07
7545.5, 4.5286e-07
7547.5, 4.3602e-07
7549.5, 4.4922e-07
7551.5, 4.4083e-07
7553.5, 4.4394e-07
7555.5, 4.189e-07
7557.5, 4.6157e-07
7559.6, 4.8049e-07
7561.6, 4.5192e-07
7563.6, 4.449e-07
7565.6, 4.3864e-07
7567.6, 4.2246e-07
7569.6, 4.4256e-07
7571.6, 4.5877e-07
7573.6, 4.4903e-07
7575.6, 4.5114e-07
7577.6, 4.3478e-07
7579.6, 4.0248e-07
7581.6, 4.6815e-07
7583.6, 4.1255e-07
7585.6, 4.1904e-07
7587.6, 4.3256e-07
7589.6, 4.5649e-07
7591.6, 4.2281e-07
7593.6, 4.2035e-07
7595.6, 4.2088e-07
7597.6, 4.4337e-07
7599.6, 4.9312e-07
7601.6, 4.4762e-07
7603.6, 4.6146e-07
7605.6, 4.319e-07
7607.6, 4.5429e-07
7609.6, 4.7323e-07
7611.6, 4.5835e-07
7613.6, 4.1975e-07
7615.6, 4.3624e-07
7617.6, 4.4881e-07
7619.6, 4.5195e-07
7621.6, 4.5851e-07
7623.6, 4.4196e-07
7625.6, 4.3251e-07
7627.6, 4.7504e-07
7629.6, 4.4558e-07
7631.6, 4.5674e-07
7633.6, 4.3229e-07
7635.6, 4.3486e-07
7637.6, 4.7004e-07
7639.6, 3.9964e-07
7641.6, 4.3592e-07
7643.6, 3.9522e-07
7645.6, 4.4691e-07
7647.6, 4.2519e-07
7649.6, 4.2342e-07
7651.6, 4.6797e-07
7653.6, 4.3101e-07
7655.6, 4.2944e-07
7657.6, 3.8429e-07
7659.7, 4.1442e-07
7661.7, 4.7265e-07
7663.7, 4.6896e-07
7665.7, 4.0351e-07
7667.7, 4.4728e-07
7669.7, 4.2382e-07
7671.7, 4.3463e-07
7673.7, 4.4079e-07
7675.7, 4.201e-07
7677.7, 4.1902e-07
7679.7, 4.3918e-07
7681.7, 4.7592e-07
7683.7, 4.7101e-07
7685.7, 4.7595e-07
7687.7, 4.4954e-07
7689.7, 4.2506e-07
7691.7, 4.2808e-07
7693.7, 4.2778e-07
7695.7, 4.6114e-07
7697.7, 4.4885e-07
7699.7, 4.2709e-07
7701.7, 5.0231e-07
7703.7, 4.9039e-07
7705.7, 4.6409e-07
7707.7, 4.5392e-07
7709.7, 4.1417e-07
7711.7, 4.5704e-07
7713.7, 4.7941e-07
7715.7, 4.6062e-07
7717.7, 4.4033e-07
7719.7, 4.2114e-07
7721.7, 4.0369e-07
7723.7, 4.2535e-07
7725.7, 4.6007e-07
7727.7, 4.5216e-07
7729.7, 3.9642e-07
7731.7, 4.4378e-07
7733.7, 4.4251e-07
7735.7, 4.5232e-07
7737.7, 4.5204e-07
7739.7, 4.73e-07
7741.7, 3.9617e-07
7743.7, 4.2526e-07
7745.7, 4.5286e-07
7747.7, 4.251e-07
7749.7, 4.6678e-07
7751.7, 4.5959e-07
7753.7, 4.7428e-07
7755.7, 4.4764e-07
7757.7, 4.5672e-07
7759.8, 4.717e-07
7761.8, 4.5862e-07
7763.8, 4.5399e-07
7765.8, 4.7064e-07
7767.8, 4.5491e-07
7769.8, 4.4294e-07
7771.8, 4.3329e-07
7773.8, 4.2637e-07
7775.8, 4.6294e-07
7777.8, 4.619e-07
7779.8, 4.567e-07
7781.8, 4.3947e-07
7783.8, 4.6017e-07
7785.8, 4.4621e-07
7787.8, 4.2493e-07
7789.8, 4.4623e-07
7791.8, 4.5001e-07
7793.8, 4.0834e-07
7795.8, 4.5228e-07
7797.8, 4.2534e-07
7799.8, 4.5377e-07
7801.8, 4.2309e-07
7803.8, 4.567e-07
7805.8, 4.5822e-07
7807.8, 4.3063e-07
7809.8, 4.4645e-07
7811.8, 4.3203e-07
7813.8, 4.5527e-07
7815.8, 4.516e-07
7817.8, 4.3456e-07
7819.8, 4.2846e-07
7821.8, 4.4517e-07
7823.8, 4.4967e-07
7825.8, 4.7446e-07
7827.8, 4.5851e-07
7829.8, 4.4365e-07
7831.8, 4.4313e-07
7833.8, 4.4549e-07
7835.8, 4.5932e-07
7837.8, 4.8481e-07
7839.8, 4.7314e-07
7841.8, 4.6622e-07
7843.8, 4.1333e-07
7845.8, 4.412e-07
7847.8, 4.6727e-07
7849.8, 4.8983e-07
7851.8, 4.2416e-07
7853.8, 4.2876e-07
7855.8, 4.6932e-07
7857.8, 4.678e-07
7859.9, 4.4374e-07
7861.9, 4.2365e-07
7863.9, 4.2442e-07
7865.9, 4.4589e-07
7867.9, 4.3675e-07
7869.9, 4.498e-07
7871.9, 4.6044e-07
7873.9, 5.2689e-07
7875.9, 4.6644e-07
7877.9, 4.4545e-07
7879.9, 4.8574e-07
7881.9, 4.2038e-07
7883.9, 4.2509e-07
7885.9, 4.2591e-07
7887.9, 4.3262e-07
7889.9, 4.2704e-07
7891.9, 4.164e-07
7893.9, 4.2635e-07
7895.9, 4.5877e-07
7897.9, 4.6902e-07
7899.9, 4.4707e-07
7901.9, 4.5654e-07
7903.9, 4.2345e-07
7905.9, 4.2808e-07
7907.9, 4.2827e-07
7909.9, 4.5131e-07
7911.9, 4.8205e-07
7913.9, 4.7463e-07
7915.9, 4.5849e-07
7917.9, 4.2668e-07
7919.9, 4.3582e-07
7921.9, 4.4031e-07
7923.9, 4.2181e-07
7925.9, 4.1662e-07
7927.9, 4.6169e-07
7929.9, 4.3297e-07
7931.9, 4.4271e-07
7933.9, 4.6648e-07
7935.9, 4.4369e-07
7937.9, 4.3758e-07
7939.9, 4.5887e-07
7941.9, 4.5235e-07
7943.9, 4.2382e-07
7945.9, 4.509e-07
7947.9, 4.5351e-07
7949.9, 4.1274e-07
7951.9, 4.4899e-07
7953.9, 4.4404e-07
7955.9, 4.4151e-07
7957.9, 4.2136e-07
7960.0, 4.2126e-07
7962.0, 4.5494e-07
7964.0, 4.2805e-07
7966.0, 4.7488e-07
7968.0, 4.5885e-07
7970.0, 4.3864e-07
7972.0, 4.8416e-07
7974.0, 4.4201e-07
7976.0, 4.2954e-07
7978.0, 4.5467e-07
7980.0, 4.6991e-07
7982.0, 4.1977e-07
7984.0, 4.4952e-07
7986.0, 4.4994e-07
7988.0, 4.4537e-07
7990.0, 4.9856e-07
7992.0, 4.7632e-07
7994.0, 4.7898e-07
7996.0, 4.4857e-07
7998.0, 4.4539e-07
8000.0, 4.6339e-07
8002.0, 4.3012e-07
8004.0, 4.1435e-07
8006.0, 4.3994e-07
8008.0, 4.6432e-07
8010.0, 5.0105e-07
8012.0, 4.3771e-07
8014.0, 4.2414e-07
8016.0, 4.1501e-07
8018.0, 4.5192e-07
8020.0, 4.6695e-07
8022.0, 4.597e-07
8024.0, 4.5185e-07
8026.0, 4.4904e-07
8028.0, 4.5082e-07
8030.0, 4.6262e-07
8032.0, 4.5408e-07
8034.0, 4.7296e-07
8036.0, 4.6949e-07
8038.0, 4.5818e-07
8040.0, 4.3715e-07
8042.0, 4.5748e-07
8044.0, 4.5674e-07
8046.0, 4.31e-07
8048.0, 4.2782e-07
8050.0, 4.5264e-07
8052.0, 4.4506e-07
8054.0, 4.1797e-07
8056.0, 4.37e-07
8058.0, 4.9104e-07
8060.1, 4.8433e-07
8062.1, 4.3963e-07
8064.1, 4.3468e-07
8066.1, 4.255e-07
8068.1, 4.5137e-07
8070.1, 4.2551e-07
8072.1, 4.5067e-07
8074.1, 4.6117e-07
8076.1, 4.5097e-07
8078.1, 4.5703e-07
8080.1, 4.6857e-07
8082.1, 4.6771e-07
8084.1, 4.3323e-07
8086.1, 4.5356e-07
8088.1, 4.7105e-07
8090.1, 4.1487e-07
8092.1, 4.7223e-07
8094.1, 4.5231e-07
8096.1, 4.6286e-07
8098.1, 4.7567e-07
8100.1, 4.4373e-07
8102.1, 4.8828e-07
8104.1, 4.4884e-07
8106.1, 4.4991e-07
8108.1, 4.516e-07
8110.1, 4.6917e-07
8112.1, 4.7478e-07
8114.1, 5.3551e-07
8116.1, 4.9364e-07
8118.1, 4.6048e-07
8120.1, 4.6651e-07
8122.1, 4.3378e-07
8124.1, 4.5739e-07
8126.1, 4.6114e-07
8128.1, 4.7591e-07
8130.1, 4.8027e-07
8132.1, 4.2321e-07
8134.1, 4.2492e-07
8136.1, 4.7774e-07
8138.1, 4.5705e-07
8140.1, 4.4648e-07
8142.1, 4.6105e-07
8144.1, 4.2784e-07
8146.1, 4.7111e-07
8148.1, 4.4159e-07
8150.1, 4.479e-07
8152.1, 4.4098e-07
8154.1, 4.2112e-07
8156.1, 4.1058e-07
8158.1, 4.7379e-07
8160.2, 4.0883e-07
8162.2, 4.4548e-07
8164.2, 4.8653e-07
8166.2, 4.4969e-07
8168.2, 4.464e-07
8170.2, 4.4078e-07
8172.2, 4.3517e-07
8174.2, 4.7313e-07
8176.2, 4.3635e-07
8178.2, 4.8947e-07
8180.2, 4.5759e-07
8182.2, 4.779e-07
8184.2, 4.2776e-07
8186.2, 4.5262e-07
8188.2, 4.3989e-07
8190.2, 3.806e-08
8192.2, -3.417e-08
8194.2, -3.878e-08
8196.2, -3.778e-08
8198.2, -3.554e-08
8200.2, -3.787e-08
8202.2, -3.516e-08
8204.2, -3.23e-08
8206.2, -3.672e-08
8208.2, -3.656e-08
8210.2, -3.697e-08
8212.2, -3.557e-08
8214.2, -3.681e-08
8216.2, -3.828e-08
8218.2, -3.941e-08
8220.2, -3.185e-08
8222.2, -3.673e-08
8224.2, -3.164e-08
8226.2, -3.657e-08
8228.2, -3.334e-08
8230.2, -3.528e-08
8232.2, -2.856e-08
8234.2, -3.197e-08
8236.2, -3.412e-08
8238.2, -3.752e-08
8240.2, -3.2e-08
8242.2, -3.184e-08
8244.2, -3.441e-08
8246.2, -3.405e-08
8248.2, -3.635e-08
8250.2, -3.409e-08
8252.2, -3.62e-08
8254.2, -3.666e-08
8256.2, -3.737e-08
8258.2, -3.677e-08
8260.3, -3.935e-08
8262.3, -3.73e-08
8264.3, -3.817e-08
8266.3, -3.771e-08
8268.3, -3.951e-08
8270.3, -3.494e-08
8272.3, -3.871e-08
8274.3, -3.841e-08
8276.3, -3.825e-08
8278.3, -3.725e-08
8280.3, -3.931e-08
8282.3, -4.037e-08
8284.3, -3.716e-08
8286.3, -3.99e-08
8288.3, -4.27e-08
8290.3, -3.946e-08
8292.3, -4.01e-08
8294.3, -3.912e-08
8296.3, -4.293e-08
8298.3, -3.99e-08
8300.3, -3.888e-08
8302.3, -4.014e-08
8304.3, -3.793e-08
8306.3, -3.94e-08
8308.3, -3.666e-08
8310.3, -4.197e-08
8312.3, -3.863e-08
8314.3, -3.823e-08
8316.3, -4.203e-08
8318.3, -4.186e-08
8320.3, -4.451e-08
8322.3, -4.313e-08
8324.3, -3.784e-08
8326.3, -4.037e-08
8328.3, -4.072e-08
8330.3, -3.78e-08
8332.3, -3.877e-08
8334.3, -4.132e-08
8336.3, -3.793e-08
8338.3, -3.967e-08
8340.3, -3.814e-08
8342.3, -3.662e-08
8344.3, -3.708e-08
8346.3, -4.032e-08
8348.3, -3.557e-08
8350.3, -3.502e-08
8352.3, -3.851e-08
8354.3, -3.571e-08
8356.3, -3.583e-08
8358.3, -3.871e-08
8360.4, -3.584e-08
8362.4, -3.729e-08
8364.4, -3.608e-08
8366.4, -3.498e-08
8368.4, -4.046e-08
8370.4, -3.634e-08
8372.4, -3.293e-08
8374.4, -3.236e-08
8376.4, -3.622e-08
8378.4, -3.71e-08
8380.4, -3.631e-08
8382.4, -3.301e-08
8384.4, -3.084e-08
8386.4, -3.775e-08
8388.4, -3.391e-08
8390.4, -3.362e-08
8392.4, -3.583e-08
8394.4, -3.689e-08
8396.4, -3.459e-08
8398.4, -3.294e-08
8400.4, -3.673e-08
8402.4, -3.723e-08
8404.4, -3.653e-08
8406.4, -3.636e-08
8408.4, -3.656e-08
8410.4, -3.711e-08
8412.4, -3.6e-08
8414.4, -3.559e-08
8416.4, -3.604e-08
8418.4, -3.412e-08
8420.4, -3.48e-08
8422.4, -3.238e-08
8424.4, -3.397e-08
8426.4, -4.008e-08
8428.4, -3.931e-08
8430.4, -3.618e-08
8432.4, -3.247e-08
8434.4, -3.458e-08
8436.4, -3.382e-08
8438.4, -3.244e-08
8440.4, -3.614e-08
8442.4, -3.029e-08
8444.4, -3.394e-08
8446.4, -3.48e-08
8448.4, -3.384e-08
8450.4, -3.609e-08
8452.4, -2.936e-08
8454.4, -3.38e-08
8456.4, -3.194e-08
8458.4, -3.376e-08
8460.5, -3.624e-08
8462.5, -3.82e-08
8464.5, -4.011e-08
8466.5, -3.647e-08
8468.5, -3.474e-08
8470.5, -3.3e-08
8472.5, -3.248e-08
8474.5, -3.644e-08
8476.5, -3.497e-08
8478.5, -3.495e-08
8480.5, -3.695e-08
8482.5, -3.236e-08
8484.5, -3.569e-08
8486.5, -3.548e-08
8488.5, -3.49e-08
8490.5, -3.247e-08
8492.5, -3.724e-08
8494.5, -3.424e-08
8496.5, -3.239e-08
8498.5, -3.413e-08
8500.5, -3.169e-08
8502.5, -3.139e-08
8504.5, -3.614e-08
8506.5, -3.524e-08
8508.5, -3.612e-08
8510.5, -3.439e-08
8512.5, -3.706e-08
8514.5, -3.632e-08
8516.5, -3.718e-08
8518.5, -3.413e-08
8520.5, -3.399e-08
8522.5, -3.285e-08
8524.5, -3.029e-08
8526.5, -3.355e-08
8528.5, -3.285e-08
8530.5, -3.101e-08
8532.5, -3.248e-08
8534.5, -2.845e-08
8536.5, -3.338e-08
8538.5, -3.8e-08
8540.5, -3.426e-08
8542.5, -3.366e-08
8544.5, -3.064e-08
8546.5, -2.511e-08
8548.5, -3.528e-08
8550.5, -3.831e-08
8552.5, -3.66e-08
8554.5, -3.429e-08
8556.5, -3.337e-08
8558.5, -3.611e-08
8560.6, -3.573e-08
8562.6, -3.38e-08
8564.6, -3.698e-08
8566.6, -3.288e-08
8568.6, -3.536e-08
8570.6, -3.629e-08
8572.6, -3.137e-08
8574.6, -3.63e-08
8576.6, -3.957e-08
8578.6, -3.636e-08
8580.6, -3.612e-08
8582.6, -3.31e-08
8584.6, -3.918e-08
8586.6, -3.514e-08
8588.6, -3.453e-08
8590.6, -3.558e-08
8592.6, -3.517e-08
8594.6, -3.512e-08
8596.6, -3.711e-08
8598.6, -3.293e-08
8600.6, -3.67e-08
8602.6, -3.405e-08
8604.6, -3.561e-08
8606.6, -3.491e-08
8608.6, -3.59e-08
8610.6, -3.537e-08
8612.6, -3.204e-08
8614.6, -3.116e-08
8616.6, -3.202e-08
8618.6, -3.24e-08
8620.6, -3.57e-08
8622.6, -3.321e-08
8624.6, -3.093e-08
8626.6, -3.411e-08
8628.6, -3.429e-08
8630.6, -3.109e-08
8632.6, -3.206e-08
8634.6, -3.319e-08
8636.6, -3.545e-08
8638.6, -3.385e-08
8640.6, -3.301e-08
8642.6, -3.146e-08
8644.6, -3.098e-08
8646.6, -2.876e-08
8648.6, -2.994e-08
8650.6, -3.016e-08
8652.6, -2.927e-08
8654.6, -2.655e-08
8656.6, -2.452e-08
8658.6, -2.767e-08
8660.7, -3.032e-08
8662.7, -2.673e-08
8664.7, -2.925e-08
8666.7, -2.733e-08
8668.7, -2.863e-08
8670.7, -2.819e-08
8672.7, -2.577e-08
8674.7, -2.798e-08
8676.7, -2.734e-08
8678.7, -3.105e-08
8680.7, -2.944e-08
8682.7, -2.871e-08
8684.7, -3.047e-08
8686.7, -2.867e-08
8688.7, -2.856e-08
8690.7, -2.761e-08
8692.7, -2.935e-08
8694.7, -2.879e-08
8696.7, -2.722e-08
8698.7, -2.967e-08
8700.7, -3.008e-08
8702.7, -3.083e-08
8704.7, -2.928e-08
8706.7, -2.747e-08
8708.7, -2.765e-08
8710.7, -2.934e-08
8712.7, -3.256e-08
8714.7, -3.048e-08
8716.7, -2.998e-08
8718.7, -3.342e-08
8720.7, -3.028e-08
8722.7, -3.164e-08
8724.7, -2.908e-08
8726.7, -3.095e-08
8728.7, -2.944e-08
8730.7, -2.87e-08
8732.7, -2.786e-08
8734.7, -2.852e-08
8736.7, -3.024e-08
8738.7, -3.332e-08
8740.7, -3.279e-08
8742.7, -3.022e-08
8744.7, -3.09e-08
8746.7, -3.24e-08
8748.7, -3.504e-08
8750.7, -3.037e-08
8752.7, -2.795e-08
8754.7, -3.382e-08
8756.7, -3.37e-08
8758.7, -3.136e-08
8760.8, -2.911e-08
8762.8, -3.032e-08
8764.8, -2.786e-08
8766.8, -3.19e-08
8768.8, -3.335e-08
8770.8, -3.419e-08
8772.8, -3.024e-08
8774.8, -3.535e-08
8776.8, -3.019e-08
8778.8, -3.198e-08
8780.8, -2.862e-08
8782.8, -3.107e-08
8784.8, -3.26e-08
8786.8, -3.176e-08
8788.8, -3.094e-08
8790.8, -3.21e-08
8792.8, -3.476e-08
8794.8, -3.338e-08
8796.8, -3.528e-08
8798.8, -3.692e-08
8800.8, -3.506e-08
8802.8, -3.577e-08
8804.8, -3.466e-08
8806.8, -3.422e-08
8808.8, -3.116e-08
8810.8, -3.15e-08
8812.8, -3.297e-08
8814.8, -3.15e-08
8816.8, -3.253e-08
8818.8, -3.197e-08
8820.8, -3.42e-08
8822.8, -3.25e-08
8824.8, -2.921e-08
8826.8, -3.226e-08
8828.8, -3.201e-08
8830.8, -3.099e-08
8832.8, -3.229e-08
8834.8, -3.212e-08
8836.8, -3.019e-08
8838.8, -2.875e-08
8840.8, -3.001e-08
8842.8, -3.367e-08
8844.8, -3.139e-08
8846.8, -3.318e-08
8848.8, -2.847e-08
8850.8, -3.016e-08
8852.8, -2.925e-08
8854.8, -3.493e-08
8856.8, -3.508e-08
8858.8, -3.73e-08
8860.9, -3.362e-08
8862.9, -3.944e-08
8864.9, -3.448e-08
8866.9, -3.428e-08
8868.9, -3.145e-08
8870.9, -3.394e-08
8872.9, -3.255e-08
8874.9, -3.839e-08
8876.9, -3.58e-08
8878.9, -3.419e-08
8880.9, -3.612e-08
8882.9, -3.379e-08
8884.9, -3.119e-08
8886.9, -3.308e-08
8888.9, -3.701e-08
8890.9, -3.456e-08
8892.9, -3.458e-08
8894.9, -3.837e-08
8896.9, -3.347e-08
8898.9, -3.342e-08
8900.9, -3.223e-08
8902.9, -3.133e-08
8904.9, -3.376e-08
8906.9, -3.548e-08
8908.9, -3.66e-08
8910.9, -3.463e-08
8912.9, -3.523e-08
8914.9, -3.599e-08
8916.9, -3.593e-08
8918.9, -3.987e-08
8920.9, -3.353e-08
8922.9, -3.456e-08
8924.9, -3.452e-08
8926.9, -3.213e-08
8928.9, -3.369e-08
8930.9, -3.526e-08
8932.9, -3.635e-08
8934.9, -3.356e-08
8936.9, -3.525e-08
8938.9, -3.354e-08
8940.9, -3.837e-08
8942.9, -3.461e-08
8944.9, -3.674e-08
8946.9, -3.517e-08
8948.9, -3.441e-08
8950.9, -3.299e-08
8952.9, -3.169e-08
8954.9, -3.633e-08
8956.9, -3.772e-08
8958.9, -3.541e-08
8961.0, -2.991e-08
8963.0, -3.387e-08
8965.0, -3.144e-08
8967.0, -3.396e-08
8969.0, -3.182e-08
8971.0, -2.866e-08
8973.0, -2.981e-08
8975.0, -3.043e-08
8977.0, -3.132e-08
8979.0, -3.466e-08
8981.0, -3.654e-08
8983.0, -3.246e-08
8985.0, -3.314e-08
8987.0, -3.136e-08
8989.0, -3.196e-08
8991.0, -3.607e-08
8993.0, -3.947e-08
8995.0, -3.314e-08
8997.0, -3.504e-08
8999.0, -3.388e-08
9001.0, -2.966e-08
9003.0, -3.042e-08
9005.0, -3.098e-08
9007.0, -3.491e-08
9009.0, -3.311e-08
9011.0, -2.945e-08
9013.0, -3.188e-08
9015.0, -3.283e-08
9017.0, -3.568e-08
9019.0, -3.636e-08
9021.0, -3.229e-08
9023.0, -3.44e-08
9025.0, -3.174e-08
9027.0, -3.548e-08
9029.0, -3.466e-08
9031.0, -3.342e-08
9033.0, -3.428e-08
9035.0, -3.442e-08
9037.0, -3.351e-08
9039.0, -3.611e-08
9041.0, -3.567e-08
9043.0, -3.312e-08
9045.0, -3.319e-08
9047.0, -3.619e-08
9049.0, -3.469e-08
9051.0, -3.341e-08
9053.0, -3.334e-08
9055.0, -3.169e-08
9057.0, -3.526e-08
9059.0, -3.234e-08
9061.1, -3.342e-08
9063.1, -3.159e-08
9065.1, -3.054e-08
9067.1, -3.156e-08
9069.1, -3.337e-08
9071.1, -2.937e-08
9073.1, -3.226e-08
9075.1, -3.546e-08
9077.1, -3.532e-08
9079.1, -3.808e-08
9081.1, -3.609e-08
9083.1, -3.226e-08
9085.1, -3.481e-08
9087.1, -3.083e-08
9089.1, -3.014e-08
9091.1, -2.905e-08
9093.1, -3.123e-08
9095.1, -3.225e-08
9097.1, -3.329e-08
9099.1, -3.489e-08
9101.1, -3.416e-08
9103.1, -3.356e-08
9105.1, -3.304e-08
9107.1, -3.488e-08
9109.1, -3.49e-08
9111.1, -3.565e-08
9113.1, -3.547e-08
9115.1, -3.406e-08
9117.1, -3.257e-08
9119.1, -3.423e-08
9121.1, -3.741e-08
9123.1, -3.445e-08
9125.1, -4.108e-08
9127.1, -3.69e-08
9129.1, -3.809e-08
9131.1, -3.273e-08
9133.1, -3.504e-08
9135.1, -3.696e-08
9137.1, -3.406e-08
9139.1, -3.497e-08
9141.1, -3.164e-08
9143.1, -3.614e-08
9145.1, -3.5e-08
9147.1, -3.778e-08
9149.1, -3.922e-08
9151.1, -3.321e-08
9153.1, -3.804e-08
9155.1, -3.923e-08
9157.1, -4.081e-08
9159.1, -3.663e-08
9161.2, -3.53e-08
9163.2, -3.402e-08
9165.2, -3.596e-08
9167.2, -3.465e-08
9169.2, -3.616e-08
9171.2, -3.55e-08
9173.2, -3.128e-08
9175.2, -3.133e-08
9177.2, -3.514e-08
9179.2, -3.665e-08
9181.2, -3.601e-08
9183.2, -3.609e-08
9185.2, -3.234e-08
9187.2, -3.369e-08
9189.2, -3.593e-08
9191.2, -3.775e-08
9193.2, -3.829e-08
9195.2, -3.534e-08
9197.2, -3.84e-08
9199.2, -3.55e-08
9201.2, -3.326e-08
9203.2, -3.149e-08
9205.2, -2.834e-08
9207.2, -3.561e-08
9209.2, -3.43e-08
9211.2, -3.448e-08
9213.2, -3.22e-08
9215.2, -3.514e-08
9217.2, -3.792e-08
9219.2, -3.825e-08
9221.2, -3.831e-08
9223.2, 1.8758e-07
9225.2, 4.3814e-07
9227.2, 4.0458e-07
9229.2, 4.4392e-07
9231.2, 4.3372e-07
9233.2, 4.575e-07
9235.2, 4.0013e-07
9237.2, 4.2467e-07
9239.2, 4.2171e-07
9241.2, 4.1904e-07
9243.2, 4.0556e-07
9245.2, 4.3203e-07
9247.2, 4.3485e-07
9249.2, 3.9463e-07
9251.2, 4.0014e-07
9253.2, 4.0237e-07
9255.2, 4.1696e-07
9257.2, 3.8755e-07
9259.2, 4.1188e-07
9261.3, 4.11e-07
9263.3, 4.3394e-07
9265.3, 3.7672e-07
9267.3, 4.0482e-07
9269.3, 4.3577e-07
9271.3, 4.0033e-07
9273.3, 4.4189e-07
9275.3, 4.0825e-07
9277.3, 4.0915e-07
9279.3, 4.1099e-07
9281.3, 4.2812e-07
9283.3, 4.7287e-07
9285.3, 3.7317e-07
9287.3, 4.3636e-07
9289.3, 3.8925e-07
9291.3, 4.4401e-07
9293.3, 4.1207e-07
9295.3, 4.1047e-07
9297.3, 4.5845e-07
9299.3, 4.5753e-07
9301.3, 4.1582e-07
9303.3, 4.3678e-07
9305.3, 4.5639e-07
9307.3, 4.2831e-07
9309.3, 4.3482e-07
9311.3, 4.3854e-07
9313.3, 4.3016e-07
9315.3, 4.0658e-07
9317.3, 4.5721e-07
9319.3, 4.12e-07
9321.3, 4.5539e-07
9323.3, 4.1083e-07
9325.3, 4.4186e-07
9327.3, 4.0473e-07
9329.3, 4.3862e-07
9331.3, 3.9759e-07
9333.3, 4.2531e-07
9335.3, 4.1236e-07
9337.3, 3.7571e-07
9339.3, 3.7511e-07
9341.3, 4.2843e-07
9343.3, 4.326e-07
9345.3, 4.5038e-07
9347.3, 4.1178e-07
9349.3, 4.4261e-07
9351.3, 4.4977e-07
9353.3, 4.577e-07
9355.3, 4.3134e-07
9357.3, 4.1321e-07
9359.3, 4.3406e-07
9361.4, 4.0528e-07
9363.4, 4.3821e-07
9365.4, 3.9684e-07
9367.4, 4.4281e-07
9369.4, 3.9336e-07
9371.4, 4.235e-07
9373.4, 4.1773e-07
9375.4, 4.0623e-07
9377.4, 4.6262e-07
9379.4, 4.2555e-07
9381.4, 4.1959e-07
9383.4, 4.3759e-07
9385.4, 4.0922e-07
9387.4, 4.3481e-07
9389.4, 4.4677e-07
9391.4, 4.311e-07
9393.4, 4.6089e-07
9395.4, 4.1189e-07
9397.4, 3.9125e-07
9399.4, 4.4911e-07
9401.4, 4.1425e-07
9403.4, 3.9955e-07
9405.4, 4.2303e-07
9407.4, 4.5779e-07
9409.4, 4.5258e-07
9411.4, 4.2709e-07
9413.4, 4.4619e-07
9415.4, 4.5513e-07
9417.4, 4.616e-07
9419.4, 4.2976e-07
9421.4, 4.9304e-07
9423.4, 4.6077e-07
9425.4, 4.3539e-07
9427.4, 4.5457e-07
9429.4, 4.5304e-07
9431.4, 4.227e-07
9433.4, 4.4013e-07
9435.4, 4.7634e-07
9437.4, 4.448e-07
9439.4, 4.812e-07
9441.4, 4.4928e-07
9443.4, 4.2332e-07
9445.4, 4.0843e-07
9447.4, 4.0979e-07
9449.4, 4.4769e-07
9451.4, 4.3995e-07
9453.4, 4.2089e-07
9455.4, 4.4132e-07
9457.4, 4.1637e-07
9459.4, 4.7116e-07
9461.5, 4.7309e-07
9463.5, 4.1686e-07
9465.5, 4.3256e-07
9467.5, 4.3621e-07
9469.5, 4.8974e-07
9471.5, 4.2425e-07
9473.5, 4.1962e-07
9475.5, 4.7309e-07
9477.5, 4.5806e-07
9479.5, 4.1673e-07
9481.5, 4.6658e-07
9483.5, 4.6334e-07
9485.5, 4.3882e-07
9487.5, 4.4587e-07
9489.5, 4.1672e-07
9491.5, 4.4675e-07
9493.5, 4.5122e-07
9495.5, 4.4125e-07
9497.5, 4.2774e-07
9499.5, 4.6085e-07
9501.5, 4.463e-07
9503.5, 4.3033e-07
9505.5, 4.4208e-07
9507.5, 4.1388e-07
9509.5, 4.0414e-07
9511.5, 4.4677e-07
9513.5, 4.621e-07
9515.5, 4.1805e-07
9517.5, 4.3915e-07
9519.5, 4.5325e-07
9521.5, 4.3027e-07
9523.5, 4.2506e-07
9525.5, 4.2781e-07
9527.5, 4.1083e-07
9529.5, 4.2879e-07
9531.5, 4.1055e-07
9533.5, 4.5121e-07
9535.5, 4.3286e-07
9537.5, 4.8571e-07
9539.5, 4.5381e-07
9541.5, 4.0371e-07
9543.5, 4.53e-07
9545.5, 4.275e-07
9547.5, 4.5694e-07
9549.5, 4.6149e-07
9551.5, 4.6024e-07
9553.5, 4.6912e-07
9555.5, 4.6588e-07
9557.5, 3.9817e-07
9559.5, 4.4879e-07
9561.6, 4.4633e-07
9563.6, 4.6549e-07
9565.6, 4.5099e-07
9567.6, 3.8876e-07
9569.6, 4.2773e-07
9571.6, 4.4307e-07
9573.6, 4.2388e-07
9575.6, 4.2782e-07
9577.6, 4.1927e-07
9579.6, 4.107e-07
9581.6, 4.579e-07
9583.6, 4.3952e-07
9585.6, 4.8221e-07
9587.6, 4.352e-07
9589.6, 4.3356e-07
9591.6, 4.1331e-07
9593.6, 4.7501e-07
9595.6, 4.6137e-07
9597.6, 4.3329e-07
9599.6, 4.6985e-07
9601.6, 4.2929e-07
9603.6, 4.3857e-07
9605.6, 3.9759e-07
9607.6, 4.4714e-07
9609.6, 4.2498e-07
9611.6, 4.4168e-07
9613.6, 4.2384e-07
9615.6, 4.6181e-07
9617.6, 4.9468e-07
9619.6, 4.6664e-07
9621.6, 4.1647e-07
9623.6, 4.8592e-07
9625.6, 4.6329e-07
9627.6, 4.7081e-07
9629.6, 4.4013e-07
9631.6, 4.6333e-07
9633.6, 4.7757e-07
9635.6, 4.0978e-07
9637.6, 4.6821e-07
9639.6, 4.1164e-07
9641.6, 4.9174e-07
9643.6, 4.372e-07
9645.6, 4.3364e-07
9647.6, 4.5322e-07
9649.6, 4.4687e-07
9651.6, 4.1729e-07
9653.6, 4.4043e-07
9655.6, 4.6708e-07
9657.6, 5.0163e-07
9659.6, 4.6346e-07
9661.7, 4.6968e-07
9663.7, 4.3218e-07
9665.7, 4.7852e-07
9667.7, 4.7614e-07
9669.7, 4.5752e-07
9671.7, 4.3379e-07
9673.7, 4.5518e-07
9675.7, 4.4801e-07
9677.7, 4.402e-07
9679.7, 4.1827e-07
9681.7, 4.9093e-07
9683.7, 4.9164e-07
9685.7, 4.7765e-07
9687.7, 4.8909e-07
9689.7, 4.1446e-07
9691.7, 4.4874e-07
9693.7, 4.8654e-07
9695.7, 4.9554e-07
9697.7, 4.9009e-07
9699.7, 4.173e-07
9701.7, 4.6184e-07
9703.7, 5.0133e-07
9705.7, 4.3893e-07
9707.7, 4.7058e-07
9709.7, 4.8712e-07
9711.7, 4.4873e-07
9713.7, 4.5871e-07
9715.7, 5.0237e-07
9717.7, 4.6057e-07
9719.7, 4.4433e-07
9721.7, 4.4398e-07
9723.7, 4.2468e-07
9725.7, 4.7804e-07
9727.7, 4.8302e-07
9729.7, 4.2625e-07
9731.7, 4.5016e-07
9733.7, 4.4038e-07
9735.7, 4.7364e-07
9737.7, 4.5997e-07
9739.7, 4.0352e-07
9741.7, 4.1962e-07
9743.7, 4.3411e-07
9745.7, 4.7792e-07
9747.7, 4.8759e-07
9749.7, 4.0319e-07
9751.7, 4.7391e-07
9753.7, 4.4139e-07
9755.7, 4.2179e-07
9757.7, 4.9652e-07
9759.7, 4.5742e-07
9761.8, 4.5682e-07
9763.8, 4.0037e-07
9765.8, 4.6212e-07
9767.8, 4.7987e-07
9769.8, 4.6182e-07
9771.8, 4.5511e-07
9773.8, 4.8399e-07
9775.8, 4.6577e-07
9777.8, 4.8607e-07
9779.8, 3.9946e-07
9781.8, 4.451e-07
9783.8, 4.152e-07
9785.8, 4.2112e-07
9787.8, 4.5808e-07
9789.8, 4.2056e-07
9791.8, 4.8457e-07
9793.8, 4.4994e-07
9795.8, 4.3769e-07
9797.8, 4.6269e-07
9799.8, 4.0892e-07
9801.8, 4.358e-07
9803.8, 4.8665e-07
9805.8, 4.3954e-07
9807.8, 4.8553e-07
9809.8, 4.7261e-07
9811.8, 4.6393e-07
9813.8, 4.5298e-07
9815.8, 5.0735e-07
9817.8, 4.791e-07
9819.8, 4.8231e-07
9821.8, 4.8347e-07
9823.8, 4.1202e-07
9825.8, 4.7004e-07
9827.8, 4.6519e-07
9829.8, 4.115e-07
9831.8, 4.4882e-07
9833.8, 5.0136e-07
9835.8, 4.6172e-07
9837.8, 5.0173e-07
9839.8, 4.8079e-07
9841.8, 4.1348e-07
9843.8, 4.425e-07
9845.8, 4.5638e-07
9847.8, 4.4157e-07
9849.8, 4.3794e-07
9851.8, 4.8907e-07
9853.8, 4.4033e-07
9855.8, 4.0737e-07
9857.8, 4.4949e-07
9859.8, 4.1969e-07
9861.9, 4.5468e-07
9863.9, 4.2314e-07
9865.9, 4.9333e-07
9867.9, 4.2047e-07
9869.9, 4.3827e-07
9871.9, 4.5531e-07
9873.9, 4.5479e-07
9875.9, 4.1429e-07
9877.9, 4.7489e-07
9879.9, 4.2427e-07
9881.9, 4.0087e-07
9883.9, 4.6622e-07
9885.9, 4.4674e-07
9887.9, 4.584e-07
9889.9, 4.566e-07
9891.9, 4.6289e-07
9893.9, 4.9288e-07
9895.9, 5.125e-07
9897.9, 4.4473e-07
9899.9, 4.7158e-07
9901.9, 4.2869e-07
9903.9, 4.9928e-07
9905.9, 4.7269e-07
9907.9, 4.1926e-07
9909.9, 4.3101e-07
9911.9, 4.6107e-07
9913.9, 4.2268e-07
9915.9, 4.7145e-07
9917.9, 4.6939e-07
9919.9, 4.6186e-07
9921.9, 4.2973e-07
9923.9, 4.3827e-07
9925.9, 4.2296e-07
9927.9, 4.359e-07
9929.9, 4.4941e-07
9931.9, 4.8582e-07
9933.9, 4.3156e-07
9935.9, 4.284e-07
9937.9, 4.5439e-07
9939.9, 4.4551e-07
9941.9, 4.2863e-07
9943.9, 4.3604e-07
9945.9, 4.3938e-07
9947.9, 4.6763e-07
9949.9, 4.7488e-07
9951.9, 4.8173e-07
9953.9, 4.5291e-07
9955.9, 4.8776e-07
9957.9, 5.0009e-07
9959.9, 4.1351e-07
9962.0, 4.5773e-07
9964.0, 4.291e-07
9966.0, 4.5681e-07
9968.0, 4.7845e-07
9970.0, 4.4857e-07
9972.0, 4.8515e-07
9974.0, 4.5856e-07
9976.0, 4.578e-07
9978.0, 4.6082e-07
9980.0, 4.5912e-07
9982.0, 4.3952e-07
9984.0, 5.1389e-07
9986.0, 4.3604e-07
9988.0, 3.8742e-07
9990.0, 4.5792e-07
9992.0, 4.729e-07
9994.0, 4.8728e-07
9996.0, 4.5098e-07
9998.0, 4.417e-07
10000.0, 4.5576e-07
10002.0, 4.4137e-07
10004.0, 4.4319e-07
10006.0, 4.154e-07
10008.0, 4.6957e-07
10010.0, 4.2048e-07
10012.0, 4.0965e-07
10014.0, 4.9155e-07
10016.0, 4.6275e-07
10018.0, 4.2948e-07
10020.0, 4.4595e-07
10022.0, 4.3196e-07
10024.0, 4.3927e-07
10026.0, 4.6257e-07
10028.0, 4.5471e-07
10030.0, 4.2519e-07
10032.0, 4.1712e-07
10034.0, 4.509e-07
10036.0, 4.2091e-07
10038.0, 4.3146e-07
10040.0, 4.7747e-07
10042.0, 4.7365e-07
10044.0, 4.6228e-07
10046.0, 4.7267e-07
10048.0, 4.7422e-07
10050.0, 4.6593e-07
10052.0, 4.6885e-07
10054.0, 4.5907e-07
10056.0, 4.2493e-07
10058.0, 4.4309e-07
10060.0, 4.3965e-07
10062.0, 4.4611e-07
10064.0, 5.162e-07
10066.0, 4.5079e-07
10068.0, 4.4962e-07
10070.0, 4.4577e-07
10072.0, 4.739e-07
10074.0, 4.2828e-07
10076.0, 4.433e-07
10078.0, 4.4932e-07
10080.0, 4.8238e-07
10082.0, 4.5466e-07
10084.0, 4.5875e-07
10086.0, 4.1554e-07
10088.0, 4.5841e-07
10090.0, 4.7225e-07
10092.0, 4.6292e-07
10094.0, 4.2228e-07
10096.0, 4.3804e-07
10098.0, 4.7331e-07
10100.0, 4.6394e-07
10102.0, 4.5732e-07
10104.0, 5.1845e-07
10106.0, 3.9939e-07
10108.0, 4.5749e-07
10110.0, 4.2342e-07
10112.0, 4.2168e-07
10114.0, 4.8329e-07
10116.0, 4.9813e-07
10118.0, 4.3511e-07
10120.0, 4.3367e-07
10122.0, 4.5359e-07
10124.0, 4.4089e-07
10126.0, 4.3989e-07
10128.0, 4.5654e-07
10130.0, 4.3463e-07
10132.0, 4.2789e-07
10134.0, 4.5701e-07
10136.0, 4.6012e-07
10138.0, 4.8323e-07
10140.0, 4.4045e-07
10142.0, 4.6201e-07
10144.0, 4.519e-07
10146.0, 4.9094e-07
10148.0, 4.2741e-07
10150.0, 4.4078e-07
10152.0, 4.7221e-07
10154.0, 4.198e-07
10156.0, 4.7452e-07
10158.0, 4.1558e-07
10160.0, 4.5219e-07
10162.0, 4.4807e-07
10164.0, 4.6107e-07
10166.0, 4.7528e-07
10168.0, 5.0832e-07
10170.0, 4.7278e-07
10172.0, 4.7961e-07
10174.0, 4.5271e-07
10176.0, 4.8517e-07
10178.0, 4.5003e-07
10180.0, 4.4002e-07
10182.0, 4.2042e-07
10184.0, 4.1669e-07
10186.0, 4.8904e-07
10188.0, 4.7787e-07
10190.0, 4.6046e-07
10192.0, 4.4776e-07
10194.0, 4.5414e-07
10196.0, 4.6444e-07
10198.0, 4.8081e-07
10200.0, 4.9968e-07
10202.0, 4.4975e-07
10204.0, 4.5212e-07
10206.0, 4.306e-07
10208.0, 5.0084e-07
10210.0, 4.494e-07
10212.0, 4.4024e-07
10214.0, 4.9298e-07
10216.0, 4.4514e-07
10218.0, 4.7098e-07
10220.0, 4.8549e-07
10222.0, 4.7723e-07
10224.0, 2.0384e-07
10226.0, -3.514e-08
10228.0, -4.031e-08
10230.0, -3.829e-08
10232.0, -4.479e-08
10234.0, -4.362e-08
10236.0, -4.143e-08
10238.0, -3.795e-08
10240.0, -4.223e-08
10242.0, -3.609e-08
10244.0, -3.791e-08
10246.0, -3.489e-08
10248.0, -4.053e-08
10250.0, -4.095e-08
10252.0, -3.73e-08
10254.0, -3.933e-08
10256.0, -3.954e-08
10258.0, -3.647e-08
10260.0, -3.71e-08
10262.0, -3.71e-08
10264.0, -3.319e-08
10266.0, -3.513e-08
10268.0, -3.866e-08
10270.0, -3.784e-08
10272.0, -4.001e-08
10274.0, -3.455e-08
10276.0, -3.669e-08
10278.0, -3.619e-08
10280.0, -3.845e-08
10282.0, -4.267e-08
10284.0, -3.998e-08
10286.0, -4.232e-08
10288.0, -4.261e-08
10290.0, -4.13e-08
10292.0, -3.734e-08
10294.0, -3.762e-08
10296.0, -3.661e-08
10298.0, -3.894e-08
10300.0, -3.521e-08
10302.0, -4.171e-08
10304.0, -4.031e-08
10306.0, -3.774e-08
10308.0, -3.854e-08
10310.0, -4.336e-08
10312.0, -3.984e-08
10314.0, -3.799e-08
10316.0, -3.52e-08
10318.0, -4.129e-08
10320.0, -4.033e-08
10322.0, -4.512e-08
10324.0, -3.846e-08
10326.0, -4.274e-08
10328.0, -4.391e-08
10330.0, -4.162e-08
10332.0, -4.102e-08
10334.0, -4.315e-08
10336.0, -4.023e-08
10338.0, -4.217e-08
10340.0, -4.06e-08
10342.0, -3.786e-08
10344.0, -3.777e-08
10346.0, -4.288e-08
10348.0, -4.093e-08
10350.0, -3.846e-08
10352.0, -3.748e-08
10354.0, -3.903e-08
10356.0, -3.785e-08
10358.0, -3.835e-08
10360.0, -3.613e-08
10362.0, -3.597e-08
10364.0, -3.963e-08
10366.0, -3.735e-08
10368.0, -4.078e-08
10370.0, -3.962e-08
10372.0, -3.882e-08
10374.0, -3.628e-08
10376.0, -3.738e-08
10378.0, -3.66e-08
10380.0, -3.685e-08
10382.0, -3.701e-08
10384.0, -4.146e-08
10386.0, -3.988e-08
10388.0, -3.786e-08
10390.0, -3.964e-08
10392.0, -4.088e-08
10394.0, -4.422e-08
10396.0, -4.121e-08
10398.0, -4.364e-08
10400.0, -4.3e-08
10402.0, -4.415e-08
10404.0, -4.008e-08
10406.0, -3.883e-08
10408.0, -3.966e-08
10410.0, -3.896e-08
10412.0, -3.716e-08
10414.0, -4.039e-08
10416.0, -4.177e-08
10418.0, -3.901e-08
10420.0, -3.805e-08
10422.0, -3.822e-08
10424.0, -3.817e-08
10426.0, -3.659e-08
10428.0, -4.111e-08
10430.0, -3.844e-08
10432.0, -3.986e-08
10434.0, -3.811e-08
10436.0, -3.757e-08
10438.0, -4.072e-08
10440.0, -3.932e-08
10442.0, -3.989e-08
10444.0, -4.014e-08
10446.0, -4.012e-08
10448.0, -3.889e-08
10450.0, -3.92e-08
10452.0, -4.017e-08
10454.0, -3.729e-08
10456.0, -3.99e-08
10458.0, -4.325e-08
10460.0, -3.62e-08
10462.0, -3.618e-08
10464.0, -3.403e-08
10466.0, -3.811e-08
10468.0, -4.457e-08
10470.0, -3.831e-08
10472.0, -3.548e-08
10474.0, -3.844e-08
10476.0, -3.714e-08
10478.0, -3.832e-08
10480.0, -4.131e-08
10482.0, -3.884e-08
10484.0, -3.76e-08
10486.0, -4.08e-08
10488.0, -3.931e-08
10490.0, -3.728e-08
10492.0, -3.288e-08
10494.0, -3.622e-08
10496.0, -4.138e-08
10498.0, -3.699e-08
10500.0, -3.688e-08
10502.0, -3.514e-08
10504.0, -3.581e-08
10506.0, -3.705e-08
10508.0, -3.593e-08
10510.0, -3.675e-08
10513.0, -3.531e-08
10515.0, -3.802e-08
10517.0, -3.477e-08
10519.0, -3.564e-08
10521.0, -3.593e-08
10523.0, -3.882e-08
10525.0, -3.404e-08
10527.0, -3.457e-08
10529.0, -3.745e-08
10531.0, -3.428e-08
10533.0, -3.77e-08
10535.0, -3.624e-08
10537.0, -3.561e-08
10539.0, -3.421e-08
10541.0, -3.441e-08
10543.0, -3.463e-08
10545.0, -3.706e-08
10547.0, -4.081e-08
10549.0, -4.027e-08
10551.0, -3.815e-08
10553.0, -4.032e-08
10555.0, -4.25e-08
10557.0, -4.344e-08
10559.0, -4.342e-08
10561.0, -3.898e-08
10563.0, -3.865e-08
10565.0, -3.717e-08
10567.0, -3.738e-08
10569.0, -3.73e-08
10571.0, -3.666e-08
10573.0, -3.917e-08
10575.0, -3.829e-08
10577.0, -3.782e-08
10579.0, -4.199e-08
10581.0, -3.884e-08
10583.0, -3.893e-08
10585.0, -3.751e-08
10587.0, -3.89e-08
10589.0, -3.81e-08
10591.0, -3.771e-08
10593.0, -3.535e-08
10595.0, -3.675e-08
10597.0, -3.781e-08
10599.0, -3.723e-08
10601.0, -3.587e-08
10603.0, -3.695e-08
10605.0, -3.773e-08
10607.0, -4.181e-08
10609.0, -3.768e-08
10611.0, -3.461e-08
10613.0, -4.08e-08
10615.0, -3.763e-08
10617.0, -3.699e-08
10619.0, -3.361e-08
10621.0, -2.924e-08
10623.0, -2.981e-08
10625.0, -3.316e-08
10627.0, -4.011e-08
10629.0, -3.885e-08
10631.0, -4.224e-08
10633.0, -3.317e-08
10635.0, -4.068e-08
10637.0, -3.894e-08
10639.0, -3.946e-08
10641.0, -3.763e-08
10643.0, -4.01e-08
10645.0, -4.144e-08
10647.0, -4.003e-08
10649.0, -4.17e-08
10651.0, -3.846e-08
10653.0, -3.567e-08
10655.0, -3.423e-08
10657.0, -3.779e-08
10659.0, -3.837e-08
10661.0, -4.003e-08
10663.0, -3.348e-08
10665.0, -3.719e-08
10667.0, -3.798e-08
10669.0, -4.035e-08
10671.0, -4.098e-08
10673.0, -3.826e-08
10675.0, -4.026e-08
10677.0, -3.969e-08
10679.0, -3.793e-08
10681.0, -3.923e-08
10683.0, -4.339e-08
10685.0, -3.969e-08
10687.0, -3.912e-08
10689.0, -3.665e-08
10691.0, -3.727e-08
10693.0, -3.8e-08
10695.0, -3.687e-08
10697.0, -3.563e-08
10699.0, -4.123e-08
10701.0, -3.679e-08
10703.0, -3.587e-08
10705.0, -3.451e-08
10707.0, -3.993e-08
10709.0, -3.933e-08
10711.0, -4.176e-08
10713.0, -4.118e-08
10715.0, -3.778e-08
10717.0, -3.786e-08
10719.0, -3.697e-08
10721.0, -4.044e-08
10723.0, -3.795e-08
10725.0, -3.443e-08
10727.0, -3.849e-08
10729.0, -3.686e-08
10731.0, -3.543e-08
10733.0, -3.671e-08
10735.0, -3.58e-08
10737.0, -3.645e-08
10739.0, -3.962e-08
10741.0, -3.736e-08
10743.0, -3.981e-08
10745.0, -3.601e-08
10747.0, -3.483e-08
10749.0, -3.248e-08
10751.0, -3.206e-08
10753.0, -3.047e-08
10755.0, -3.04e-08
10757.0, -3.323e-08
10759.0, -3.283e-08
10761.0, -3.759e-08
10763.0, -3.679e-08
10765.0, -3.72e-08
10767.0, -3.768e-08
10769.0, -3.572e-08
10771.0, -3.372e-08
10773.0, -3.254e-08
10775.0, -3.842e-08
10777.0, -4.156e-08
10779.0, -3.626e-08
10781.0, -4.27e-08
10783.0, -4.071e-08
10785.0, -3.938e-08
10787.0, -4.005e-08
10789.0, -4.007e-08
10791.0, -3.869e-08
10793.0, -4.172e-08
10795.0, -3.901e-08
10797.0, -3.697e-08
10799.0, -3.875e-08
10801.0, -3.609e-08
10803.0, -3.657e-08
10805.0, -3.703e-08
10807.0, -3.445e-08
10809.0, -3.628e-08
10811.0, -3.871e-08
10813.0, -3.926e-08
10815.0, -3.63e-08
10817.0, -3.688e-08
10819.0, -3.753e-08
10821.0, -3.556e-08
10823.0, -3.49e-08
10825.0, -3.46e-08
10827.0, -3.51e-08
10829.0, -3.436e-08
10831.0, -3.274e-08
10833.0, -3.28e-08
10835.0, -3.684e-08
10837.0, -3.262e-08
10839.0, -3.663e-08
10841.0, -3.848e-08
10843.0, -3.682e-08
10845.0, -3.592e-08
10847.0, -3.655e-08
10849.0, -3.186e-08
10851.0, -3.302e-08
10853.0, -3.231e-08
10855.0, -3.567e-08
10857.0, -3.41e-08
10859.0, -3.584e-08
10861.0, -3.443e-08
10863.0, -3.162e-08
10865.0, -3.706e-08
10867.0, -3.46e-08
10869.0, -3.651e-08
10871.0, -3.522e-08
10873.0, -3.53e-08
10875.0, -3.523e-08
10877.0, -3.833e-08
10879.0, -3.577e-08
10881.0, -3.376e-08
10883.0, -3.37e-08
10885.0, -3.326e-08
10887.0, -3.223e-08
10889.0, -3.094e-08
10891.0, -3.42e-08
10893.0, -2.881e-08
10895.0, -3.246e-08
10897.0, -2.781e-08
10899.0, -2.905e-08
10901.0, -2.994e-08
10903.0, -3.101e-08
10905.0, -3.157e-08
10907.0, -3.278e-08
10909.0, -3.417e-08
10911.0, -3.095e-08
10913.0, -3.164e-08
10915.0, -2.901e-08
10917.0, -3.156e-08
10919.0, -3.526e-08
10921.0, -3.245e-08
10923.0, -3.48e-08
10925.0, -3.418e-08
10927.0, -3.454e-08
10929.0, -3.664e-08
10931.0, -3.526e-08
10933.0, -3.345e-08
10935.0, -2.961e-08
10937.0, -3.238e-08
10939.0, -3.691e-08
10941.0, -3.484e-08
10943.0, -3.43e-08
10945.0, -3.888e-08
10947.0, -3.504e-08
10949.0, -3.292e-08
10951.0, -3.377e-08
10953.0, -3.062e-08
10955.0, -3.374e-08
10957.0, -3.579e-08
10959.0, -3.331e-08
10961.0, -3.503e-08
10963.0, -3.615e-08
10965.0, -3.426e-08
10967.0, -3.333e-08
10969.0, -3.606e-08
10971.0, -3.676e-08
10973.0, -3.582e-08
10975.0, -3.95e-08
10977.0, -3.621e-08
10979.0, -3.767e-08
10981.0, -4.024e-08
10983.0, -3.728e-08
10985.0, -3.79e-08
10987.0, -3.813e-08
10989.0, -3.961e-08
10991.0, -4.031e-08
10993.0, -3.804e-08
10995.0, -3.537e-08
10997.0, -3.907e-08
10999.0, -3.398e-08
11001.0, -3.302e-08
11003.0, -3.643e-08
11005.0, -3.572e-08
11007.0, -3.786e-08
11009.0, -3.729e-08
