Time sep (ms?), Current (A)
0.0, -3.732e-08
2.002, -4.126e-08
4.004, -3.742e-08
6.006, -3.798e-08
8.008, -3.655e-08
10.01, -3.838e-08
12.012, -3.886e-08
14.014, -3.912e-08
16.016, -3.798e-08
18.018, -3.535e-08
20.02, -3.62e-08
22.022, -3.554e-08
24.024, -3.482e-08
26.026, -3.705e-08
28.028, -3.617e-08
30.03, -3.631e-08
32.032, -3.464e-08
34.034, -3.299e-08
36.036, -3.587e-08
38.038, -3.24e-08
40.04, -3.679e-08
42.042, -3.67e-08
44.044, -3.68e-08
46.046, -3.696e-08
48.048, -3.841e-08
50.05, -3.543e-08
52.052, -3.46e-08
54.054, -3.574e-08
56.056, -3.32e-08
58.058, -3.468e-08
60.06, -3.361e-08
62.062, -3.431e-08
64.064, -3.717e-08
66.066, -3.269e-08
68.068, -3.56e-08
70.07, -3.526e-08
72.072, -3.816e-08
74.074, -3.749e-08
76.076, -3.673e-08
78.078, -3.922e-08
80.08, -3.621e-08
82.082, -3.433e-08
84.084, -3.213e-08
86.086, -3.836e-08
88.088, -3.831e-08
90.09, -3.733e-08
92.092, -3.534e-08
94.094, -3.511e-08
96.096, -3.621e-08
98.098, -3.451e-08
100.1, -3.589e-08
102.1, -3.819e-08
104.1, -3.79e-08
106.11, -3.777e-08
108.11, -3.38e-08
110.11, -3.428e-08
112.11, -3.599e-08
114.11, -3.63e-08
116.12, -3.462e-08
118.12, -3.185e-08
120.12, -3.514e-08
122.12, -3.766e-08
124.12, -3.702e-08
126.13, -3.855e-08
128.13, -3.558e-08
130.13, -3.386e-08
132.13, -3.693e-08
134.13, -3.939e-08
136.14, -3.713e-08
138.14, -3.837e-08
140.14, -3.703e-08
142.14, -3.804e-08
144.14, -3.442e-08
146.15, -3.404e-08
148.15, -3.577e-08
150.15, -3.632e-08
152.15, -3.589e-08
154.15, -3.664e-08
156.16, -3.562e-08
158.16, -3.441e-08
160.16, -3.173e-08
162.16, -3.804e-08
164.16, -3.656e-08
166.17, -3.426e-08
168.17, -3.981e-08
170.17, -4.013e-08
172.17, -3.653e-08
174.17, -4.081e-08
176.18, -3.707e-08
178.18, -3.874e-08
180.18, -3.883e-08
182.18, -3.841e-08
184.18, -3.678e-08
186.19, -3.355e-08
188.19, -3.664e-08
190.19, -3.607e-08
192.19, -3.771e-08
194.19, -3.578e-08
196.2, -3.305e-08
198.2, -3.469e-08
200.2, -3.435e-08
202.2, -3.89e-08
204.2, -3.614e-08
206.21, -3.439e-08
208.21, -3.416e-08
210.21, -3.336e-08
212.21, -3.597e-08
214.21, -3.528e-08
216.22, -3.812e-08
218.22, -3.751e-08
220.22, -3.894e-08
222.22, -3.799e-08
224.22, -3.936e-08
226.23, -3.892e-08
228.23, -3.646e-08
230.23, -3.316e-08
232.23, -3.879e-08
234.23, -3.406e-08
236.24, -3.576e-08
238.24, -3.361e-08
240.24, -3.398e-08
242.24, -3.376e-08
244.24, -3.564e-08
246.25, -3.654e-08
248.25, -3.777e-08
250.25, -3.526e-08
252.25, -3.62e-08
254.25, -3.612e-08
256.26, -3.458e-08
258.26, -3.599e-08
260.26, -3.39e-08
262.26, -3.54e-08
264.26, -3.734e-08
266.27, -3.587e-08
268.27, -3.483e-08
270.27, -3.248e-08
272.27, -3.392e-08
274.27, -3.407e-08
276.28, -3.69e-08
278.28, -3.516e-08
280.28, -3.638e-08
282.28, -3.465e-08
284.28, -3.648e-08
286.29, -3.638e-08
288.29, -3.804e-08
290.29, -3.614e-08
292.29, -3.336e-08
294.29, -3.609e-08
296.3, -3.691e-08
298.3, -3.778e-08
300.3, -3.566e-08
302.3, -3.37e-08
304.3, -3.939e-08
306.31, -3.459e-08
308.31, -3.36e-08
310.31, -3.773e-08
312.31, -3.79e-08
314.31, -3.706e-08
316.32, -3.7e-08
318.32, -3.812e-08
320.32, -3.88e-08
322.32, -3.718e-08
324.32, -3.878e-08
326.33, -3.669e-08
328.33, -3.676e-08
330.33, -4.046e-08
332.33, -3.738e-08
334.33, -3.753e-08
336.34, -3.618e-08
338.34, -3.467e-08
340.34, -3.273e-08
342.34, -3.772e-08
344.34, -3.433e-08
346.35, -3.62e-08
348.35, -3.822e-08
350.35, -4.101e-08
352.35, -3.803e-08
354.35, -3.453e-08
356.36, -3.281e-08
358.36, -3.551e-08
360.36, -3.41e-08
362.36, -3.828e-08
364.36, -3.874e-08
366.37, -3.582e-08
368.37, -3.563e-08
370.37, -3.427e-08
372.37, -3.198e-08
374.37, -3.138e-08
376.38, -3.32e-08
378.38, -3.608e-08
380.38, -3.79e-08
382.38, -3.727e-08
384.38, -3.564e-08
386.39, -3.302e-08
388.39, -3.362e-08
390.39, -3.37e-08
392.39, -3.537e-08
394.39, -3.532e-08
396.4, -3.701e-08
398.4, -3.508e-08
400.4, -3.668e-08
402.4, -3.611e-08
404.4, -3.398e-08
406.41, -4.136e-08
408.41, -3.639e-08
410.41, -3.71e-08
412.41, -3.293e-08
414.41, -3.44e-08
416.42, -3.479e-08
418.42, -3.388e-08
420.42, -3.404e-08
422.42, -3.586e-08
424.42, -3.128e-08
426.43, -3.248e-08
428.43, -3.15e-08
430.43, -3.093e-08
432.43, -3.291e-08
434.43, -3.26e-08
436.44, -2.811e-08
438.44, -3.328e-08
440.44, -3.09e-08
442.44, -3.16e-08
444.44, -3.315e-08
446.45, -3.046e-08
448.45, -3.082e-08
450.45, -3.215e-08
452.45, -3.146e-08
454.45, -3.076e-08
456.46, -3.57e-08
458.46, -3.727e-08
460.46, -3.675e-08
462.46, -3.653e-08
464.46, -3.791e-08
466.47, -3.688e-08
468.47, -3.588e-08
470.47, -3.568e-08
472.47, -3.58e-08
474.47, -3.401e-08
476.48, -3.393e-08
478.48, -3.493e-08
480.48, -3.564e-08
482.48, -3.535e-08
484.48, -3.387e-08
486.49, -3.121e-08
488.49, -3.432e-08
490.49, -3.411e-08
492.49, -3.693e-08
494.49, -3.177e-08
496.5, -3.335e-08
498.5, -3.255e-08
500.5, -3.253e-08
502.5, -3.385e-08
504.5, -3.692e-08
506.51, -3.4e-08
508.51, -3.348e-08
510.51, -3.523e-08
512.51, -3.653e-08
514.51, -3.544e-08
516.52, -3.663e-08
518.52, -3.714e-08
520.52, -3.588e-08
522.52, -3.457e-08
524.52, -3.273e-08
526.53, -3.586e-08
528.53, -3.41e-08
530.53, -3.492e-08
532.53, -3.661e-08
534.53, -3.571e-08
536.54, -3.613e-08
538.54, -3.055e-08
540.54, -3.321e-08
542.54, -3.235e-08
544.54, -3.636e-08
546.55, -3.62e-08
548.55, -3.401e-08
550.55, -3.503e-08
552.55, -3.503e-08
554.55, -3.576e-08
556.56, -3.752e-08
558.56, -3.611e-08
560.56, -3.342e-08
562.56, -3.476e-08
564.56, -3.405e-08
566.57, -3.789e-08
568.57, -3.072e-08
570.57, -3.376e-08
572.57, -3.276e-08
574.57, -3.441e-08
576.58, -3.707e-08
578.58, -3.357e-08
580.58, -3.438e-08
582.58, -3.492e-08
584.58, -3.612e-08
586.59, -3.419e-08
588.59, -3.409e-08
590.59, -3.342e-08
592.59, -3.514e-08
594.59, -3.57e-08
596.6, -2.941e-08
598.6, -3.489e-08
600.6, -3.351e-08
602.6, -3.147e-08
604.6, -3.34e-08
606.61, -3.274e-08
608.61, -3.37e-08
610.61, -3.531e-08
612.61, -3.424e-08
614.61, -3.533e-08
616.62, -3.269e-08
618.62, -3.216e-08
620.62, -3.225e-08
622.62, -3.411e-08
624.62, -3.448e-08
626.63, -3.079e-08
628.63, -3.143e-08
630.63, -3.32e-08
632.63, -3.307e-08
634.63, -3.306e-08
636.64, -3.075e-08
638.64, -2.803e-08
640.64, -3.615e-08
642.64, -3.285e-08
644.64, -3.274e-08
646.65, -3.107e-08
648.65, -3.023e-08
650.65, -3.428e-08
652.65, -3.291e-08
654.65, -3.348e-08
656.66, -3.221e-08
658.66, -3.041e-08
660.66, -3.501e-08
662.66, -3.447e-08
664.66, -3.541e-08
666.67, -3.233e-08
668.67, -3.438e-08
670.67, -3.207e-08
672.67, -3.16e-08
674.67, -3.097e-08
676.68, -3.069e-08
678.68, -2.917e-08
680.68, -3.048e-08
682.68, -3.083e-08
684.68, -3.516e-08
686.69, -2.874e-08
688.69, -3.247e-08
690.69, -3.418e-08
692.69, -3.083e-08
694.69, -3.097e-08
696.7, -3.36e-08
698.7, -3.054e-08
700.7, -3.128e-08
702.7, -3.025e-08
704.7, -3.086e-08
706.71, -3.327e-08
708.71, -2.776e-08
710.71, -2.85e-08
712.71, -3.237e-08
714.71, -3.075e-08
716.72, -3.023e-08
718.72, -3.28e-08
720.72, -3.085e-08
722.72, -3.219e-08
724.72, -3.302e-08
726.73, -3.241e-08
728.73, -2.885e-08
730.73, -3.544e-08
732.73, -3.539e-08
734.73, -3.39e-08
736.74, -3.089e-08
738.74, -3.039e-08
740.74, -3.215e-08
742.74, -3.126e-08
744.74, -3.159e-08
746.75, -3.103e-08
748.75, -3.659e-08
750.75, -3.532e-08
752.75, -3.134e-08
754.75, -3.241e-08
756.76, -3.5e-08
758.76, -3.194e-08
760.76, -3.821e-08
762.76, -3.478e-08
764.76, -3.899e-08
766.77, -3.644e-08
768.77, -3.478e-08
770.77, -3.242e-08
772.77, -3.65e-08
774.77, -3.627e-08
776.78, -3.542e-08
778.78, -3.192e-08
780.78, -3.025e-08
782.78, -3.238e-08
784.78, -3.541e-08
786.79, -3.142e-08
788.79, -2.893e-08
790.79, -3.037e-08
792.79, -3.282e-08
794.79, -3.608e-08
796.8, -3.123e-08
798.8, -3.211e-08
800.8, -3.327e-08
802.8, -3.31e-08
804.8, -3.456e-08
806.81, -3.026e-08
808.81, -3.455e-08
810.81, -3.347e-08
812.81, -3.169e-08
814.81, -3.367e-08
816.82, -3.057e-08
818.82, -2.758e-08
820.82, -3.084e-08
822.82, -3.328e-08
824.82, -3.438e-08
826.83, -3.438e-08
828.83, -3.428e-08
830.83, -3.513e-08
832.83, -3.458e-08
834.83, -3.601e-08
836.84, -3.419e-08
838.84, -3.541e-08
840.84, -3.536e-08
842.84, -4.017e-08
844.84, -3.991e-08
846.85, -3.373e-08
848.85, -3.036e-08
850.85, -3.672e-08
852.85, -3.408e-08
854.85, -3.523e-08
856.86, -3.523e-08
858.86, -2.967e-08
860.86, -3.484e-08
862.86, -3.925e-08
864.86, -3.512e-08
866.87, -3.429e-08
868.87, -3.194e-08
870.87, -3.402e-08
872.87, -3.632e-08
874.87, -3.059e-08
876.88, -3.469e-08
878.88, -3.065e-08
880.88, -3.459e-08
882.88, -3e-08
884.88, -2.968e-08
886.89, -3.068e-08
888.89, -3.116e-08
890.89, -3.259e-08
892.89, -3.385e-08
894.89, -3.152e-08
896.9, -3.701e-08
898.9, -3.121e-08
900.9, -3.454e-08
902.9, -3.517e-08
904.9, -3.271e-08
906.91, -2.999e-08
908.91, -3.313e-08
910.91, -3.424e-08
912.91, -3.32e-08
914.91, -3.335e-08
916.92, -3.453e-08
918.92, -3.321e-08
920.92, -3.67e-08
922.92, -3.351e-08
924.92, -3.743e-08
926.93, -3.261e-08
928.93, -3.126e-08
930.93, -3.358e-08
932.93, -3.261e-08
934.93, -3.108e-08
936.94, -3.148e-08
938.94, -3.248e-08
940.94, -3.41e-08
942.94, -3.034e-08
944.94, -3.384e-08
946.95, -3.194e-08
948.95, -3.431e-08
950.95, -3.504e-08
952.95, -3.507e-08
954.95, -3.427e-08
956.96, -3.554e-08
958.96, -3.624e-08
960.96, -3.749e-08
962.96, -4.085e-08
964.96, -4.062e-08
966.97, -3.937e-08
968.97, -3.806e-08
970.97, -3.735e-08
972.97, -3.54e-08
974.97, -3.422e-08
976.98, -3.39e-08
978.98, -3.22e-08
980.98, -3.461e-08
982.98, -3.352e-08
984.98, -3.465e-08
986.99, -3.523e-08
988.99, -3.69e-08
990.99, -3.408e-08
992.99, -3.496e-08
994.99, -3.106e-08
997.0, -3.344e-08
999.0, -3.466e-08
1001.0, -3.294e-08
1003.0, -3.304e-08
1005.0, -3.06e-08
1007.0, -3.12e-08
1009.0, -3.312e-08
1011.0, -2.907e-08
1013.0, -3.108e-08
1015.0, -3.07e-08
1017.0, -2.498e-08
1019.0, -3.11e-08
1021.0, -2.883e-08
1023.0, -3.296e-08
1025.0, -3.339e-08
1027.0, -3.219e-08
1029.0, -3.265e-08
1031.0, -3.239e-08
1033.0, -3.519e-08
1035.0, -3.304e-08
1037.0, -3.384e-08
1039.0, -2.8e-08
1041.0, -3.237e-08
1043.0, -3.168e-08
1045.0, -3.299e-08
1047.0, -3.119e-08
1049.0, -3.247e-08
1051.0, 2.1579e-06
1053.1, 3.5663e-06
1055.1, 3.83e-06
1057.1, 3.8862e-06
1059.1, 4.073e-06
1061.1, 3.552e-06
1063.1, 3.8666e-06
1065.1, 3.7818e-06
1067.1, 3.91e-06
1069.1, 4.3169e-06
1071.1, 4.3927e-06
1073.1, 4.1442e-06
1075.1, 4.4444e-06
1077.1, 3.8561e-06
1079.1, 3.7388e-06
1081.1, 3.8813e-06
1083.1, 4.0355e-06
1085.1, 3.8077e-06
1087.1, 3.6697e-06
1089.1, 3.7797e-06
1091.1, 3.5308e-06
1093.1, 3.8899e-06
1095.1, 3.8536e-06
1097.1, 3.7676e-06
1099.1, 3.9827e-06
1101.1, 4.2489e-06
1103.1, 4.1292e-06
1105.1, 3.6335e-06
1107.1, 3.4292e-06
1109.1, 3.9862e-06
1111.1, 4.0899e-06
1113.1, 4.2901e-06
1115.1, 3.957e-06
1117.1, 3.997e-06
1119.1, 4.1883e-06
1121.1, 3.5657e-06
1123.1, 4.2218e-06
1125.1, 4.1342e-06
1127.1, 4.2373e-06
1129.1, 4.1951e-06
1131.1, 4.1344e-06
1133.1, 4.2315e-06
1135.1, 3.9704e-06
1137.1, 4.2746e-06
1139.1, 4.1783e-06
1141.1, 4.2147e-06
1143.1, 4.1518e-06
1145.1, 3.9598e-06
1147.1, 4.1589e-06
1149.1, 4.31e-06
1151.1, 4.052e-06
1153.2, 3.6998e-06
1155.2, 4.1864e-06
1157.2, 3.9006e-06
1159.2, 4.4373e-06
1161.2, 4.1451e-06
1163.2, 4.2711e-06
1165.2, 4.2012e-06
1167.2, 4.2979e-06
1169.2, 4.0438e-06
1171.2, 3.958e-06
1173.2, 4.4204e-06
1175.2, 4.1872e-06
1177.2, 4.0102e-06
1179.2, 3.833e-06
1181.2, 4.1091e-06
1183.2, 3.7275e-06
1185.2, 3.9033e-06
1187.2, 4.0316e-06
1189.2, 4.2171e-06
1191.2, 3.8553e-06
1193.2, 4.2302e-06
1195.2, 4.1217e-06
1197.2, 3.701e-06
1199.2, 4.2527e-06
1201.2, 4.0434e-06
1203.2, 4.0532e-06
1205.2, 4.3385e-06
1207.2, 4.1613e-06
1209.2, 4.2085e-06
1211.2, 4.1537e-06
1213.2, 4.1426e-06
1215.2, 4.2168e-06
1217.2, 3.9388e-06
1219.2, 4.5442e-06
1221.2, 4.4842e-06
1223.2, 4.1027e-06
1225.2, 4.2502e-06
1227.2, 4.03e-06
1229.2, 4.3173e-06
1231.2, 4.1747e-06
1233.2, 4.391e-06
1235.2, 4.2642e-06
1237.2, 3.7688e-06
1239.2, 3.802e-06
1241.2, 4.1414e-06
1243.2, 4.0031e-06
1245.2, 4.0783e-06
1247.2, 4.2172e-06
1249.2, 4.0939e-06
1251.2, 4.3541e-06
1253.3, 4.1917e-06
1255.3, 4.0411e-06
1257.3, 4.1331e-06
1259.3, 4.235e-06
1261.3, 4.3918e-06
1263.3, 4.1475e-06
1265.3, 4.2233e-06
1267.3, 4.3503e-06
1269.3, 4.0606e-06
1271.3, 4.203e-06
1273.3, 4.5709e-06
1275.3, 4.2023e-06
1277.3, 4.3806e-06
1279.3, 4.4167e-06
1281.3, 3.7804e-06
1283.3, 4.2906e-06
1285.3, 4.4329e-06
1287.3, 4.0314e-06
1289.3, 4.2897e-06
1291.3, 4.2172e-06
1293.3, 4.3989e-06
1295.3, 4.2783e-06
1297.3, 3.8528e-06
1299.3, 4.3731e-06
1301.3, 4.0918e-06
1303.3, 4.5546e-06
1305.3, 4.1258e-06
1307.3, 4.329e-06
1309.3, 4.4659e-06
1311.3, 4.2347e-06
1313.3, 4.2266e-06
1315.3, 4.1753e-06
1317.3, 4.1709e-06
1319.3, 4.3742e-06
1321.3, 4.4242e-06
1323.3, 4.4291e-06
1325.3, 4.3497e-06
1327.3, 3.9356e-06
1329.3, 4.2599e-06
1331.3, 4.2526e-06
1333.3, 4.3297e-06
1335.3, 4.2997e-06
1337.3, 4.0949e-06
1339.3, 4.3418e-06
1341.3, 4.1591e-06
1343.3, 4.1336e-06
1345.3, 4.0331e-06
1347.3, 4.2378e-06
1349.3, 4.1292e-06
1351.3, 4.3073e-06
1353.4, 4.0792e-06
1355.4, 4.2804e-06
1357.4, 4.4822e-06
1359.4, 4.1017e-06
1361.4, 4.4754e-06
1363.4, 4.3809e-06
1365.4, 4.3045e-06
1367.4, 4.3136e-06
1369.4, 4.3299e-06
1371.4, 4.0902e-06
1373.4, 4.359e-06
1375.4, 4.3237e-06
1377.4, 4.0776e-06
1379.4, 4.4937e-06
1381.4, 4.3173e-06
1383.4, 4.2204e-06
1385.4, 4.0804e-06
1387.4, 4.3152e-06
1389.4, 4.2074e-06
1391.4, 4.4246e-06
1393.4, 4.2397e-06
1395.4, 4.3197e-06
1397.4, 4.4725e-06
1399.4, 4.314e-06
1401.4, 4.2293e-06
1403.4, 4.2422e-06
1405.4, 4.3532e-06
1407.4, 4.324e-06
1409.4, 4.4648e-06
1411.4, 4.1161e-06
1413.4, 4.0771e-06
1415.4, 4.2624e-06
1417.4, 4.2692e-06
1419.4, 4.3563e-06
1421.4, 4.3759e-06
1423.4, 4.5915e-06
1425.4, 4.2524e-06
1427.4, 4.2202e-06
1429.4, 4.2377e-06
1431.4, 4.455e-06
1433.4, 4.5538e-06
1435.4, 4.3118e-06
1437.4, 4.3534e-06
1439.4, 4.2779e-06
1441.4, 4.2495e-06
1443.4, 4.4889e-06
1445.4, 4.4152e-06
1447.4, 4.3938e-06
1449.4, 4.3e-06
1451.4, 4.6117e-06
1453.5, 4.3652e-06
1455.5, 4.1084e-06
1457.5, 4.1159e-06
1459.5, 4.394e-06
1461.5, 4.2621e-06
1463.5, 4.3206e-06
1465.5, 4.4378e-06
1467.5, 4.1302e-06
1469.5, 4.3058e-06
1471.5, 4.1769e-06
1473.5, 4.0484e-06
1475.5, 4.4256e-06
1477.5, 4.5032e-06
1479.5, 4.056e-06
1481.5, 4.4218e-06
1483.5, 4.2772e-06
1485.5, 4.4703e-06
1487.5, 4.2151e-06
1489.5, 4.3416e-06
1491.5, 4.4881e-06
1493.5, 4.4315e-06
1495.5, 4.3749e-06
1497.5, 4.2142e-06
1499.5, 4.1367e-06
1501.5, 4.3225e-06
1503.5, 4.5356e-06
1505.5, 4.4177e-06
1507.5, 4.3643e-06
1509.5, 4.4886e-06
1511.5, 4.3689e-06
1513.5, 4.6341e-06
1515.5, 4.6263e-06
1517.5, 4.3909e-06
1519.5, 4.4049e-06
1521.5, 4.4247e-06
1523.5, 4.3102e-06
1525.5, 4.2844e-06
1527.5, 4.3486e-06
1529.5, 4.4569e-06
1531.5, 4.4769e-06
1533.5, 3.8986e-06
1535.5, 4.3812e-06
1537.5, 4.3115e-06
1539.5, 4.2929e-06
1541.5, 4.4245e-06
1543.5, 4.3234e-06
1545.5, 4.3154e-06
1547.5, 4.3175e-06
1549.5, 4.3734e-06
1551.5, 4.2564e-06
1553.6, 4.6329e-06
1555.6, 4.1946e-06
1557.6, 4.4252e-06
1559.6, 4.0816e-06
1561.6, 4.2384e-06
1563.6, 4.3136e-06
1565.6, 4.5273e-06
1567.6, 4.4754e-06
1569.6, 4.5385e-06
1571.6, 4.3854e-06
1573.6, 4.4585e-06
1575.6, 4.4794e-06
1577.6, 4.0935e-06
1579.6, 4.0329e-06
1581.6, 4.1503e-06
1583.6, 4.3868e-06
1585.6, 4.3318e-06
1587.6, 4.412e-06
1589.6, 4.1084e-06
1591.6, 4.1667e-06
1593.6, 4.27e-06
1595.6, 4.5125e-06
1597.6, 4.4079e-06
1599.6, 4.4946e-06
1601.6, 4.1979e-06
1603.6, 4.4013e-06
1605.6, 4.6957e-06
1607.6, 4.3619e-06
1609.6, 4.5755e-06
1611.6, 4.1842e-06
1613.6, 4.1707e-06
1615.6, 4.5773e-06
1617.6, 4.1158e-06
1619.6, 4.4378e-06
1621.6, 4.5227e-06
1623.6, 4.1989e-06
1625.6, 4.3972e-06
1627.6, 4.4246e-06
1629.6, 4.4796e-06
1631.6, 4.0897e-06
1633.6, 4.4034e-06
1635.6, 4.4384e-06
1637.6, 4.4698e-06
1639.6, 4.5251e-06
1641.6, 4.261e-06
1643.6, 4.4822e-06
1645.6, 4.4144e-06
1647.6, 4.4885e-06
1649.6, 4.4433e-06
1651.6, 4.2717e-06
1653.7, 4.4676e-06
1655.7, 4.4479e-06
1657.7, 4.6162e-06
1659.7, 4.3244e-06
1661.7, 4.4692e-06
1663.7, 4.4412e-06
1665.7, 4.3697e-06
1667.7, 4.3577e-06
1669.7, 4.5506e-06
1671.7, 4.5242e-06
1673.7, 4.2412e-06
1675.7, 4.2944e-06
1677.7, 4.3965e-06
1679.7, 4.4777e-06
1681.7, 4.6038e-06
1683.7, 4.2522e-06
1685.7, 4.412e-06
1687.7, 4.6029e-06
1689.7, 4.4497e-06
1691.7, 4.3879e-06
1693.7, 4.3089e-06
1695.7, 4.4179e-06
1697.7, 4.3174e-06
1699.7, 4.2551e-06
1701.7, 4.398e-06
1703.7, 4.5903e-06
1705.7, 4.3049e-06
1707.7, 4.426e-06
1709.7, 4.303e-06
1711.7, 4.1461e-06
1713.7, 4.3937e-06
1715.7, 4.3845e-06
1717.7, 4.4442e-06
1719.7, 4.3987e-06
1721.7, 4.4698e-06
1723.7, 4.5666e-06
1725.7, 4.2431e-06
1727.7, 4.3931e-06
1729.7, 4.422e-06
1731.7, 4.5039e-06
1733.7, 4.1614e-06
1735.7, 4.4103e-06
1737.7, 4.6001e-06
1739.7, 4.2345e-06
1741.7, 4.4354e-06
1743.7, 4.6947e-06
1745.7, 4.5797e-06
1747.7, 4.5093e-06
1749.7, 4.3301e-06
1751.7, 4.571e-06
1753.8, 4.4831e-06
1755.8, 4.3694e-06
1757.8, 4.3091e-06
1759.8, 4.5278e-06
1761.8, 4.5107e-06
1763.8, 4.4015e-06
1765.8, 4.6557e-06
1767.8, 4.4104e-06
1769.8, 4.2759e-06
1771.8, 4.2368e-06
1773.8, 4.4257e-06
1775.8, 4.25e-06
1777.8, 4.4247e-06
1779.8, 4.255e-06
1781.8, 4.5452e-06
1783.8, 4.388e-06
1785.8, 4.3767e-06
1787.8, 4.1082e-06
1789.8, 4.535e-06
1791.8, 4.3846e-06
1793.8, 4.4648e-06
1795.8, 4.55e-06
1797.8, 4.1248e-06
1799.8, 4.4867e-06
1801.8, 4.4046e-06
1803.8, 4.5324e-06
1805.8, 4.6958e-06
1807.8, 4.3208e-06
1809.8, 4.5734e-06
1811.8, 4.3773e-06
1813.8, 4.4081e-06
1815.8, 4.3708e-06
1817.8, 4.39e-06
1819.8, 4.565e-06
1821.8, 4.3128e-06
1823.8, 4.2745e-06
1825.8, 4.2962e-06
1827.8, 4.2509e-06
1829.8, 4.7383e-06
1831.8, 4.3175e-06
1833.8, 4.6936e-06
1835.8, 4.5419e-06
1837.8, 4.5851e-06
1839.8, 4.5703e-06
1841.8, 4.4419e-06
1843.8, 4.3166e-06
1845.8, 4.3911e-06
1847.8, 4.5969e-06
1849.8, 4.5584e-06
1851.8, 4.4721e-06
1853.9, 4.4549e-06
1855.9, 4.5299e-06
1857.9, 4.2413e-06
1859.9, 4.6494e-06
1861.9, 4.5645e-06
1863.9, 4.488e-06
1865.9, 4.5742e-06
1867.9, 4.5512e-06
1869.9, 4.0324e-06
1871.9, 4.4707e-06
1873.9, 4.338e-06
1875.9, 4.4242e-06
1877.9, 4.3495e-06
1879.9, 4.5539e-06
1881.9, 4.2499e-06
1883.9, 4.4162e-06
1885.9, 4.0885e-06
1887.9, 4.5357e-06
1889.9, 4.4425e-06
1891.9, 4.6691e-06
1893.9, 4.5114e-06
1895.9, 4.3882e-06
1897.9, 4.6258e-06
1899.9, 4.3804e-06
1901.9, 4.6415e-06
1903.9, 4.4014e-06
1905.9, 4.1005e-06
1907.9, 4.4355e-06
1909.9, 4.4252e-06
1911.9, 4.2367e-06
1913.9, 4.543e-06
1915.9, 4.5274e-06
1917.9, 4.5725e-06
1919.9, 4.5562e-06
1921.9, 4.1494e-06
1923.9, 4.559e-06
1925.9, 4.7113e-06
1927.9, 4.5977e-06
1929.9, 4.376e-06
1931.9, 4.4999e-06
1933.9, 4.4895e-06
1935.9, 4.3911e-06
1937.9, 4.4232e-06
1939.9, 4.3364e-06
1941.9, 4.3859e-06
1943.9, 4.4004e-06
1945.9, 4.4139e-06
1947.9, 4.5574e-06
1949.9, 4.5367e-06
1951.9, 4.5926e-06
1954.0, 4.4383e-06
1956.0, 4.2765e-06
1958.0, 4.3963e-06
1960.0, 4.2687e-06
1962.0, 4.5768e-06
1964.0, 4.3766e-06
1966.0, 4.6072e-06
1968.0, 4.4616e-06
1970.0, 4.4641e-06
1972.0, 4.3714e-06
1974.0, 4.6287e-06
1976.0, 4.4117e-06
1978.0, 4.4808e-06
1980.0, 4.2677e-06
1982.0, 4.2321e-06
1984.0, 4.2248e-06
1986.0, 4.373e-06
1988.0, 4.3861e-06
1990.0, 4.3921e-06
1992.0, 4.5135e-06
1994.0, 4.4481e-06
1996.0, 4.3515e-06
1998.0, 4.3264e-06
2000.0, 4.5022e-06
2002.0, 4.44e-06
2004.0, 4.2233e-06
2006.0, 4.357e-06
2008.0, 4.6044e-06
2010.0, 4.2902e-06
2012.0, 4.257e-06
2014.0, 4.6299e-06
2016.0, 4.494e-06
2018.0, 4.3222e-06
2020.0, 4.5071e-06
2022.0, 3.955e-06
2024.0, 4.5716e-06
2026.0, 4.4277e-06
2028.0, 4.5932e-06
2030.0, 4.6133e-06
2032.0, 4.4906e-06
2034.0, 4.5039e-06
2036.0, 4.5511e-06
2038.0, 4.5102e-06
2040.0, 4.6702e-06
2042.0, 4.5986e-06
2044.0, 4.3227e-06
2046.0, 4.0428e-06
2048.0, 4.6263e-06
2050.0, 4.5233e-06
2052.0, 2.2856e-06
2054.1, -2.369e-08
2056.1, -2.497e-08
2058.1, -2.37e-08
2060.1, -2.635e-08
2062.1, -2.473e-08
2064.1, -2.61e-08
2066.1, -2.563e-08
2068.1, -2.764e-08
2070.1, -2.591e-08
2072.1, -2.875e-08
2074.1, -2.546e-08
2076.1, -2.554e-08
2078.1, -2.421e-08
2080.1, -2.417e-08
2082.1, -2.38e-08
2084.1, -2.475e-08
2086.1, -2.373e-08
2088.1, -2.626e-08
2090.1, -2.614e-08
2092.1, -3.032e-08
2094.1, -2.728e-08
2096.1, -2.611e-08
2098.1, -2.502e-08
2100.1, -2.568e-08
2102.1, -2.602e-08
2104.1, -2.992e-08
2106.1, -2.829e-08
2108.1, -2.653e-08
2110.1, -2.481e-08
2112.1, -2.812e-08
2114.1, -2.707e-08
2116.1, -3.085e-08
2118.1, -2.943e-08
2120.1, -2.709e-08
2122.1, -2.844e-08
2124.1, -2.669e-08
2126.1, -2.497e-08
2128.1, -2.544e-08
2130.1, -2.472e-08
2132.1, -2.453e-08
2134.1, -2.899e-08
2136.1, -2.971e-08
2138.1, -2.573e-08
2140.1, -2.826e-08
2142.1, -2.756e-08
2144.1, -2.961e-08
2146.1, -3.033e-08
2148.1, -2.674e-08
2150.1, -2.766e-08
2152.1, -3.026e-08
2154.2, -2.839e-08
2156.2, -2.91e-08
2158.2, -2.624e-08
2160.2, -2.263e-08
2162.2, -2.764e-08
2164.2, -2.795e-08
2166.2, -2.313e-08
2168.2, -2.478e-08
2170.2, -2.382e-08
2172.2, -2.719e-08
2174.2, -2.157e-08
2176.2, -2.748e-08
2178.2, -2.431e-08
2180.2, -2.787e-08
2182.2, -2.666e-08
2184.2, -2.437e-08
2186.2, -2.677e-08
2188.2, -2.624e-08
2190.2, -2.551e-08
2192.2, -2.482e-08
2194.2, -2.695e-08
2196.2, -2.811e-08
2198.2, -2.788e-08
2200.2, -2.217e-08
2202.2, -2.23e-08
2204.2, -2.575e-08
2206.2, -2.637e-08
2208.2, -2.585e-08
2210.2, -2.393e-08
2212.2, -2.603e-08
2214.2, -2.418e-08
2216.2, -2.81e-08
2218.2, -2.692e-08
2220.2, -2.654e-08
2222.2, -2.997e-08
2224.2, -2.749e-08
2226.2, -2.89e-08
2228.2, -2.775e-08
2230.2, -2.943e-08
2232.2, -2.679e-08
2234.2, -2.329e-08
2236.2, -2.582e-08
2238.2, -2.248e-08
2240.2, -2.494e-08
2242.2, -2.589e-08
2244.2, -2.48e-08
2246.2, -2.462e-08
2248.2, -3.112e-08
2250.2, -2.655e-08
2252.2, -2.627e-08
2254.3, -2.572e-08
2256.3, -2.791e-08
2258.3, -2.906e-08
2260.3, -2.443e-08
2262.3, -2.828e-08
2264.3, -2.726e-08
2266.3, -2.75e-08
2268.3, -2.563e-08
2270.3, -2.43e-08
2272.3, -2.771e-08
2274.3, -2.752e-08
2276.3, -2.941e-08
2278.3, -2.667e-08
2280.3, -2.362e-08
2282.3, -2.215e-08
2284.3, -2.192e-08
2286.3, -2.566e-08
2288.3, -2.322e-08
2290.3, -2.547e-08
2292.3, -2.396e-08
2294.3, -2.579e-08
2296.3, -2.762e-08
2298.3, -2.877e-08
2300.3, -2.648e-08
2302.3, -2.484e-08
2304.3, -2.277e-08
2306.3, -2.817e-08
2308.3, -2.363e-08
2310.3, -2.624e-08
2312.3, -2.868e-08
2314.3, -2.476e-08
2316.3, -2.438e-08
2318.3, -2.775e-08
2320.3, -2.741e-08
2322.3, -2.661e-08
2324.3, -2.65e-08
2326.3, -2.715e-08
2328.3, -2.688e-08
2330.3, -2.492e-08
2332.3, -2.552e-08
2334.3, -2.65e-08
2336.3, -2.618e-08
2338.3, -2.533e-08
2340.3, -2.856e-08
2342.3, -2.987e-08
2344.3, -2.919e-08
2346.3, -3.07e-08
2348.3, -2.895e-08
2350.3, -2.528e-08
2352.3, -2.768e-08
2354.4, -2.543e-08
2356.4, -2.65e-08
2358.4, -2.68e-08
2360.4, -2.81e-08
2362.4, -2.865e-08
2364.4, -2.612e-08
2366.4, -2.647e-08
2368.4, -2.507e-08
2370.4, -2.6e-08
2372.4, -2.687e-08
2374.4, -2.188e-08
2376.4, -2.659e-08
2378.4, -2.343e-08
2380.4, -2.591e-08
2382.4, -2.666e-08
2384.4, -2.887e-08
2386.4, -2.595e-08
2388.4, -2.544e-08
2390.4, -2.807e-08
2392.4, -3.002e-08
2394.4, -2.843e-08
2396.4, -2.637e-08
2398.4, -2.771e-08
2400.4, -2.571e-08
2402.4, -2.436e-08
2404.4, -2.791e-08
2406.4, -2.756e-08
2408.4, -2.708e-08
2410.4, -2.655e-08
2412.4, -2.732e-08
2414.4, -2.936e-08
2416.4, -2.726e-08
2418.4, -2.668e-08
2420.4, -3.003e-08
2422.4, -2.634e-08
2424.4, -2.701e-08
2426.4, -2.667e-08
2428.4, -2.447e-08
2430.4, -2.403e-08
2432.4, -2.586e-08
2434.4, -2.55e-08
2436.4, -3.067e-08
2438.4, -2.555e-08
2440.4, -2.766e-08
2442.4, -2.709e-08
2444.4, -2.705e-08
2446.4, -2.858e-08
2448.4, -2.885e-08
2450.4, -2.589e-08
2452.4, -2.099e-08
2454.5, -2.757e-08
2456.5, -2.754e-08
2458.5, -2.695e-08
2460.5, -2.749e-08
2462.5, -2.941e-08
2464.5, -2.869e-08
2466.5, -3.063e-08
2468.5, -2.9e-08
2470.5, -2.568e-08
2472.5, -2.469e-08
2474.5, -2.503e-08
2476.5, -2.68e-08
2478.5, -2.657e-08
2480.5, -2.526e-08
2482.5, -2.745e-08
2484.5, -2.715e-08
2486.5, -2.676e-08
2488.5, -2.622e-08
2490.5, -2.917e-08
2492.5, -3.144e-08
2494.5, -2.812e-08
2496.5, -3.223e-08
2498.5, -2.882e-08
2500.5, -2.884e-08
2502.5, -2.484e-08
2504.5, -3.237e-08
2506.5, -3.08e-08
2508.5, -2.903e-08
2510.5, -3.047e-08
2512.5, -3.058e-08
2514.5, -2.899e-08
2516.5, -2.918e-08
2518.5, -2.667e-08
2520.5, -2.502e-08
2522.5, -2.646e-08
2524.5, -2.893e-08
2526.5, -2.894e-08
2528.5, -2.874e-08
2530.5, -2.66e-08
2532.5, -2.897e-08
2534.5, -2.675e-08
2536.5, -2.591e-08
2538.5, -2.411e-08
2540.5, -2.313e-08
2542.5, -2.14e-08
2544.5, -2.924e-08
2546.5, -2.811e-08
2548.5, -2.624e-08
2550.5, -2.328e-08
2552.5, -2.957e-08
2554.6, -2.77e-08
2556.6, -2.797e-08
2558.6, -2.788e-08
2560.6, -2.406e-08
2562.6, -2.514e-08
2564.6, -2.796e-08
2566.6, -2.853e-08
2568.6, -2.533e-08
2570.6, -2.462e-08
2572.6, -2.497e-08
2574.6, -2.663e-08
2576.6, -2.803e-08
2578.6, -2.523e-08
2580.6, -2.745e-08
2582.6, -2.495e-08
2584.6, -2.72e-08
2586.6, -2.439e-08
2588.6, -2.597e-08
2590.6, -2.41e-08
2592.6, -3.141e-08
2594.6, -3.107e-08
2596.6, -3.014e-08
2598.6, -3.109e-08
2600.6, -2.896e-08
2602.6, -3.203e-08
2604.6, -2.923e-08
2606.6, -2.715e-08
2608.6, -2.991e-08
2610.6, -2.751e-08
2612.6, -2.697e-08
2614.6, -2.95e-08
2616.6, -3.043e-08
2618.6, -2.888e-08
2620.6, -2.73e-08
2622.6, -3.003e-08
2624.6, -3.271e-08
2626.6, -2.703e-08
2628.6, -3.028e-08
2630.6, -3.1e-08
2632.6, -3.118e-08
2634.6, -3.038e-08
2636.6, -3.151e-08
2638.6, -2.909e-08
2640.6, -3.079e-08
2642.6, -2.954e-08
2644.6, -2.821e-08
2646.6, -2.799e-08
2648.6, -2.541e-08
2650.6, -2.598e-08
2652.6, -2.344e-08
2654.7, -2.808e-08
2656.7, -3.079e-08
2658.7, -3.042e-08
2660.7, -2.935e-08
2662.7, -2.768e-08
2664.7, -2.987e-08
2666.7, -2.928e-08
2668.7, -2.798e-08
2670.7, -3.035e-08
2672.7, -3.024e-08
2674.7, -3.199e-08
2676.7, -2.856e-08
2678.7, -2.679e-08
2680.7, -2.594e-08
2682.7, -2.759e-08
2684.7, -2.711e-08
2686.7, -3.18e-08
2688.7, -3.025e-08
2690.7, -2.967e-08
2692.7, -2.982e-08
2694.7, -3.047e-08
2696.7, -3.19e-08
2698.7, -2.951e-08
2700.7, -2.934e-08
2702.7, -3.199e-08
2704.7, -3.182e-08
2706.7, -3.491e-08
2708.7, -3.383e-08
2710.7, -3.183e-08
2712.7, -3.291e-08
2714.7, -3.112e-08
2716.7, -3.085e-08
2718.7, -2.936e-08
2720.7, -2.746e-08
2722.7, -3.046e-08
2724.7, -3.175e-08
2726.7, -3.067e-08
2728.7, -2.864e-08
2730.7, -2.522e-08
2732.7, -2.652e-08
2734.7, -2.866e-08
2736.7, -2.73e-08
2738.7, -2.883e-08
2740.7, -2.79e-08
2742.7, -2.839e-08
2744.7, -2.678e-08
2746.7, -2.734e-08
2748.7, -2.586e-08
2750.7, -2.596e-08
2752.7, -3.248e-08
2754.8, -2.916e-08
2756.8, -2.629e-08
2758.8, -2.885e-08
2760.8, -2.656e-08
2762.8, -3.028e-08
2764.8, -2.81e-08
2766.8, -3.018e-08
2768.8, -3.036e-08
2770.8, -2.874e-08
2772.8, -3.107e-08
2774.8, -2.592e-08
2776.8, -2.679e-08
2778.8, -2.799e-08
2780.8, -2.636e-08
2782.8, -2.695e-08
2784.8, -2.847e-08
2786.8, -2.712e-08
2788.8, -2.538e-08
2790.8, -2.472e-08
2792.8, -2.536e-08
2794.8, -2.749e-08
2796.8, -2.835e-08
2798.8, -2.794e-08
2800.8, -3.013e-08
2802.8, -2.673e-08
2804.8, -2.644e-08
2806.8, -2.749e-08
2808.8, -2.312e-08
2810.8, -2.509e-08
2812.8, -2.751e-08
2814.8, -2.603e-08
2816.8, -2.5e-08
2818.8, -2.773e-08
2820.8, -2.809e-08
2822.8, -2.818e-08
2824.8, -2.642e-08
2826.8, -2.661e-08
2828.8, -2.636e-08
2830.8, -2.956e-08
2832.8, -2.896e-08
2834.8, -2.798e-08
2836.8, -2.702e-08
2838.8, -2.87e-08
2840.8, -2.541e-08
2842.8, -2.297e-08
2844.8, -2.569e-08
2846.8, -2.359e-08
2848.8, -2.939e-08
2850.8, -2.87e-08
2852.8, -2.903e-08
2854.9, -2.484e-08
2856.9, -2.542e-08
2858.9, -2.677e-08
2860.9, -2.67e-08
2862.9, -2.528e-08
2864.9, -2.434e-08
2866.9, -2.36e-08
2868.9, -2.714e-08
2870.9, -2.767e-08
2872.9, -2.495e-08
2874.9, -2.694e-08
2876.9, -2.65e-08
2878.9, -3.111e-08
2880.9, -2.753e-08
2882.9, -2.706e-08
2884.9, -2.491e-08
2886.9, -2.833e-08
2888.9, -2.53e-08
2890.9, -2.662e-08
2892.9, -2.416e-08
2894.9, -2.227e-08
2896.9, -2.374e-08
2898.9, -2.489e-08
2900.9, -2.62e-08
2902.9, -2.709e-08
2904.9, -2.59e-08
2906.9, -2.567e-08
2908.9, -2.528e-08
2910.9, -2.754e-08
2912.9, -2.241e-08
2914.9, -2.497e-08
2916.9, -2.319e-08
2918.9, -2.727e-08
2920.9, -2.745e-08
2922.9, -2.588e-08
2924.9, -3.173e-08
2926.9, -3.033e-08
2928.9, -2.986e-08
2930.9, -2.835e-08
2932.9, -2.892e-08
2934.9, -2.733e-08
2936.9, -2.923e-08
2938.9, -2.918e-08
2940.9, -2.89e-08
2942.9, -3.157e-08
2944.9, -2.878e-08
2946.9, -2.91e-08
2948.9, -3.101e-08
2950.9, -3.023e-08
2952.9, -2.891e-08
2955.0, -2.997e-08
2957.0, -2.912e-08
2959.0, -3.086e-08
2961.0, -3.039e-08
2963.0, -2.995e-08
2965.0, -3.022e-08
2967.0, -3.163e-08
2969.0, -3.107e-08
2971.0, -3.088e-08
2973.0, -3.024e-08
2975.0, -2.885e-08
2977.0, -2.888e-08
2979.0, -3.06e-08
2981.0, -2.921e-08
2983.0, -2.996e-08
2985.0, -3.005e-08
2987.0, -3.09e-08
2989.0, -3.008e-08
2991.0, -2.909e-08
2993.0, -2.526e-08
2995.0, -2.732e-08
2997.0, -2.903e-08
2999.0, -2.922e-08
3001.0, -2.902e-08
3003.0, -2.889e-08
3005.0, -2.942e-08
3007.0, -2.661e-08
3009.0, -2.737e-08
3011.0, -3.156e-08
3013.0, -2.723e-08
3015.0, -2.712e-08
3017.0, -2.839e-08
3019.0, -2.685e-08
3021.0, -2.749e-08
3023.0, -2.911e-08
3025.0, -3.242e-08
3027.0, -3.191e-08
3029.0, -3.11e-08
3031.0, -2.983e-08
3033.0, -3.068e-08
3035.0, -2.716e-08
3037.0, -2.878e-08
3039.0, -2.714e-08
3041.0, -2.738e-08
3043.0, -2.658e-08
3045.0, -2.659e-08
3047.0, -2.896e-08
3049.0, -2.477e-08
3051.0, -2.166e-08
3053.0, -2.297e-08
3055.1, -2.45e-08
3057.1, -2.584e-08
3059.1, -2.532e-08
3061.1, -2.718e-08
3063.1, -2.658e-08
3065.1, -2.526e-08
3067.1, -2.446e-08
3069.1, -2.343e-08
3071.1, -2.611e-08
3073.1, -2.692e-08
3075.1, -2.692e-08
3077.1, -2.778e-08
3079.1, -2.746e-08
3081.1, -2.732e-08
3083.1, -2.802e-08
3085.1, -2.585e-08
3087.1, -2.834e-08
3089.1, -2.726e-08
3091.1, -2.668e-08
3093.1, -2.866e-08
3095.1, -2.727e-08
3097.1, -3.039e-08
3099.1, -2.605e-08
3101.1, -2.474e-08
3103.1, -2.358e-08
3105.1, -2.465e-08
3107.1, -2.579e-08
3109.1, -2.682e-08
3111.1, -2.662e-08
3113.1, -2.971e-08
3115.1, -2.869e-08
3117.1, -2.714e-08
3119.1, -2.818e-08
3121.1, -2.874e-08
3123.1, -2.519e-08
3125.1, -2.875e-08
3127.1, -2.959e-08
3129.1, -2.771e-08
3131.1, -2.752e-08
3133.1, -2.697e-08
3135.1, -2.815e-08
3137.1, -2.856e-08
3139.1, -2.737e-08
3141.1, -2.599e-08
3143.1, -2.32e-08
3145.1, -3.03e-08
3147.1, -3.009e-08
3149.1, -2.795e-08
3151.1, -2.869e-08
3153.1, -3.039e-08
3155.2, -2.789e-08
3157.2, -3.101e-08
3159.2, -2.883e-08
3161.2, -3.117e-08
3163.2, -2.678e-08
3165.2, -3.084e-08
3167.2, -3.196e-08
3169.2, -2.958e-08
3171.2, -3.196e-08
3173.2, -3.472e-08
3175.2, -3.253e-08
3177.2, -2.941e-08
3179.2, -3.142e-08
3181.2, -2.924e-08
3183.2, -2.643e-08
3185.2, -3.31e-08
3187.2, -2.897e-08
3189.2, -2.476e-08
3191.2, -2.681e-08
3193.2, -2.575e-08
3195.2, -3.063e-08
3197.2, -2.783e-08
3199.2, -2.788e-08
3201.2, -2.688e-08
3203.2, -2.437e-08
3205.2, -2.373e-08
3207.2, -2.564e-08
3209.2, -2.844e-08
3211.2, -2.675e-08
3213.2, -2.059e-08
3215.2, -2.46e-08
3217.2, -2.783e-08
3219.2, -2.526e-08
3221.2, -2.304e-08
3223.2, -2.8e-08
3225.2, -2.873e-08
3227.2, -2.673e-08
3229.2, -2.85e-08
3231.2, -2.667e-08
3233.2, -2.86e-08
3235.2, -2.767e-08
3237.2, -2.841e-08
3239.2, -2.789e-08
3241.2, -2.371e-08
3243.2, -2.761e-08
3245.2, -2.509e-08
3247.2, -2.697e-08
3249.2, -2.549e-08
3251.2, -2.619e-08
3253.2, -2.546e-08
3255.3, -2.568e-08
3257.3, -2.614e-08
3259.3, -2.853e-08
3261.3, -2.669e-08
3263.3, -2.821e-08
3265.3, -2.703e-08
3267.3, -2.787e-08
3269.3, -2.931e-08
3271.3, -2.745e-08
3273.3, -2.536e-08
3275.3, -2.325e-08
3277.3, -2.733e-08
3279.3, -2.199e-08
3281.3, -2.475e-08
3283.3, -2.788e-08
3285.3, -2.569e-08
3287.3, -2.312e-08
3289.3, -2.46e-08
3291.3, -2.76e-08
3293.3, -2.66e-08
3295.3, -2.859e-08
3297.3, -2.41e-08
3299.3, -2.66e-08
3301.3, -2.725e-08
3303.3, -2.427e-08
3305.3, -2.817e-08
3307.3, -2.186e-08
3309.3, -2.37e-08
3311.3, -2.284e-08
3313.3, -2.605e-08
3315.3, -2.886e-08
3317.3, -2.822e-08
3319.3, -2.531e-08
3321.3, -2.704e-08
3323.3, -2.388e-08
3325.3, -2.796e-08
3327.3, -2.647e-08
3329.3, -2.395e-08
3331.3, -2.323e-08
3333.3, -2.159e-08
3335.3, -2.872e-08
3337.3, -2.818e-08
3339.3, -2.706e-08
3341.3, -2.837e-08
3343.3, -2.583e-08
3345.3, -2.673e-08
3347.3, -2.513e-08
3349.3, -2.314e-08
3351.3, -2.387e-08
3353.3, -2.417e-08
3355.4, -2.318e-08
3357.4, -2.773e-08
3359.4, -2.662e-08
3361.4, -2.694e-08
3363.4, -2.509e-08
3365.4, -2.831e-08
3367.4, -2.745e-08
3369.4, -2.686e-08
3371.4, -2.274e-08
3373.4, -2.742e-08
3375.4, -2.248e-08
3377.4, -2.453e-08
3379.4, -2.422e-08
3381.4, -2.711e-08
3383.4, -2.245e-08
3385.4, -2.21e-08
3387.4, -2.026e-08
3389.4, -1.953e-08
3391.4, -2.149e-08
3393.4, -2.107e-08
3395.4, -2.025e-08
3397.4, -2.159e-08
3399.4, -2.498e-08
3401.4, -2.784e-08
3403.4, -2.831e-08
3405.4, -2.637e-08
3407.4, -2.73e-08
3409.4, -2.537e-08
3411.4, -2.585e-08
3413.4, -2.941e-08
3415.4, -2.794e-08
3417.4, -2.839e-08
3419.4, -3.196e-08
3421.4, -2.826e-08
3423.4, -2.663e-08
3425.4, -2.961e-08
3427.4, -2.817e-08
3429.4, -2.388e-08
3431.4, -2.609e-08
3433.4, -2.642e-08
3435.4, -2.481e-08
3437.4, -2.451e-08
3439.4, -2.678e-08
3441.4, -2.951e-08
3443.4, -2.69e-08
3445.4, -2.804e-08
3447.4, -3.04e-08
3449.4, -2.919e-08
3451.4, -3.152e-08
3453.4, -2.962e-08
3455.5, -2.986e-08
3457.5, -3.11e-08
3459.5, -2.77e-08
3461.5, -2.888e-08
3463.5, -2.524e-08
3465.5, -2.79e-08
3467.5, -2.583e-08
3469.5, -2.217e-08
3471.5, -2.441e-08
3473.5, -2.328e-08
3475.5, -2.404e-08
3477.5, -2.789e-08
3479.5, -2.949e-08
3481.5, -2.569e-08
3483.5, -2.881e-08
3485.5, -2.874e-08
3487.5, -2.799e-08
3489.5, -2.544e-08
3491.5, -2.508e-08
3493.5, -2.704e-08
3495.5, -2.392e-08
3497.5, -2.854e-08
3499.5, -2.251e-08
3501.5, -2.262e-08
3503.5, -2.712e-08
3505.5, -2.532e-08
3507.5, -2.378e-08
3509.5, -2.749e-08
3511.5, -2.482e-08
3513.5, -2.194e-08
3515.5, -2.185e-08
3517.5, -2.558e-08
3519.5, -2.63e-08
3521.5, -2.646e-08
3523.5, -2.412e-08
3525.5, -2.628e-08
3527.5, -2.617e-08
3529.5, -2.686e-08
3531.5, -2.898e-08
3533.5, -2.605e-08
3535.5, -2.297e-08
3537.5, -2.899e-08
3539.5, -2.865e-08
3541.5, -2.717e-08
3543.5, -2.681e-08
3545.5, -2.636e-08
3547.5, -3.04e-08
3549.5, -3.046e-08
3551.5, -2.801e-08
3553.5, -2.894e-08
3555.6, -2.789e-08
3557.6, -2.85e-08
3559.6, -3.296e-08
3561.6, -2.841e-08
3563.6, -2.825e-08
3565.6, -2.814e-08
3567.6, -3.118e-08
3569.6, -2.883e-08
3571.6, -3.013e-08
3573.6, -2.913e-08
3575.6, -2.93e-08
3577.6, -2.832e-08
3579.6, -2.791e-08
3581.6, -2.973e-08
3583.6, -3.061e-08
3585.6, -3.142e-08
3587.6, -3.378e-08
3589.6, -3.358e-08
3591.6, -3.22e-08
3593.6, -3.209e-08
3595.6, -3.495e-08
3597.6, -2.92e-08
3599.6, -2.916e-08
3601.6, -2.846e-08
3603.6, -2.466e-08
3605.6, -2.912e-08
3607.6, -2.91e-08
3609.6, -2.811e-08
3611.6, -2.852e-08
3613.6, 2.2378e-06
3615.6, 4.0499e-06
3617.6, 3.6464e-06
3619.6, 4.1687e-06
3621.6, 4.0264e-06
3623.6, 3.9463e-06
3625.6, 4.3063e-06
3627.6, 3.8583e-06
3629.6, 4.312e-06
3631.6, 4.2046e-06
3633.6, 4.1511e-06
3635.6, 3.6407e-06
3637.6, 4.1727e-06
3639.6, 4.0736e-06
3641.6, 4.0623e-06
3643.6, 4.3535e-06
3645.6, 4.2542e-06
3647.6, 3.718e-06
3649.6, 3.8796e-06
3651.6, 3.8005e-06
3653.6, 4.1915e-06
3655.7, 3.7618e-06
3657.7, 4.1965e-06
3659.7, 4.0769e-06
3661.7, 4.0973e-06
3663.7, 4.1917e-06
3665.7, 3.8178e-06
3667.7, 4.1401e-06
3669.7, 4.0583e-06
3671.7, 4.0934e-06
3673.7, 3.9925e-06
3675.7, 4.3255e-06
3677.7, 4.0614e-06
3679.7, 4.3243e-06
3681.7, 4.04e-06
3683.7, 4.3949e-06
3685.7, 4.4242e-06
3687.7, 4.2258e-06
3689.7, 4.0604e-06
3691.7, 4.3795e-06
3693.7, 4.4556e-06
3695.7, 4.4137e-06
3697.7, 3.8326e-06
3699.7, 4.18e-06
3701.7, 4.2255e-06
3703.7, 4.057e-06
3705.7, 4.3001e-06
3707.7, 4.2038e-06
3709.7, 3.8672e-06
3711.7, 4.2561e-06
3713.7, 4.4958e-06
3715.7, 4.2591e-06
3717.7, 4.1015e-06
3719.7, 4.0216e-06
3721.7, 4.0704e-06
3723.7, 4.1394e-06
3725.7, 4.0877e-06
3727.7, 4.3806e-06
3729.7, 4.263e-06
3731.7, 3.89e-06
3733.7, 3.8897e-06
3735.7, 4.139e-06
3737.7, 4.1508e-06
3739.7, 4.2524e-06
3741.7, 4.4287e-06
3743.7, 4.1764e-06
3745.7, 4.4842e-06
3747.7, 4.1528e-06
3749.7, 4.1807e-06
3751.7, 3.9346e-06
3753.7, 4.378e-06
3755.8, 4.1411e-06
3757.8, 4.2849e-06
3759.8, 4.215e-06
3761.8, 4.1728e-06
3763.8, 4.2624e-06
3765.8, 4.4295e-06
3767.8, 4.2445e-06
3769.8, 4.063e-06
3771.8, 4.1715e-06
3773.8, 4.2876e-06
3775.8, 4.1049e-06
3777.8, 4.1415e-06
3779.8, 4.3792e-06
3781.8, 4.2874e-06
3783.8, 4.5986e-06
3785.8, 4.3487e-06
3787.8, 4.231e-06
3789.8, 4.1159e-06
3791.8, 4.0451e-06
3793.8, 4.3268e-06
3795.8, 4.333e-06
3797.8, 4.0234e-06
3799.8, 4.2573e-06
3801.8, 4.6056e-06
3803.8, 4.4871e-06
3805.8, 4.2914e-06
3807.8, 4.4556e-06
3809.8, 4.3283e-06
3811.8, 4.3443e-06
3813.8, 4.112e-06
3815.8, 4.2006e-06
3817.8, 4.1943e-06
3819.8, 4.4619e-06
3821.8, 4.3897e-06
3823.8, 4.0996e-06
3825.8, 4.4751e-06
3827.8, 4.3838e-06
3829.8, 4.5081e-06
3831.8, 4.3411e-06
3833.8, 4.2002e-06
3835.8, 4.4846e-06
3837.8, 4.4892e-06
3839.8, 4.3511e-06
3841.8, 4.2408e-06
3843.8, 4.3096e-06
3845.8, 4.2285e-06
3847.8, 4.2597e-06
3849.8, 4.2464e-06
3851.8, 4.3995e-06
3853.8, 4.4012e-06
3855.9, 4.6556e-06
3857.9, 4.3035e-06
3859.9, 4.3472e-06
3861.9, 4.2144e-06
3863.9, 4.3075e-06
3865.9, 4.4516e-06
3867.9, 4.0114e-06
3869.9, 4.5704e-06
3871.9, 4.3115e-06
3873.9, 4.3884e-06
3875.9, 4.4024e-06
3877.9, 4.2011e-06
3879.9, 4.4682e-06
3881.9, 4.3044e-06
3883.9, 4.2529e-06
3885.9, 4.1896e-06
3887.9, 4.4161e-06
3889.9, 4.4923e-06
3891.9, 4.2791e-06
3893.9, 4.1172e-06
3895.9, 4.4817e-06
3897.9, 4.547e-06
3899.9, 4.4282e-06
3901.9, 4.4916e-06
3903.9, 4.031e-06
3905.9, 4.7168e-06
3907.9, 4.4083e-06
3909.9, 4.2059e-06
3911.9, 3.8916e-06
3913.9, 4.502e-06
3915.9, 4.4595e-06
3917.9, 4.3523e-06
3919.9, 4.4266e-06
3921.9, 4.1948e-06
3923.9, 4.4237e-06
3925.9, 4.3322e-06
3927.9, 4.5356e-06
3929.9, 4.5258e-06
3931.9, 4.4653e-06
3933.9, 4.2101e-06
3935.9, 4.4635e-06
3937.9, 4.3318e-06
3939.9, 4.1585e-06
3941.9, 4.6126e-06
3943.9, 4.23e-06
3945.9, 4.3397e-06
3947.9, 4.3365e-06
3949.9, 4.6531e-06
3951.9, 4.0003e-06
3953.9, 4.4145e-06
3956.0, 4.3724e-06
3958.0, 4.2626e-06
3960.0, 4.5775e-06
3962.0, 4.1798e-06
3964.0, 4.4612e-06
3966.0, 4.6213e-06
3968.0, 4.422e-06
3970.0, 4.615e-06
3972.0, 4.4306e-06
3974.0, 4.363e-06
3976.0, 4.1688e-06
3978.0, 4.4481e-06
3980.0, 4.4049e-06
3982.0, 4.3926e-06
3984.0, 4.3684e-06
3986.0, 4.1908e-06
3988.0, 4.2928e-06
3990.0, 4.3576e-06
3992.0, 4.4349e-06
3994.0, 4.3849e-06
3996.0, 4.3785e-06
3998.0, 4.5179e-06
4000.0, 4.4921e-06
4002.0, 4.4755e-06
4004.0, 4.3618e-06
4006.0, 4.3968e-06
4008.0, 4.4288e-06
4010.0, 4.3223e-06
4012.0, 4.3237e-06
4014.0, 4.4947e-06
4016.0, 4.0832e-06
4018.0, 4.1687e-06
4020.0, 4.251e-06
4022.0, 4.4743e-06
4024.0, 4.0363e-06
4026.0, 4.4793e-06
4028.0, 4.484e-06
4030.0, 4.3528e-06
4032.0, 4.4342e-06
4034.0, 4.2849e-06
4036.0, 4.3057e-06
4038.0, 4.3663e-06
4040.0, 4.2888e-06
4042.0, 4.4454e-06
4044.0, 4.6933e-06
4046.0, 4.3189e-06
4048.0, 4.3399e-06
4050.0, 4.4716e-06
4052.0, 4.5531e-06
4054.0, 4.4715e-06
4056.1, 4.3584e-06
4058.1, 4.3336e-06
4060.1, 4.5633e-06
4062.1, 4.4531e-06
4064.1, 4.4341e-06
4066.1, 4.3111e-06
4068.1, 4.4274e-06
4070.1, 4.2469e-06
4072.1, 4.371e-06
4074.1, 4.2832e-06
4076.1, 4.2028e-06
4078.1, 4.1631e-06
4080.1, 4.5265e-06
4082.1, 4.4544e-06
4084.1, 4.2423e-06
4086.1, 4.5889e-06
4088.1, 4.3414e-06
4090.1, 4.4513e-06
4092.1, 4.3751e-06
4094.1, 4.1022e-06
4096.1, 4.5669e-06
4098.1, 4.3025e-06
4100.1, 4.3689e-06
4102.1, 4.5498e-06
4104.1, 4.5299e-06
4106.1, 4.6275e-06
4108.1, 4.4986e-06
4110.1, 4.6249e-06
4112.1, 4.2586e-06
4114.1, 4.7048e-06
4116.1, 4.3719e-06
4118.1, 4.4628e-06
4120.1, 3.9369e-06
4122.1, 4.3782e-06
4124.1, 4.5196e-06
4126.1, 4.3958e-06
4128.1, 4.4927e-06
4130.1, 4.4927e-06
4132.1, 4.4594e-06
4134.1, 4.1081e-06
4136.1, 4.1586e-06
4138.1, 4.6056e-06
4140.1, 4.5845e-06
4142.1, 4.1396e-06
4144.1, 4.6814e-06
4146.1, 4.3374e-06
4148.1, 4.6377e-06
4150.1, 4.5777e-06
4152.1, 4.2196e-06
4154.1, 4.3827e-06
4156.2, 4.5703e-06
4158.2, 4.1502e-06
4160.2, 4.5319e-06
4162.2, 4.5115e-06
4164.2, 4.3017e-06
4166.2, 4.4821e-06
4168.2, 4.5937e-06
4170.2, 4.5627e-06
4172.2, 4.3223e-06
4174.2, 4.6597e-06
4176.2, 4.3262e-06
4178.2, 4.472e-06
4180.2, 4.3795e-06
4182.2, 4.4057e-06
4184.2, 4.2926e-06
4186.2, 4.4856e-06
4188.2, 4.4724e-06
4190.2, 4.2651e-06
4192.2, 4.4186e-06
4194.2, 4.4791e-06
4196.2, 4.2309e-06
4198.2, 4.6057e-06
4200.2, 4.3275e-06
4202.2, 4.5607e-06
4204.2, 4.2463e-06
4206.2, 4.3196e-06
4208.2, 4.2253e-06
4210.2, 4.3113e-06
4212.2, 4.5584e-06
4214.2, 4.1891e-06
4216.2, 4.6263e-06
4218.2, 4.3676e-06
4220.2, 4.2929e-06
4222.2, 4.3084e-06
4224.2, 4.4889e-06
4226.2, 4.6068e-06
4228.2, 4.6212e-06
4230.2, 4.3363e-06
4232.2, 4.5574e-06
4234.2, 4.4109e-06
4236.2, 4.4686e-06
4238.2, 4.209e-06
4240.2, 4.4456e-06
4242.2, 4.5575e-06
4244.2, 4.543e-06
4246.2, 4.3011e-06
4248.2, 4.4019e-06
4250.2, 4.6359e-06
4252.2, 4.3055e-06
4254.2, 4.4704e-06
4256.3, 4.5588e-06
4258.3, 4.4831e-06
4260.3, 4.3084e-06
4262.3, 4.2536e-06
4264.3, 4.2991e-06
4266.3, 4.4437e-06
4268.3, 4.4668e-06
4270.3, 4.55e-06
4272.3, 4.53e-06
4274.3, 4.5089e-06
4276.3, 4.5898e-06
4278.3, 4.6061e-06
4280.3, 4.6405e-06
4282.3, 4.3963e-06
4284.3, 4.4231e-06
4286.3, 4.6171e-06
4288.3, 4.5932e-06
4290.3, 4.3254e-06
4292.3, 4.5286e-06
4294.3, 4.2839e-06
4296.3, 4.225e-06
4298.3, 4.6649e-06
4300.3, 4.4919e-06
4302.3, 4.5714e-06
4304.3, 4.3123e-06
4306.3, 4.4083e-06
4308.3, 4.5732e-06
4310.3, 4.4856e-06
4312.3, 4.5413e-06
4314.3, 4.4892e-06
4316.3, 4.4261e-06
4318.3, 4.3395e-06
4320.3, 4.2511e-06
4322.3, 4.7279e-06
4324.3, 4.2855e-06
4326.3, 4.7291e-06
4328.3, 4.4413e-06
4330.3, 4.5963e-06
4332.3, 4.6068e-06
4334.3, 4.5493e-06
4336.3, 4.4795e-06
4338.3, 4.6352e-06
4340.3, 4.3806e-06
4342.3, 4.5782e-06
4344.3, 4.0681e-06
4346.3, 4.0582e-06
4348.3, 4.5753e-06
4350.3, 4.4359e-06
4352.3, 4.2228e-06
4354.3, 4.5852e-06
4356.4, 4.3795e-06
4358.4, 4.5025e-06
4360.4, 4.3167e-06
4362.4, 4.6117e-06
4364.4, 4.4607e-06
4366.4, 4.6958e-06
4368.4, 4.3817e-06
4370.4, 4.4655e-06
4372.4, 4.6798e-06
4374.4, 4.5914e-06
4376.4, 4.1481e-06
4378.4, 4.3544e-06
4380.4, 4.4312e-06
4382.4, 4.2735e-06
4384.4, 4.5558e-06
4386.4, 4.2609e-06
4388.4, 4.5711e-06
4390.4, 4.4847e-06
4392.4, 4.3811e-06
4394.4, 4.5019e-06
4396.4, 4.6426e-06
4398.4, 4.4954e-06
4400.4, 4.4824e-06
4402.4, 4.676e-06
4404.4, 4.5661e-06
4406.4, 4.7075e-06
4408.4, 4.5341e-06
4410.4, 4.6164e-06
4412.4, 4.4885e-06
4414.4, 4.5335e-06
4416.4, 4.3844e-06
4418.4, 4.3493e-06
4420.4, 4.2663e-06
4422.4, 4.6221e-06
4424.4, 4.723e-06
4426.4, 4.4041e-06
4428.4, 4.5263e-06
4430.4, 4.4928e-06
4432.4, 4.4148e-06
4434.4, 4.4806e-06
4436.4, 4.6567e-06
4438.4, 4.4242e-06
4440.4, 4.5996e-06
4442.4, 4.433e-06
4444.4, 4.3157e-06
4446.4, 4.6149e-06
4448.4, 4.6828e-06
4450.4, 4.7611e-06
4452.4, 4.5955e-06
4454.4, 4.5305e-06
4456.5, 4.4809e-06
4458.5, 4.402e-06
4460.5, 4.4512e-06
4462.5, 4.4336e-06
4464.5, 4.3505e-06
4466.5, 4.4938e-06
4468.5, 4.5349e-06
4470.5, 4.5055e-06
4472.5, 4.3639e-06
4474.5, 4.4138e-06
4476.5, 4.6741e-06
4478.5, 4.6151e-06
4480.5, 4.4883e-06
4482.5, 4.5696e-06
4484.5, 4.4341e-06
4486.5, 4.3458e-06
4488.5, 4.4222e-06
4490.5, 4.7151e-06
4492.5, 4.321e-06
4494.5, 4.3615e-06
4496.5, 4.549e-06
4498.5, 4.3858e-06
4500.5, 4.7331e-06
4502.5, 4.4397e-06
4504.5, 4.6977e-06
4506.5, 4.7041e-06
4508.5, 4.4557e-06
4510.5, 4.574e-06
4512.5, 4.4357e-06
4514.5, 4.5557e-06
4516.5, 4.3276e-06
4518.5, 4.5276e-06
4520.5, 4.6236e-06
4522.5, 4.5453e-06
4524.5, 4.5419e-06
4526.5, 4.349e-06
4528.5, 4.4975e-06
4530.5, 4.5239e-06
4532.5, 4.4737e-06
4534.5, 4.5548e-06
4536.5, 4.5137e-06
4538.5, 4.5038e-06
4540.5, 4.3888e-06
4542.5, 4.5572e-06
4544.5, 4.3549e-06
4546.5, 3.8846e-06
4548.5, 4.5418e-06
4550.5, 4.5826e-06
4552.5, 4.4928e-06
4554.5, 4.4842e-06
4556.6, 4.3962e-06
4558.6, 4.149e-06
4560.6, 4.4777e-06
4562.6, 4.6738e-06
4564.6, 4.3712e-06
4566.6, 4.5951e-06
4568.6, 4.5791e-06
4570.6, 4.43e-06
4572.6, 4.0294e-06
4574.6, 4.5385e-06
4576.6, 4.1819e-06
4578.6, 4.3299e-06
4580.6, 4.8282e-06
4582.6, 4.4834e-06
4584.6, 4.4341e-06
4586.6, 4.4155e-06
4588.6, 4.5499e-06
4590.6, 4.6335e-06
4592.6, 4.3677e-06
4594.6, 4.431e-06
4596.6, 4.2649e-06
4598.6, 4.4998e-06
4600.6, 4.5914e-06
4602.6, 4.5724e-06
4604.6, 4.5789e-06
4606.6, 4.5171e-06
4608.6, 4.4504e-06
4610.6, 4.4761e-06
4612.6, 4.3101e-06
4614.6, 2.1879e-06
4616.6, -2.691e-08
4618.6, -2.833e-08
4620.6, -2.911e-08
4622.6, -2.746e-08
4624.6, -2.829e-08
4626.6, -2.599e-08
4628.6, -2.843e-08
4630.6, -3.034e-08
4632.6, -2.651e-08
4634.6, -2.636e-08
4636.6, -2.65e-08
4638.6, -2.745e-08
4640.6, -2.733e-08
4642.6, -2.623e-08
4644.6, -2.607e-08
4646.6, -2.655e-08
4648.6, -2.819e-08
4650.6, -2.369e-08
4652.6, -2.438e-08
4654.6, -3.095e-08
4656.7, -2.929e-08
4658.7, -2.951e-08
4660.7, -2.758e-08
4662.7, -2.847e-08
4664.7, -2.203e-08
4666.7, -2.367e-08
4668.7, -2.52e-08
4670.7, -2.482e-08
4672.7, -2.246e-08
4674.7, -2.199e-08
4676.7, -2.459e-08
4678.7, -2.452e-08
4680.7, -2.669e-08
4682.7, -2.765e-08
4684.7, -2.246e-08
4686.7, -2.478e-08
4688.7, -2.175e-08
4690.7, -2.606e-08
4692.7, -2.65e-08
4694.7, -2.031e-08
4696.7, -2.591e-08
4698.7, -2.333e-08
4700.7, -2.398e-08
4702.7, -2.656e-08
4704.7, -2.484e-08
4706.7, -2.358e-08
4708.7, -2.52e-08
4710.7, -2.368e-08
4712.7, -2.307e-08
4714.7, -2.414e-08
4716.7, -2.279e-08
4718.7, -2.453e-08
4720.7, -2.219e-08
4722.7, -2.399e-08
4724.7, -2.532e-08
4726.7, -2.689e-08
4728.7, -2.61e-08
4730.7, -2.368e-08
4732.7, -2.227e-08
4734.7, -2.838e-08
4736.7, -2.709e-08
4738.7, -2.405e-08
4740.7, -2.873e-08
4742.7, -2.645e-08
4744.7, -2.587e-08
4746.7, -2.234e-08
4748.7, -2.242e-08
4750.7, -2.324e-08
4752.7, -2.397e-08
4754.7, -2.457e-08
4756.8, -2.42e-08
4758.8, -2.012e-08
4760.8, -2.25e-08
4762.8, -2.512e-08
4764.8, -2.573e-08
4766.8, -2.37e-08
4768.8, -2.312e-08
4770.8, -2.343e-08
4772.8, -1.988e-08
4774.8, -2.395e-08
4776.8, -2.648e-08
4778.8, -2.393e-08
4780.8, -2.647e-08
4782.8, -2.474e-08
4784.8, -2.631e-08
4786.8, -2.786e-08
4788.8, -2.603e-08
4790.8, -2.788e-08
4792.8, -2.716e-08
4794.8, -2.585e-08
4796.8, -2.667e-08
4798.8, -2.961e-08
4800.8, -2.679e-08
4802.8, -2.482e-08
4804.8, -2.557e-08
4806.8, -2.573e-08
4808.8, -2.596e-08
4810.8, -2.592e-08
4812.8, -2.503e-08
4814.8, -2.651e-08
4816.8, -2.738e-08
4818.8, -2.787e-08
4820.8, -2.688e-08
4822.8, -2.799e-08
4824.8, -2.372e-08
4826.8, -2.417e-08
4828.8, -2.257e-08
4830.8, -2.484e-08
4832.8, -2.631e-08
4834.8, -2.649e-08
4836.8, -2.77e-08
4838.8, -2.777e-08
4840.8, -2.989e-08
4842.8, -2.81e-08
4844.8, -2.63e-08
4846.8, -2.737e-08
4848.8, -2.515e-08
4850.8, -2.737e-08
4852.8, -2.496e-08
4854.8, -2.888e-08
4856.9, -2.404e-08
4858.9, -2.49e-08
4860.9, -2.534e-08
4862.9, -2.249e-08
4864.9, -2.449e-08
4866.9, -2.599e-08
4868.9, -2.629e-08
4870.9, -2.385e-08
4872.9, -2.65e-08
4874.9, -2.944e-08
4876.9, -2.756e-08
4878.9, -2.811e-08
4880.9, -2.259e-08
4882.9, -2.565e-08
4884.9, -2.36e-08
4886.9, -2.508e-08
4888.9, -2.609e-08
4890.9, -2.716e-08
4892.9, -2.623e-08
4894.9, -2.557e-08
4896.9, -2.485e-08
4898.9, -2.425e-08
4900.9, -2.761e-08
4902.9, -2.645e-08
4904.9, -2.502e-08
4906.9, -2.314e-08
4908.9, -2.321e-08
4910.9, -2.605e-08
4912.9, -2.691e-08
4914.9, -2.685e-08
4916.9, -2.405e-08
4918.9, -2.604e-08
4920.9, -2.795e-08
4922.9, -2.393e-08
4924.9, -2.275e-08
4926.9, -2.439e-08
4928.9, -2.621e-08
4930.9, -2.574e-08
4932.9, -2.353e-08
4934.9, -2.45e-08
4936.9, -2.336e-08
4938.9, -2.871e-08
4940.9, -2.691e-08
4942.9, -3.01e-08
4944.9, -2.746e-08
4946.9, -2.516e-08
4948.9, -2.172e-08
4950.9, -2.238e-08
4952.9, -2.513e-08
4954.9, -2.434e-08
4957.0, -2.336e-08
4959.0, -2.723e-08
4961.0, -2.768e-08
4963.0, -2.788e-08
4965.0, -2.676e-08
4967.0, -2.655e-08
4969.0, -2.596e-08
4971.0, -2.688e-08
4973.0, -2.471e-08
4975.0, -2.288e-08
4977.0, -2.242e-08
4979.0, -2.385e-08
4981.0, -2.796e-08
4983.0, -2.849e-08
4985.0, -2.734e-08
4987.0, -2.315e-08
4989.0, -2.674e-08
4991.0, -2.505e-08
4993.0, -2.464e-08
4995.0, -2.364e-08
4997.0, -3.189e-08
4999.0, -2.507e-08
5001.0, -2.607e-08
5003.0, -2.696e-08
5005.0, -2.503e-08
5007.0, -3.018e-08
5009.0, -3.072e-08
5011.0, -2.929e-08
5013.0, -2.82e-08
5015.0, -2.697e-08
5017.0, -2.452e-08
5019.0, -2.587e-08
5021.0, -3.108e-08
5023.0, -2.845e-08
5025.0, -2.59e-08
5027.0, -2.743e-08
5029.0, -2.704e-08
5031.0, -2.538e-08
5033.0, -2.489e-08
5035.0, -2.233e-08
5037.0, -2.608e-08
5039.0, -2.643e-08
5041.0, -2.464e-08
5043.0, -2.629e-08
5045.0, -2.359e-08
5047.0, -2.524e-08
5049.0, -2.822e-08
5051.0, -2.462e-08
5053.0, -2.936e-08
5055.0, -2.896e-08
5057.1, -2.46e-08
5059.1, -2.54e-08
5061.1, -2.628e-08
5063.1, -2.619e-08
5065.1, -2.596e-08
5067.1, -2.631e-08
5069.1, -2.489e-08
5071.1, -2.596e-08
5073.1, -2.85e-08
5075.1, -2.363e-08
5077.1, -2.63e-08
5079.1, -2.369e-08
5081.1, -2.953e-08
5083.1, -2.692e-08
5085.1, -2.74e-08
5087.1, -2.405e-08
5089.1, -2.893e-08
5091.1, -2.637e-08
5093.1, -2.732e-08
5095.1, -2.631e-08
5097.1, -2.523e-08
5099.1, -2.535e-08
5101.1, -2.417e-08
5103.1, -2.387e-08
5105.1, -2.685e-08
5107.1, -2.499e-08
5109.1, -2.809e-08
5111.1, -2.394e-08
5113.1, -2.477e-08
5115.1, -2.335e-08
5117.1, -2.604e-08
5119.1, -2.45e-08
5121.1, -2.701e-08
5123.1, -2.375e-08
5125.1, -2.718e-08
5127.1, -2.867e-08
5129.1, -2.729e-08
5131.1, -2.822e-08
5133.1, -2.786e-08
5135.1, -2.745e-08
5137.1, -2.872e-08
5139.1, -2.909e-08
5141.1, -2.83e-08
5143.1, -2.597e-08
5145.1, -2.796e-08
5147.1, -2.598e-08
5149.1, -2.659e-08
5151.1, -2.862e-08
5153.1, -2.368e-08
5155.1, -2.502e-08
5157.2, -2.831e-08
5159.2, -2.754e-08
5161.2, -2.833e-08
5163.2, -2.979e-08
5165.2, -2.837e-08
5167.2, -3.051e-08
5169.2, -2.538e-08
5171.2, -2.702e-08
5173.2, -3.112e-08
5175.2, -2.789e-08
5177.2, -3.034e-08
5179.2, -2.77e-08
5181.2, -3.017e-08
5183.2, -2.916e-08
5185.2, -2.787e-08
5187.2, -2.441e-08
5189.2, -2.891e-08
5191.2, -3.183e-08
5193.2, -2.858e-08
5195.2, -2.467e-08
5197.2, -2.826e-08
5199.2, -2.887e-08
5201.2, -2.47e-08
5203.2, -2.39e-08
5205.2, -2.622e-08
5207.2, -2.708e-08
5209.2, -2.72e-08
5211.2, -2.767e-08
5213.2, -2.822e-08
5215.2, -2.854e-08
5217.2, -2.689e-08
5219.2, -2.614e-08
5221.2, -2.598e-08
5223.2, -2.999e-08
5225.2, -2.421e-08
5227.2, -2.089e-08
5229.2, -2.506e-08
5231.2, -2.545e-08
5233.2, -2.488e-08
5235.2, -2.61e-08
5237.2, -2.715e-08
5239.2, -2.547e-08
5241.2, -2.575e-08
5243.2, -2.69e-08
5245.2, -2.802e-08
5247.2, -3.185e-08
5249.2, -3.329e-08
5251.2, -3.014e-08
5253.2, -3.367e-08
5255.2, -3.021e-08
5257.3, -2.6e-08
5259.3, -2.824e-08
5261.3, -3.061e-08
5263.3, -2.769e-08
5265.3, -2.779e-08
5267.3, -3.054e-08
5269.3, -3.119e-08
5271.3, -3.147e-08
5273.3, -3.284e-08
5275.3, -2.987e-08
5277.3, -3.017e-08
5279.3, -2.995e-08
5281.3, -3.023e-08
5283.3, -2.94e-08
5285.3, -3.024e-08
5287.3, -2.85e-08
5289.3, -3.062e-08
5291.3, -3.401e-08
5293.3, -2.807e-08
5295.3, -2.599e-08
5297.3, -2.654e-08
5299.3, -2.726e-08
5301.3, -3.107e-08
5303.3, -3.073e-08
5305.3, -2.769e-08
5307.3, -2.811e-08
5309.3, -2.582e-08
5311.3, -2.627e-08
5313.3, -2.987e-08
5315.3, -3.07e-08
5317.3, -3.098e-08
5319.3, -3.065e-08
5321.3, -2.877e-08
5323.3, -2.97e-08
5325.3, -2.353e-08
5327.3, -2.574e-08
5329.3, -2.44e-08
5331.3, -2.65e-08
5333.3, -2.445e-08
5335.3, -2.61e-08
5337.3, -3.005e-08
5339.3, -2.745e-08
5341.3, -2.681e-08
5343.3, -2.567e-08
5345.3, -2.82e-08
5347.3, -2.801e-08
5349.3, -2.352e-08
5351.3, -2.853e-08
5353.3, -2.836e-08
5355.3, -2.595e-08
5357.4, -3e-08
5359.4, -2.703e-08
5361.4, -3.052e-08
5363.4, -2.899e-08
5365.4, -2.854e-08
5367.4, -2.924e-08
5369.4, -2.873e-08
5371.4, -2.865e-08
5373.4, -2.736e-08
5375.4, -2.649e-08
5377.4, -2.679e-08
5379.4, -2.75e-08
5381.4, -2.204e-08
5383.4, -2.969e-08
5385.4, -2.931e-08
5387.4, -2.816e-08
5389.4, -2.87e-08
5391.4, -2.816e-08
5393.4, -2.674e-08
5395.4, -2.584e-08
5397.4, -2.721e-08
5399.4, -2.696e-08
5401.4, -3.24e-08
5403.4, -3.008e-08
5405.4, -2.832e-08
5407.4, -2.569e-08
5409.4, -2.937e-08
5411.4, -2.743e-08
5413.4, -2.83e-08
5415.4, -2.593e-08
5417.4, -2.924e-08
5419.4, -3.232e-08
5421.4, -3.019e-08
5423.4, -3.039e-08
5425.4, -3.215e-08
5427.4, -2.959e-08
5429.4, -2.91e-08
5431.4, -2.824e-08
5433.4, -2.781e-08
5435.4, -2.95e-08
5437.4, -2.801e-08
5439.4, -3.128e-08
5441.4, -2.963e-08
5443.4, -3.189e-08
5445.4, -3.013e-08
5447.4, -3.183e-08
5449.4, -3.229e-08
5451.4, -3.461e-08
5453.4, -3.255e-08
5455.4, -3.149e-08
5457.5, -3.101e-08
5459.5, -3.008e-08
5461.5, -3.23e-08
5463.5, -3.178e-08
5465.5, -3.415e-08
5467.5, -3.382e-08
5469.5, -3.468e-08
5471.5, -3.019e-08
5473.5, -3.204e-08
5475.5, -3.079e-08
5477.5, -3.145e-08
5479.5, -3.16e-08
5481.5, -3.133e-08
5483.5, -2.863e-08
5485.5, -2.999e-08
5487.5, -3.043e-08
5489.5, -3.51e-08
5491.5, -3.168e-08
5493.5, -3.336e-08
5495.5, -3.373e-08
5497.5, -3.278e-08
5499.5, -3.587e-08
5501.5, -2.949e-08
5503.5, -3.01e-08
5505.5, -2.967e-08
5507.5, -2.855e-08
5509.5, -2.92e-08
5511.5, -2.964e-08
5513.5, -2.802e-08
5515.5, -2.748e-08
5517.5, -2.79e-08
5519.5, -2.968e-08
5521.5, -2.971e-08
5523.5, -2.821e-08
5525.5, -3.264e-08
5527.5, -3.684e-08
5529.5, -3.484e-08
5531.5, -3.017e-08
5533.5, -2.992e-08
5535.5, -3.027e-08
5537.5, -3.123e-08
5539.5, -3.023e-08
5541.5, -2.96e-08
5543.5, -2.53e-08
5545.5, -2.738e-08
5547.5, -2.87e-08
5549.5, -2.963e-08
5551.5, -3.161e-08
5553.5, -3.026e-08
5555.5, -3.295e-08
5557.6, -2.574e-08
5559.6, -3.081e-08
5561.6, -3.298e-08
5563.6, -2.962e-08
5565.6, -3.463e-08
5567.6, -3.152e-08
5569.6, -3.276e-08
5571.6, -2.94e-08
5573.6, -2.858e-08
5575.6, -3.228e-08
5577.6, -3.118e-08
5579.6, -3.082e-08
5581.6, -3.116e-08
5583.6, -3.195e-08
5585.6, -2.909e-08
5587.6, -2.977e-08
5589.6, -3.025e-08
5591.6, -3.314e-08
5593.6, -3.292e-08
5595.6, -3.325e-08
5597.6, -3.172e-08
5599.6, -2.862e-08
5601.6, -2.937e-08
5603.6, -2.715e-08
5605.6, -3.195e-08
5607.6, -3.482e-08
5609.6, -3.359e-08
5611.6, -3.405e-08
5613.6, -3.679e-08
5615.6, -3.008e-08
5617.6, -2.944e-08
5619.6, -3.131e-08
5621.6, -3.004e-08
5623.6, -3.32e-08
5625.6, -3.116e-08
5627.6, -3.202e-08
5629.6, -3.068e-08
5631.6, -3.135e-08
5633.6, -3.115e-08
5635.6, -3.424e-08
5637.6, -3.152e-08
5639.6, -3.26e-08
5641.6, -2.917e-08
5643.6, -2.721e-08
5645.6, -2.666e-08
5647.6, -3.221e-08
5649.6, -2.967e-08
5651.6, -3.143e-08
5653.6, -2.888e-08
5655.6, -2.943e-08
5657.7, -2.735e-08
5659.7, -2.631e-08
5661.7, -2.777e-08
5663.7, -2.496e-08
5665.7, -2.842e-08
5667.7, -2.806e-08
5669.7, -3.095e-08
5671.7, -3.115e-08
5673.7, -2.891e-08
5675.7, -2.755e-08
5677.7, -2.807e-08
5679.7, -2.921e-08
5681.7, -2.857e-08
5683.7, -2.858e-08
5685.7, -2.854e-08
5687.7, -2.767e-08
5689.7, -2.691e-08
5691.7, -2.687e-08
5693.7, -2.759e-08
5695.7, -2.308e-08
5697.7, -2.792e-08
5699.7, -2.936e-08
5701.7, -2.834e-08
5703.7, -2.571e-08
5705.7, -2.56e-08
5707.7, -2.981e-08
5709.7, -2.499e-08
5711.7, -2.81e-08
5713.7, -2.531e-08
5715.7, -2.523e-08
5717.7, -3.105e-08
5719.7, -2.833e-08
5721.7, -2.669e-08
5723.7, -2.887e-08
5725.7, -3.077e-08
5727.7, -2.979e-08
5729.7, -2.891e-08
5731.7, -2.699e-08
5733.7, -3.038e-08
5735.7, -2.853e-08
5737.7, -2.547e-08
5739.7, -2.801e-08
5741.7, -3.092e-08
5743.7, -3.133e-08
5745.7, -2.57e-08
5747.7, -2.943e-08
5749.7, -2.586e-08
5751.7, -2.623e-08
5753.7, -2.863e-08
5755.7, -2.955e-08
5757.8, -2.805e-08
5759.8, -3.07e-08
5761.8, -2.788e-08
5763.8, -2.877e-08
5765.8, -2.814e-08
5767.8, -3.029e-08
5769.8, -2.842e-08
5771.8, -2.741e-08
5773.8, -2.648e-08
5775.8, -2.999e-08
5777.8, -3.071e-08
5779.8, -3.027e-08
5781.8, -3.188e-08
5783.8, -3.167e-08
5785.8, -2.943e-08
5787.8, -2.911e-08
5789.8, -2.876e-08
5791.8, -2.962e-08
5793.8, -2.913e-08
5795.8, -3.061e-08
5797.8, -3.096e-08
5799.8, -3.385e-08
5801.8, -3.291e-08
5803.8, -3.355e-08
5805.8, -3.11e-08
5807.8, -3.174e-08
5809.8, -3.24e-08
5811.8, -3.202e-08
5813.8, -3.389e-08
5815.8, -3.017e-08
5817.8, -3.315e-08
5819.8, -3.649e-08
5821.8, -3.603e-08
5823.8, -3.768e-08
5825.8, -3.441e-08
5827.8, -2.992e-08
5829.8, -3.297e-08
5831.8, -3.218e-08
5833.8, -3.616e-08
5835.8, -3.475e-08
5837.8, -3.556e-08
5839.8, -3.636e-08
5841.8, -3.381e-08
5843.8, -3.641e-08
5845.8, -3.584e-08
5847.8, -3.263e-08
5849.8, -3.284e-08
5851.8, -2.824e-08
5853.8, -3.115e-08
5855.8, -3.16e-08
5857.9, -2.886e-08
5859.9, -3.017e-08
5861.9, -2.855e-08
5863.9, -2.989e-08
5865.9, -3.041e-08
5867.9, -3.032e-08
5869.9, -2.877e-08
5871.9, -2.922e-08
5873.9, -2.778e-08
5875.9, -3.097e-08
5877.9, -3.064e-08
5879.9, -3.102e-08
5881.9, -3.327e-08
5883.9, -3.104e-08
5885.9, -2.721e-08
5887.9, -2.777e-08
5889.9, -3.088e-08
5891.9, -3.221e-08
5893.9, -3.206e-08
5895.9, -2.989e-08
5897.9, -3.092e-08
5899.9, -3.177e-08
5901.9, -2.991e-08
5903.9, -3e-08
5905.9, -3.011e-08
5907.9, -2.984e-08
5909.9, -3.129e-08
5911.9, -3.135e-08
5913.9, -3.313e-08
5915.9, -3.036e-08
5917.9, -3.094e-08
5919.9, -3.048e-08
5921.9, -3.282e-08
5923.9, -3.12e-08
5925.9, -3.277e-08
5927.9, -3.117e-08
5929.9, -3.058e-08
5931.9, -3.175e-08
5933.9, -3.251e-08
5935.9, -2.867e-08
5937.9, -3.144e-08
5939.9, -2.962e-08
5941.9, -3.043e-08
5943.9, -2.889e-08
5945.9, -2.705e-08
5947.9, -3.006e-08
5949.9, -3.089e-08
5951.9, -3.211e-08
5953.9, -3.091e-08
5955.9, -2.869e-08
5958.0, -2.824e-08
5960.0, -3.289e-08
5962.0, -3.506e-08
5964.0, -3.099e-08
5966.0, -3.303e-08
5968.0, -2.942e-08
5970.0, -2.899e-08
5972.0, -2.786e-08
5974.0, -2.939e-08
5976.0, -2.998e-08
5978.0, -2.937e-08
5980.0, -3.302e-08
5982.0, -3.12e-08
5984.0, -3.031e-08
5986.0, -3.111e-08
5988.0, -2.876e-08
5990.0, -2.827e-08
5992.0, -2.711e-08
5994.0, -3.123e-08
5996.0, -2.962e-08
5998.0, -2.902e-08
6000.0, -3.23e-08
6002.0, -3.14e-08
6004.0, -3.285e-08
6006.0, -3.089e-08
6008.0, -3.025e-08
6010.0, -3.151e-08
6012.0, -3.048e-08
6014.0, -3.172e-08
6016.0, -3.157e-08
6018.0, -3.124e-08
6020.0, -2.948e-08
6022.0, -3.149e-08
6024.0, -3.29e-08
6026.0, -3.318e-08
6028.0, -3.058e-08
6030.0, -3.378e-08
6032.0, -3.314e-08
6034.0, -2.968e-08
6036.0, -2.592e-08
6038.0, -3.012e-08
6040.0, -3.158e-08
6042.0, -2.966e-08
6044.0, -2.918e-08
6046.0, -2.854e-08
6048.0, -2.761e-08
6050.0, -3.088e-08
6052.0, -2.912e-08
6054.0, -2.762e-08
6056.0, -2.815e-08
6058.1, -2.675e-08
6060.1, -2.93e-08
6062.1, -2.933e-08
6064.1, -3.026e-08
6066.1, -2.534e-08
6068.1, -2.778e-08
6070.1, -3.111e-08
6072.1, -2.855e-08
6074.1, -3.007e-08
6076.1, -3.462e-08
6078.1, -3.273e-08
6080.1, -3.362e-08
6082.1, -3.148e-08
6084.1, -3.034e-08
6086.1, -3.227e-08
6088.1, -3.266e-08
6090.1, -2.936e-08
6092.1, -3.26e-08
6094.1, -3.144e-08
6096.1, -3.109e-08
6098.1, -3.173e-08
6100.1, -3.239e-08
6102.1, -3.229e-08
6104.1, -3.196e-08
6106.1, -3.064e-08
6108.1, -3.214e-08
6110.1, -3.237e-08
6112.1, -3.185e-08
6114.1, -3.072e-08
6116.1, -2.61e-08
6118.1, -3.32e-08
6120.1, -3.34e-08
6122.1, -3.346e-08
6124.1, -3.454e-08
6126.1, -3.153e-08
6128.1, -3.002e-08
6130.1, -3.023e-08
6132.1, -2.825e-08
6134.1, -3.19e-08
6136.1, -3.114e-08
6138.1, -3.17e-08
6140.1, -2.89e-08
6142.1, -3.225e-08
6144.1, -3.111e-08
6146.1, -3.114e-08
6148.1, -3.248e-08
6150.1, -3.152e-08
6152.1, -2.846e-08
6154.1, -2.725e-08
6156.1, -3.013e-08
6158.2, -3.315e-08
6160.2, -2.57e-08
6162.2, -2.997e-08
6164.2, -2.822e-08
6166.2, -2.833e-08
6168.2, -2.965e-08
6170.2, -2.989e-08
6172.2, -2.784e-08
6174.2, -2.773e-08
6176.2, -2.98e-08
6178.2, -3.173e-08
6180.2, -3.237e-08
6182.2, -3.316e-08
6184.2, -3.002e-08
6186.2, -2.798e-08
6188.2, -3.008e-08
6190.2, -3.068e-08
6192.2, -3.207e-08
6194.2, -3.27e-08
6196.2, -3.274e-08
6198.2, -3.147e-08
6200.2, -2.983e-08
6202.2, -3.131e-08
6204.2, -3.097e-08
6206.2, -3.067e-08
6208.2, -3.009e-08
6210.2, -3.246e-08
6212.2, -3.246e-08
6214.2, -3.015e-08
6216.2, -3.054e-08
6218.2, -3.002e-08
6220.2, -3.182e-08
6222.2, -3.201e-08
6224.2, -3.162e-08
6226.2, -3.395e-08
6228.2, -2.999e-08
6230.2, -3.065e-08
6232.2, -3.447e-08
6234.2, -3.071e-08
6236.2, -2.803e-08
6238.2, -2.809e-08
6240.2, -3.036e-08
6242.2, -3.287e-08
6244.2, -3.397e-08
6246.2, -3.319e-08
6248.2, -3.292e-08
6250.2, -3.299e-08
6252.2, -3.373e-08
6254.2, -3.599e-08
6256.2, -3.414e-08
6258.3, -2.838e-08
6260.3, -3.08e-08
6262.3, -3.325e-08
6264.3, -3.16e-08
6266.3, -2.88e-08
6268.3, -3.327e-08
6270.3, -3.885e-08
6272.3, -3.36e-08
6274.3, -3.22e-08
6276.3, -3.117e-08
6278.3, -3.013e-08
6280.3, -3.366e-08
6282.3, -3.263e-08
6284.3, -3.297e-08
6286.3, -2.723e-08
6288.3, -3.047e-08
6290.3, -3.114e-08
6292.3, -3.255e-08
6294.3, -3.038e-08
6296.3, -3.077e-08
6298.3, -3.175e-08
6300.3, -3.351e-08
6302.3, -3.393e-08
6304.3, -3.295e-08
6306.3, -3.314e-08
6308.3, -3.637e-08
6310.3, -3.296e-08
6312.3, -3.202e-08
6314.3, -3.427e-08
6316.3, -3.5e-08
6318.3, -3.253e-08
6320.3, -3.419e-08
6322.3, -3.389e-08
6324.3, -3.493e-08
6326.3, -3.491e-08
6328.3, -3.603e-08
6330.3, -3.702e-08
6332.3, -3.393e-08
6334.3, -3.294e-08
6336.3, -3.218e-08
6338.3, -3.119e-08
6340.3, -3.265e-08
6342.3, -3.677e-08
6344.3, -3.439e-08
6346.3, -3.556e-08
6348.3, -3.641e-08
6350.3, -3.621e-08
6352.3, -3.335e-08
6354.3, -3.599e-08
6356.3, -3.414e-08
6358.4, -3.287e-08
6360.4, -3.376e-08
6362.4, -3.204e-08
6364.4, -3.411e-08
6366.4, -3e-08
6368.4, -3.332e-08
6370.4, -3.192e-08
6372.4, -2.84e-08
6374.4, -2.707e-08
6376.4, -3.114e-08
6378.4, -3.187e-08
6380.4, -3.546e-08
6382.4, -3.451e-08
6384.4, -3.867e-08
6386.4, -3.281e-08
6388.4, -3.298e-08
6390.4, -3.307e-08
6392.4, -2.999e-08
6394.4, -3.544e-08
6396.4, -3.076e-08
6398.4, -3.205e-08
6400.4, -3.431e-08
6402.4, -3.53e-08
6404.4, -3.555e-08
6406.4, -3.409e-08
6408.4, -3.482e-08
6410.4, -3.244e-08
6412.4, -3.696e-08
6414.4, -3.419e-08
6416.4, -3.529e-08
6418.4, -3.207e-08
6420.4, -3.388e-08
6422.4, -3.206e-08
6424.4, -3.415e-08
6426.4, -3.044e-08
6428.4, -3.369e-08
6430.4, -3.189e-08
6432.4, -2.943e-08
6434.4, -2.937e-08
6436.4, -3.206e-08
6438.4, -2.88e-08
6440.4, -3.133e-08
6442.4, -3.215e-08
6444.4, -2.981e-08
6446.4, -3.43e-08
6448.4, -3.256e-08
6450.4, -3.253e-08
6452.4, -3.164e-08
6454.4, -2.884e-08
6456.4, -3.263e-08
6458.5, -2.898e-08
6460.5, -3.102e-08
6462.5, -3.223e-08
6464.5, 1.1738e-06
6466.5, 4.006e-06
6468.5, 4.0699e-06
6470.5, 3.6482e-06
6472.5, 3.6972e-06
6474.5, 3.9592e-06
6476.5, 4.0846e-06
6478.5, 4.0922e-06
6480.5, 4.1499e-06
6482.5, 3.9136e-06
6484.5, 3.9479e-06
6486.5, 3.95e-06
6488.5, 3.9373e-06
6490.5, 4.1095e-06
6492.5, 3.941e-06
6494.5, 4.3489e-06
6496.5, 3.7808e-06
6498.5, 4.0593e-06
6500.5, 3.7975e-06
6502.5, 3.9496e-06
6504.5, 4.1545e-06
6506.5, 3.9616e-06
6508.5, 4.3129e-06
6510.5, 3.7901e-06
6512.5, 4.0228e-06
6514.5, 4.1408e-06
6516.5, 3.729e-06
6518.5, 3.9187e-06
6520.5, 4.1679e-06
6522.5, 3.9596e-06
6524.5, 4.1378e-06
6526.5, 4.129e-06
6528.5, 4.1416e-06
6530.5, 4.1078e-06
6532.5, 4.1113e-06
6534.5, 4.2173e-06
6536.5, 3.945e-06
6538.5, 4.0749e-06
6540.5, 4.1041e-06
6542.5, 4.1609e-06
6544.5, 4.0725e-06
6546.5, 4.1722e-06
6548.5, 4.0053e-06
6550.5, 4.0422e-06
6552.5, 4.0129e-06
6554.5, 3.8451e-06
6556.5, 4.1135e-06
6558.6, 4.2104e-06
6560.6, 3.9377e-06
6562.6, 4.1151e-06
6564.6, 4.076e-06
6566.6, 4.114e-06
6568.6, 4.4135e-06
6570.6, 4.1828e-06
6572.6, 4.1098e-06
6574.6, 4.1736e-06
6576.6, 3.9854e-06
6578.6, 4.0747e-06
6580.6, 4.1454e-06
6582.6, 3.9684e-06
6584.6, 3.8624e-06
6586.6, 4.1993e-06
6588.6, 4.2797e-06
6590.6, 4.2318e-06
6592.6, 4.1107e-06
6594.6, 4.2071e-06
6596.6, 4.1029e-06
6598.6, 4.2447e-06
6600.6, 4.0828e-06
6602.6, 4.2281e-06
6604.6, 3.9876e-06
6606.6, 4.026e-06
6608.6, 4.2352e-06
6610.6, 4.2018e-06
6612.6, 4.1636e-06
6614.6, 4.3386e-06
6616.6, 4.0793e-06
6618.6, 4.1825e-06
6620.6, 4.413e-06
6622.6, 4.1203e-06
6624.6, 4.0592e-06
6626.6, 4.1408e-06
6628.6, 4.1548e-06
6630.6, 4.0943e-06
6632.6, 4.1586e-06
6634.6, 4.1655e-06
6636.6, 3.8202e-06
6638.6, 4.13e-06
6640.6, 4.3631e-06
6642.6, 4.2514e-06
6644.6, 4.3e-06
6646.6, 4.1021e-06
6648.6, 4.1628e-06
6650.6, 4.1977e-06
6652.6, 4.2507e-06
6654.6, 4.3499e-06
6656.6, 4.3794e-06
6658.7, 4.1263e-06
6660.7, 3.5652e-06
6662.7, 4.0415e-06
6664.7, 4.3418e-06
6666.7, 4.2189e-06
6668.7, 4.0842e-06
6670.7, 3.9948e-06
6672.7, 4.0718e-06
6674.7, 4.0692e-06
6676.7, 4.1605e-06
6678.7, 4.3353e-06
6680.7, 4.3433e-06
6682.7, 3.9858e-06
6684.7, 4.3035e-06
6686.7, 4.2946e-06
6688.7, 4.4832e-06
6690.7, 4.4178e-06
6692.7, 4.3446e-06
6694.7, 4.2022e-06
6696.7, 4.3172e-06
6698.7, 4.3512e-06
6700.7, 4.1971e-06
6702.7, 4.3432e-06
6704.7, 4.3595e-06
6706.7, 4.5425e-06
6708.7, 4.4793e-06
6710.7, 4.2481e-06
6712.7, 4.4392e-06
6714.7, 4.3395e-06
6716.7, 4.4159e-06
6718.7, 3.9627e-06
6720.7, 4.0839e-06
6722.7, 4.2677e-06
6724.7, 4.4656e-06
6726.7, 4.4473e-06
6728.7, 4.1197e-06
6730.7, 4.1893e-06
6732.7, 4.4498e-06
6734.7, 4.3456e-06
6736.7, 4.435e-06
6738.7, 3.9945e-06
6740.7, 4.0418e-06
6742.7, 4.1946e-06
6744.7, 4.1741e-06
6746.7, 4.3177e-06
6748.7, 4.2994e-06
6750.7, 4.265e-06
6752.7, 4.2931e-06
6754.7, 4.3112e-06
6756.7, 4.2032e-06
6758.8, 4.2535e-06
6760.8, 4.4897e-06
6762.8, 4.3605e-06
6764.8, 4.4081e-06
6766.8, 4.0218e-06
6768.8, 4.2929e-06
6770.8, 4.4502e-06
6772.8, 4.3679e-06
6774.8, 4.3867e-06
6776.8, 4.3201e-06
6778.8, 4.0945e-06
6780.8, 4.2181e-06
6782.8, 4.1979e-06
6784.8, 4.1369e-06
6786.8, 4.3326e-06
6788.8, 4.1769e-06
6790.8, 4.3926e-06
6792.8, 4.3762e-06
6794.8, 4.3742e-06
6796.8, 4.1999e-06
6798.8, 4.3204e-06
6800.8, 4.1769e-06
6802.8, 4.371e-06
6804.8, 4.3873e-06
6806.8, 4.2375e-06
6808.8, 4.2688e-06
6810.8, 4.204e-06
6812.8, 4.0551e-06
6814.8, 4.3105e-06
6816.8, 4.0412e-06
6818.8, 4.2166e-06
6820.8, 4.3921e-06
6822.8, 4.4392e-06
6824.8, 4.4083e-06
6826.8, 4.3811e-06
6828.8, 4.3788e-06
6830.8, 4.135e-06
6832.8, 4.4534e-06
6834.8, 4.2662e-06
6836.8, 4.077e-06
6838.8, 4.4354e-06
6840.8, 4.3353e-06
6842.8, 4.1959e-06
6844.8, 4.3887e-06
6846.8, 4.4253e-06
6848.8, 4.4651e-06
6850.8, 4.2314e-06
6852.8, 4.409e-06
6854.8, 4.2678e-06
6856.8, 4.4579e-06
6858.9, 4.4503e-06
6860.9, 4.3162e-06
6862.9, 4.2208e-06
6864.9, 4.3829e-06
6866.9, 4.3388e-06
6868.9, 4.2797e-06
6870.9, 4.0656e-06
6872.9, 4.2349e-06
6874.9, 4.4149e-06
6876.9, 4.15e-06
6878.9, 3.9433e-06
6880.9, 4.2632e-06
6882.9, 4.5379e-06
6884.9, 4.5084e-06
6886.9, 4.2562e-06
6888.9, 4.1131e-06
6890.9, 4.1791e-06
6892.9, 4.5784e-06
6894.9, 4.3338e-06
6896.9, 4.1757e-06
6898.9, 4.4113e-06
6900.9, 4.3767e-06
6902.9, 4.2248e-06
6904.9, 4.2415e-06
6906.9, 4.4353e-06
6908.9, 4.2591e-06
6910.9, 4.1826e-06
6912.9, 4.4111e-06
6914.9, 4.2758e-06
6916.9, 4.2042e-06
6918.9, 4.2606e-06
6920.9, 4.2262e-06
6922.9, 4.1838e-06
6924.9, 4.2947e-06
6926.9, 4.2633e-06
6928.9, 4.1184e-06
6930.9, 4.1318e-06
6932.9, 4.1737e-06
6934.9, 4.4057e-06
6936.9, 4.3575e-06
6938.9, 4.4362e-06
6940.9, 4.6677e-06
6942.9, 4.4093e-06
6944.9, 4.4924e-06
6946.9, 4.4152e-06
6948.9, 4.2878e-06
6950.9, 4.2622e-06
6952.9, 4.4022e-06
6954.9, 4.3358e-06
6956.9, 4.2598e-06
6959.0, 4.3697e-06
6961.0, 4.3252e-06
6963.0, 4.2123e-06
6965.0, 4.2333e-06
6967.0, 4.1271e-06
6969.0, 4.1409e-06
6971.0, 4.3398e-06
6973.0, 4.5434e-06
6975.0, 4.3525e-06
6977.0, 4.5326e-06
6979.0, 4.4952e-06
6981.0, 4.1884e-06
6983.0, 4.3449e-06
6985.0, 4.3871e-06
6987.0, 4.4847e-06
6989.0, 3.9906e-06
6991.0, 4.4368e-06
6993.0, 4.2101e-06
6995.0, 4.4359e-06
6997.0, 4.2815e-06
6999.0, 4.3797e-06
7001.0, 4.3084e-06
7003.0, 4.298e-06
7005.0, 4.3037e-06
7007.0, 4.5047e-06
7009.0, 4.2799e-06
7011.0, 4.3538e-06
7013.0, 4.4453e-06
7015.0, 4.3893e-06
7017.0, 4.5351e-06
7019.0, 4.4299e-06
7021.0, 4.4793e-06
7023.0, 4.416e-06
7025.0, 4.3129e-06
7027.0, 4.4049e-06
7029.0, 4.2701e-06
7031.0, 4.1711e-06
7033.0, 4.4842e-06
7035.0, 4.2002e-06
7037.0, 4.3263e-06
7039.0, 4.5919e-06
7041.0, 4.3655e-06
7043.0, 4.5037e-06
7045.0, 4.2876e-06
7047.0, 4.4952e-06
7049.0, 4.2056e-06
7051.0, 4.248e-06
7053.0, 4.5638e-06
7055.0, 4.3216e-06
7057.0, 4.3614e-06
7059.1, 4.4383e-06
7061.1, 4.4836e-06
7063.1, 4.4197e-06
7065.1, 4.5077e-06
7067.1, 4.3101e-06
7069.1, 4.4923e-06
7071.1, 4.3828e-06
7073.1, 4.447e-06
7075.1, 4.3648e-06
7077.1, 4.4477e-06
7079.1, 4.4454e-06
7081.1, 4.2883e-06
7083.1, 4.4723e-06
7085.1, 4.3805e-06
7087.1, 4.1333e-06
7089.1, 4.3441e-06
7091.1, 4.4716e-06
7093.1, 4.3999e-06
7095.1, 4.3651e-06
7097.1, 4.4211e-06
7099.1, 4.5327e-06
7101.1, 4.4002e-06
7103.1, 4.3425e-06
7105.1, 4.4924e-06
7107.1, 4.3636e-06
7109.1, 4.1507e-06
7111.1, 4.3617e-06
7113.1, 4.4334e-06
7115.1, 4.4775e-06
7117.1, 4.2926e-06
7119.1, 4.4503e-06
7121.1, 4.3633e-06
7123.1, 4.2553e-06
7125.1, 4.145e-06
7127.1, 4.2476e-06
7129.1, 4.2146e-06
7131.1, 4.2626e-06
7133.1, 4.3811e-06
7135.1, 4.3665e-06
7137.1, 4.3832e-06
7139.1, 4.314e-06
7141.1, 4.3105e-06
7143.1, 4.3054e-06
7145.1, 4.4419e-06
7147.1, 4.3947e-06
7149.1, 4.4592e-06
7151.1, 4.3596e-06
7153.1, 4.1681e-06
7155.1, 4.4996e-06
7157.1, 4.4866e-06
7159.2, 4.3009e-06
7161.2, 4.3241e-06
7163.2, 4.4501e-06
7165.2, 4.3925e-06
7167.2, 4.4446e-06
7169.2, 4.3564e-06
7171.2, 4.4133e-06
7173.2, 4.4152e-06
7175.2, 4.3815e-06
7177.2, 4.472e-06
7179.2, 4.6575e-06
7181.2, 4.5235e-06
7183.2, 4.3913e-06
7185.2, 4.3641e-06
7187.2, 4.4089e-06
7189.2, 4.4035e-06
7191.2, 4.1118e-06
7193.2, 4.3917e-06
7195.2, 4.404e-06
7197.2, 4.5143e-06
7199.2, 4.3689e-06
7201.2, 4.6049e-06
7203.2, 4.3205e-06
7205.2, 4.3133e-06
7207.2, 4.512e-06
7209.2, 4.4415e-06
7211.2, 4.3954e-06
7213.2, 4.304e-06
7215.2, 4.437e-06
7217.2, 4.2566e-06
7219.2, 4.3496e-06
7221.2, 4.3748e-06
7223.2, 4.3123e-06
7225.2, 4.4517e-06
7227.2, 4.4968e-06
7229.2, 4.2768e-06
7231.2, 4.5405e-06
7233.2, 4.226e-06
7235.2, 4.2878e-06
7237.2, 4.5097e-06
7239.2, 4.2398e-06
7241.2, 4.4335e-06
7243.2, 4.3914e-06
7245.2, 4.3224e-06
7247.2, 4.4269e-06
7249.2, 4.2471e-06
7251.2, 4.3783e-06
7253.2, 4.326e-06
7255.2, 4.2708e-06
7257.2, 4.4569e-06
7259.3, 4.4761e-06
7261.3, 4.3862e-06
7263.3, 4.5782e-06
7265.3, 4.3909e-06
7267.3, 4.3378e-06
7269.3, 4.3954e-06
7271.3, 4.6002e-06
7273.3, 4.3803e-06
7275.3, 4.3091e-06
7277.3, 4.4667e-06
7279.3, 4.5848e-06
7281.3, 4.4378e-06
7283.3, 4.1176e-06
7285.3, 4.3664e-06
7287.3, 4.0741e-06
7289.3, 4.3545e-06
7291.3, 4.3471e-06
7293.3, 4.4094e-06
7295.3, 4.393e-06
7297.3, 4.3274e-06
7299.3, 4.4616e-06
7301.3, 4.4458e-06
7303.3, 4.2716e-06
7305.3, 4.4754e-06
7307.3, 4.4666e-06
7309.3, 4.2556e-06
7311.3, 4.3783e-06
7313.3, 4.3364e-06
7315.3, 4.2317e-06
7317.3, 4.4028e-06
7319.3, 4.4886e-06
7321.3, 4.3747e-06
7323.3, 4.4053e-06
7325.3, 4.3188e-06
7327.3, 4.1749e-06
7329.3, 4.3977e-06
7331.3, 4.1692e-06
7333.3, 4.4751e-06
7335.3, 4.4417e-06
7337.3, 4.4229e-06
7339.3, 4.3191e-06
7341.3, 4.4854e-06
7343.3, 4.5292e-06
7345.3, 4.4689e-06
7347.3, 4.4719e-06
7349.3, 4.273e-06
7351.3, 4.3018e-06
7353.3, 4.4286e-06
7355.3, 4.3684e-06
7357.3, 4.4415e-06
7359.4, 4.4988e-06
7361.4, 4.523e-06
7363.4, 4.4538e-06
7365.4, 4.5441e-06
7367.4, 4.3869e-06
7369.4, 4.3823e-06
7371.4, 4.166e-06
7373.4, 4.5579e-06
7375.4, 4.3491e-06
7377.4, 4.4394e-06
7379.4, 4.2017e-06
7381.4, 4.3953e-06
7383.4, 4.5626e-06
7385.4, 4.3653e-06
7387.4, 4.3385e-06
7389.4, 4.4832e-06
7391.4, 4.5869e-06
7393.4, 4.4807e-06
7395.4, 4.513e-06
7397.4, 4.4036e-06
7399.4, 4.5781e-06
7401.4, 4.3931e-06
7403.4, 4.1093e-06
7405.4, 4.1663e-06
7407.4, 4.2245e-06
7409.4, 4.2881e-06
7411.4, 4.3794e-06
7413.4, 4.403e-06
7415.4, 4.4852e-06
7417.4, 4.5406e-06
7419.4, 4.3141e-06
7421.4, 4.6387e-06
7423.4, 4.392e-06
7425.4, 4.3258e-06
7427.4, 4.5573e-06
7429.4, 4.3147e-06
7431.4, 4.3966e-06
7433.4, 4.2848e-06
7435.4, 4.2941e-06
7437.4, 4.4128e-06
7439.4, 4.4298e-06
7441.4, 4.3057e-06
7443.4, 4.56e-06
7445.4, 4.4176e-06
7447.4, 4.4956e-06
7449.4, 4.2941e-06
7451.4, 4.3617e-06
7453.4, 4.5306e-06
7455.4, 4.3547e-06
7457.4, 4.1808e-06
7459.5, 4.5117e-06
7461.5, 4.3116e-06
7463.5, 4.5074e-06
7465.5, 2.3683e-06
7467.5, -2.473e-08
7469.5, -2.675e-08
7471.5, -2.537e-08
7473.5, -2.996e-08
7475.5, -3.1e-08
7477.5, -2.906e-08
7479.5, -2.813e-08
7481.5, -3.052e-08
7483.5, -2.774e-08
7485.5, -2.525e-08
7487.5, -2.572e-08
7489.5, -2.761e-08
7491.5, -2.952e-08
7493.5, -2.513e-08
7495.5, -2.705e-08
7497.5, -3.048e-08
7499.5, -3.27e-08
7501.5, -3.003e-08
7503.5, -2.911e-08
7505.5, -2.879e-08
7507.5, -2.835e-08
7509.5, -2.763e-08
7511.5, -2.766e-08
7513.5, -2.674e-08
7515.5, -2.879e-08
7517.5, -3.131e-08
7519.5, -2.994e-08
7521.5, -2.781e-08
7523.5, -2.486e-08
7525.5, -2.705e-08
7527.5, -2.892e-08
7529.5, -2.876e-08
7531.5, -2.708e-08
7533.5, -2.737e-08
7535.5, -2.957e-08
7537.5, -3.065e-08
7539.5, -3.086e-08
7541.5, -2.89e-08
7543.5, -2.905e-08
7545.5, -2.511e-08
7547.5, -2.692e-08
7549.5, -2.904e-08
7551.5, -3.003e-08
7553.5, -3.101e-08
7555.5, -2.67e-08
7557.5, -2.764e-08
7559.6, -2.887e-08
7561.6, -2.597e-08
7563.6, -2.587e-08
7565.6, -2.348e-08
7567.6, -2.543e-08
7569.6, -2.92e-08
7571.6, -2.746e-08
7573.6, -2.549e-08
7575.6, -2.312e-08
7577.6, -2.851e-08
7579.6, -2.872e-08
7581.6, -2.719e-08
7583.6, -3.028e-08
7585.6, -2.719e-08
7587.6, -2.37e-08
7589.6, -2.715e-08
7591.6, -2.598e-08
7593.6, -2.786e-08
7595.6, -2.646e-08
7597.6, -2.703e-08
7599.6, -2.632e-08
7601.6, -2.763e-08
7603.6, -2.976e-08
7605.6, -2.923e-08
7607.6, -2.983e-08
7609.6, -2.803e-08
7611.6, -3.055e-08
7613.6, -2.98e-08
7615.6, -2.969e-08
7617.6, -2.678e-08
7619.6, -2.631e-08
7621.6, -2.875e-08
7623.6, -2.813e-08
7625.6, -2.991e-08
7627.6, -2.668e-08
7629.6, -2.719e-08
7631.6, -2.603e-08
7633.6, -2.839e-08
7635.6, -2.799e-08
7637.6, -2.895e-08
7639.6, -2.675e-08
7641.6, -2.476e-08
7643.6, -2.738e-08
7645.6, -2.62e-08
7647.6, -2.469e-08
7649.6, -2.778e-08
7651.6, -2.599e-08
7653.6, -2.863e-08
7655.6, -2.679e-08
7657.6, -2.851e-08
7659.7, -2.795e-08
7661.7, -2.864e-08
7663.7, -2.578e-08
7665.7, -2.437e-08
7667.7, -2.679e-08
7669.7, -2.612e-08
7671.7, -3.025e-08
7673.7, -2.685e-08
7675.7, -2.604e-08
7677.7, -2.996e-08
7679.7, -2.267e-08
7681.7, -2.843e-08
7683.7, -2.962e-08
7685.7, -2.416e-08
7687.7, -2.457e-08
7689.7, -2.324e-08
7691.7, -2.166e-08
7693.7, -2.576e-08
7695.7, -2.131e-08
7697.7, -2.277e-08
7699.7, -2.17e-08
7701.7, -2.524e-08
7703.7, -2.442e-08
7705.7, -2.074e-08
7707.7, -2.282e-08
7709.7, -2.339e-08
7711.7, -2.78e-08
7713.7, -2.922e-08
7715.7, -2.799e-08
7717.7, -2.813e-08
7719.7, -2.796e-08
7721.7, -2.458e-08
7723.7, -2.7e-08
7725.7, -2.802e-08
7727.7, -2.72e-08
7729.7, -2.45e-08
7731.7, -2.581e-08
7733.7, -2.717e-08
7735.7, -2.819e-08
7737.7, -2.582e-08
7739.7, -2.834e-08
7741.7, -2.504e-08
7743.7, -2.35e-08
7745.7, -2.834e-08
7747.7, -2.553e-08
7749.7, -3.203e-08
7751.7, -3.024e-08
7753.7, -3.228e-08
7755.7, -2.907e-08
7757.7, -2.84e-08
7759.8, -2.911e-08
7761.8, -3.129e-08
7763.8, -2.885e-08
7765.8, -2.81e-08
7767.8, -2.995e-08
7769.8, -2.56e-08
7771.8, -2.666e-08
7773.8, -2.745e-08
7775.8, -2.802e-08
7777.8, -2.823e-08
7779.8, -2.782e-08
7781.8, -3.01e-08
7783.8, -2.839e-08
7785.8, -2.662e-08
7787.8, -2.592e-08
7789.8, -2.788e-08
7791.8, -2.84e-08
7793.8, -3.008e-08
7795.8, -2.779e-08
7797.8, -2.958e-08
7799.8, -2.885e-08
7801.8, -2.669e-08
7803.8, -3.227e-08
7805.8, -2.966e-08
7807.8, -2.653e-08
7809.8, -2.732e-08
7811.8, -2.706e-08
7813.8, -2.713e-08
7815.8, -2.724e-08
7817.8, -2.905e-08
7819.8, -2.807e-08
7821.8, -2.689e-08
7823.8, -3.016e-08
7825.8, -2.873e-08
7827.8, -3.027e-08
7829.8, -3.021e-08
7831.8, -3.088e-08
7833.8, -3.084e-08
7835.8, -2.798e-08
7837.8, -2.847e-08
7839.8, -3.358e-08
7841.8, -3.081e-08
7843.8, -2.862e-08
7845.8, -2.994e-08
7847.8, -2.594e-08
7849.8, -3.197e-08
7851.8, -3.038e-08
7853.8, -2.501e-08
7855.8, -3.171e-08
7857.8, -3.002e-08
7859.9, -2.813e-08
7861.9, -2.985e-08
7863.9, -2.878e-08
7865.9, -2.629e-08
7867.9, -3.078e-08
7869.9, -3.022e-08
7871.9, -2.789e-08
7873.9, -2.861e-08
7875.9, -2.727e-08
7877.9, -2.968e-08
7879.9, -2.594e-08
7881.9, -2.873e-08
7883.9, -2.871e-08
7885.9, -3.007e-08
7887.9, -2.91e-08
7889.9, -2.426e-08
7891.9, -2.677e-08
7893.9, -2.805e-08
7895.9, -2.711e-08
7897.9, -3.03e-08
7899.9, -2.619e-08
7901.9, -2.67e-08
7903.9, -2.961e-08
7905.9, -2.722e-08
7907.9, -2.509e-08
7909.9, -2.713e-08
7911.9, -3.003e-08
7913.9, -2.75e-08
7915.9, -2.828e-08
7917.9, -2.782e-08
7919.9, -3.336e-08
7921.9, -3.02e-08
7923.9, -3.095e-08
7925.9, -3.173e-08
7927.9, -2.839e-08
7929.9, -2.58e-08
7931.9, -3.009e-08
7933.9, -2.674e-08
7935.9, -2.709e-08
7937.9, -2.561e-08
7939.9, -2.774e-08
7941.9, -3.034e-08
7943.9, -3.02e-08
7945.9, -2.843e-08
7947.9, -2.967e-08
7949.9, -2.932e-08
7951.9, -2.523e-08
7953.9, -2.886e-08
7955.9, -2.962e-08
7957.9, -3.063e-08
7960.0, -2.755e-08
7962.0, -2.823e-08
7964.0, -2.625e-08
7966.0, -2.999e-08
7968.0, -2.934e-08
7970.0, -2.925e-08
7972.0, -2.692e-08
7974.0, -2.859e-08
7976.0, -2.538e-08
7978.0, -2.605e-08
7980.0, -2.965e-08
7982.0, -2.706e-08
7984.0, -2.716e-08
7986.0, -2.803e-08
7988.0, -2.693e-08
7990.0, -2.907e-08
7992.0, -2.957e-08
7994.0, -2.757e-08
7996.0, -2.779e-08
7998.0, -2.849e-08
8000.0, -2.764e-08
8002.0, -2.72e-08
8004.0, -2.968e-08
8006.0, -3.117e-08
8008.0, -3.102e-08
8010.0, -2.829e-08
8012.0, -3.076e-08
8014.0, -2.876e-08
8016.0, -2.864e-08
8018.0, -2.835e-08
8020.0, -3.055e-08
8022.0, -2.893e-08
8024.0, -2.843e-08
8026.0, -3.216e-08
8028.0, -2.756e-08
8030.0, -2.932e-08
8032.0, -2.84e-08
8034.0, -3.05e-08
8036.0, -3.07e-08
8038.0, -2.988e-08
8040.0, -3.111e-08
8042.0, -3.38e-08
8044.0, -3.474e-08
8046.0, -3.595e-08
8048.0, -3.197e-08
8050.0, -3.439e-08
8052.0, -3.345e-08
8054.0, -3.607e-08
8056.0, -3.307e-08
8058.0, -3.033e-08
8060.1, -3.099e-08
8062.1, -3.187e-08
8064.1, -3.089e-08
8066.1, -3.273e-08
8068.1, -3.132e-08
8070.1, -2.749e-08
8072.1, -3.251e-08
8074.1, -3.205e-08
8076.1, -2.715e-08
8078.1, -2.98e-08
8080.1, -2.828e-08
8082.1, -2.877e-08
8084.1, -2.749e-08
8086.1, -3.282e-08
8088.1, -3.003e-08
8090.1, -2.979e-08
8092.1, -3.167e-08
8094.1, -3.537e-08
8096.1, -3.059e-08
8098.1, -3.14e-08
8100.1, -3.004e-08
8102.1, -3.478e-08
8104.1, -3.354e-08
8106.1, -3.214e-08
8108.1, -3.03e-08
8110.1, -3.035e-08
8112.1, -3.156e-08
8114.1, -3.015e-08
8116.1, -3.395e-08
8118.1, -3.002e-08
8120.1, -3.066e-08
8122.1, -2.928e-08
8124.1, -3.335e-08
8126.1, -3.354e-08
8128.1, -3.093e-08
8130.1, -3.346e-08
8132.1, -3.235e-08
8134.1, -3.12e-08
8136.1, -3.135e-08
8138.1, -3.021e-08
8140.1, -3.253e-08
8142.1, -3.08e-08
8144.1, -3.161e-08
8146.1, -3.045e-08
8148.1, -3.069e-08
8150.1, -3.152e-08
8152.1, -3.436e-08
8154.1, -3.339e-08
8156.1, -3.269e-08
8158.1, -3.381e-08
8160.2, -3.605e-08
8162.2, -3.24e-08
8164.2, -2.861e-08
8166.2, -2.931e-08
8168.2, -3.002e-08
8170.2, -3.124e-08
8172.2, -3.022e-08
8174.2, -3.077e-08
8176.2, -3.207e-08
8178.2, -2.761e-08
8180.2, -3.18e-08
8182.2, -3.398e-08
8184.2, -3.609e-08
8186.2, -3.215e-08
8188.2, -3.284e-08
8190.2, -3.322e-08
8192.2, -3.096e-08
8194.2, -3.429e-08
8196.2, -3.31e-08
8198.2, -3.04e-08
8200.2, -3.113e-08
8202.2, -3.132e-08
8204.2, -3.448e-08
8206.2, -3.056e-08
8208.2, -3.057e-08
8210.2, -3.505e-08
8212.2, -3.051e-08
8214.2, -3.308e-08
8216.2, -2.925e-08
8218.2, -3.171e-08
8220.2, -3.001e-08
8222.2, -3.083e-08
8224.2, -3.072e-08
8226.2, -3.363e-08
8228.2, -3.558e-08
8230.2, -3.107e-08
8232.2, -3.441e-08
8234.2, -3.525e-08
8236.2, -3.252e-08
8238.2, -3.303e-08
8240.2, -2.923e-08
8242.2, -3.03e-08
8244.2, -3.285e-08
8246.2, -3.381e-08
8248.2, -3.191e-08
8250.2, -3.099e-08
8252.2, -3.33e-08
8254.2, -2.895e-08
8256.2, -3.056e-08
8258.2, -2.583e-08
8260.3, -2.936e-08
8262.3, -2.916e-08
8264.3, -2.71e-08
8266.3, -2.971e-08
8268.3, -2.766e-08
8270.3, -3.267e-08
8272.3, -2.871e-08
8274.3, -2.975e-08
8276.3, -3.065e-08
8278.3, -2.687e-08
8280.3, -3.037e-08
8282.3, -3.009e-08
8284.3, -3.537e-08
8286.3, -3.108e-08
8288.3, -3.017e-08
8290.3, -2.904e-08
8292.3, -3.514e-08
8294.3, -3.112e-08
8296.3, -3.064e-08
8298.3, -3.093e-08
8300.3, -3.301e-08
8302.3, -2.986e-08
8304.3, -3.269e-08
8306.3, -2.898e-08
8308.3, -3.142e-08
8310.3, -3.085e-08
8312.3, -3.272e-08
8314.3, -3.243e-08
8316.3, -3.561e-08
8318.3, -3.518e-08
8320.3, -2.846e-08
8322.3, -3.28e-08
8324.3, -3.019e-08
8326.3, -3e-08
8328.3, -2.778e-08
8330.3, -3.189e-08
8332.3, -3.22e-08
8334.3, -3.2e-08
8336.3, -3.051e-08
8338.3, -3.029e-08
8340.3, -3.363e-08
8342.3, -3.263e-08
8344.3, -3.077e-08
8346.3, -3.098e-08
8348.3, -2.87e-08
8350.3, -2.841e-08
8352.3, -3.523e-08
8354.3, -3.118e-08
8356.3, -3.153e-08
8358.3, -3.263e-08
8360.4, -3.369e-08
8362.4, -3.108e-08
8364.4, -3.187e-08
8366.4, -2.99e-08
8368.4, -3.013e-08
8370.4, -3.161e-08
8372.4, -3.08e-08
8374.4, -3.271e-08
8376.4, -2.934e-08
8378.4, -2.737e-08
8380.4, -2.829e-08
8382.4, -3.079e-08
8384.4, -2.736e-08
8386.4, -2.935e-08
8388.4, -3.001e-08
8390.4, -2.881e-08
8392.4, -3.31e-08
8394.4, -3.093e-08
8396.4, -3.113e-08
8398.4, -3.178e-08
8400.4, -3.388e-08
8402.4, -3.693e-08
8404.4, -3.248e-08
8406.4, -3.379e-08
8408.4, -3.571e-08
8410.4, -3.5e-08
8412.4, -3.565e-08
8414.4, -3.682e-08
8416.4, -3.483e-08
8418.4, -3.21e-08
8420.4, -3.258e-08
8422.4, -3.359e-08
8424.4, -3.414e-08
8426.4, -3.093e-08
8428.4, -3.007e-08
8430.4, -2.584e-08
8432.4, -2.991e-08
8434.4, -3.368e-08
8436.4, -3.614e-08
8438.4, -3.412e-08
8440.4, -3.448e-08
8442.4, -3.389e-08
8444.4, -3.314e-08
8446.4, -2.944e-08
8448.4, -3.263e-08
8450.4, -3.1e-08
8452.4, -3.628e-08
8454.4, -3.387e-08
8456.4, -3.607e-08
8458.4, -3.567e-08
8460.5, -3.132e-08
8462.5, -3.731e-08
8464.5, -3.583e-08
8466.5, -3.796e-08
8468.5, -3.319e-08
8470.5, -3.184e-08
8472.5, -3.147e-08
8474.5, -3.443e-08
8476.5, -3.548e-08
8478.5, -3.213e-08
8480.5, -3.757e-08
8482.5, -3.441e-08
8484.5, -3.639e-08
8486.5, -3.002e-08
8488.5, -3.418e-08
8490.5, -3.306e-08
8492.5, -3.501e-08
8494.5, -3.506e-08
8496.5, -3.388e-08
8498.5, 2.2754e-06
8500.5, 4.0635e-06
8502.5, 4.0495e-06
8504.5, 4.0094e-06
8506.5, 4.0454e-06
8508.5, 4.0312e-06
8510.5, 4.2803e-06
8512.5, 3.5415e-06
8514.5, 4.3855e-06
8516.5, 3.3335e-06
8518.5, 3.9496e-06
8520.5, 3.7484e-06
8522.5, 3.8334e-06
8524.5, 3.9589e-06
8526.5, 4.105e-06
8528.5, 4.2533e-06
8530.5, 4.1426e-06
8532.5, 3.9404e-06
8534.5, 4.1378e-06
8536.5, 3.7073e-06
8538.5, 3.913e-06
8540.5, 4.2443e-06
8542.5, 3.6319e-06
8544.5, 4.2444e-06
8546.5, 3.863e-06
8548.5, 4.014e-06
8550.5, 3.5384e-06
8552.5, 4.0452e-06
8554.5, 4.0146e-06
8556.5, 3.9327e-06
8558.5, 4.1229e-06
8560.6, 3.8424e-06
8562.6, 4.1359e-06
8564.6, 3.9014e-06
8566.6, 4.0112e-06
8568.6, 4.3822e-06
8570.6, 4.1031e-06
8572.6, 4.3653e-06
8574.6, 3.889e-06
8576.6, 4.4428e-06
8578.6, 4.5019e-06
8580.6, 4.4437e-06
8582.6, 4.0752e-06
8584.6, 4.1403e-06
8586.6, 4.105e-06
8588.6, 4.3259e-06
8590.6, 3.9914e-06
8592.6, 3.9366e-06
8594.6, 4.4998e-06
8596.6, 4.287e-06
8598.6, 4.0515e-06
8600.6, 4.1617e-06
8602.6, 4.1474e-06
8604.6, 4.1557e-06
8606.6, 4.1547e-06
8608.6, 4.2819e-06
8610.6, 4.4408e-06
8612.6, 4.1155e-06
8614.6, 4.1462e-06
8616.6, 4.1771e-06
8618.6, 4.157e-06
8620.6, 4.5136e-06
8622.6, 4.4391e-06
8624.6, 4.2213e-06
8626.6, 4.2457e-06
8628.6, 4.361e-06
8630.6, 4.1823e-06
8632.6, 4.1334e-06
8634.6, 3.9246e-06
8636.6, 3.7553e-06
8638.6, 4.0624e-06
8640.6, 4.334e-06
8642.6, 4.21e-06
8644.6, 4.2538e-06
8646.6, 3.9757e-06
8648.6, 3.9092e-06
8650.6, 4.4641e-06
8652.6, 4.2366e-06
8654.6, 4.3918e-06
8656.6, 4.3298e-06
8658.6, 4.2772e-06
8660.7, 4.3497e-06
8662.7, 4.3897e-06
8664.7, 4.3183e-06
8666.7, 4.2173e-06
8668.7, 4.4789e-06
8670.7, 4.0865e-06
8672.7, 4.5488e-06
8674.7, 4.4461e-06
8676.7, 4.2371e-06
8678.7, 4.5412e-06
8680.7, 4.2218e-06
8682.7, 4.0072e-06
8684.7, 4.0756e-06
8686.7, 4.1249e-06
8688.7, 4.3136e-06
8690.7, 4.5375e-06
8692.7, 4.3044e-06
8694.7, 4.2659e-06
8696.7, 3.9171e-06
8698.7, 4.1226e-06
8700.7, 4.3487e-06
8702.7, 4.1811e-06
8704.7, 4.3676e-06
8706.7, 4.3399e-06
8708.7, 4.2845e-06
8710.7, 4.3995e-06
8712.7, 4.2931e-06
8714.7, 4.0007e-06
8716.7, 4.2653e-06
8718.7, 4.2708e-06
8720.7, 4.2007e-06
8722.7, 4.1796e-06
8724.7, 4.2071e-06
8726.7, 4.3154e-06
8728.7, 4.3028e-06
8730.7, 4.2628e-06
8732.7, 4.2495e-06
8734.7, 4.1015e-06
8736.7, 4.0206e-06
8738.7, 4.0292e-06
8740.7, 4.504e-06
8742.7, 4.2044e-06
8744.7, 4.3529e-06
8746.7, 4.302e-06
8748.7, 4.2706e-06
8750.7, 4.3764e-06
8752.7, 4.2377e-06
8754.7, 4.1483e-06
8756.7, 4.249e-06
8758.7, 4.3926e-06
8760.8, 4.3844e-06
8762.8, 4.5027e-06
8764.8, 4.3785e-06
8766.8, 4.5406e-06
8768.8, 4.3774e-06
8770.8, 3.9482e-06
8772.8, 4.2645e-06
8774.8, 4.0935e-06
8776.8, 4.2162e-06
8778.8, 3.938e-06
8780.8, 4.2448e-06
8782.8, 4.5611e-06
8784.8, 4.3157e-06
8786.8, 4.0221e-06
8788.8, 4.2457e-06
8790.8, 4.1356e-06
8792.8, 4.4558e-06
8794.8, 4.3489e-06
8796.8, 4.5036e-06
8798.8, 4.5257e-06
8800.8, 3.7275e-06
8802.8, 4.4029e-06
8804.8, 4.3412e-06
8806.8, 3.8198e-06
8808.8, 4.3314e-06
8810.8, 4.2887e-06
8812.8, 4.2394e-06
8814.8, 4.3159e-06
8816.8, 4.4283e-06
8818.8, 4.2416e-06
8820.8, 4.3008e-06
8822.8, 4.5007e-06
8824.8, 4.2343e-06
8826.8, 3.9868e-06
8828.8, 4.4949e-06
8830.8, 4.2824e-06
8832.8, 4.4626e-06
8834.8, 4.5769e-06
8836.8, 4.4974e-06
8838.8, 4.2193e-06
8840.8, 4.4222e-06
8842.8, 3.9817e-06
8844.8, 4.4935e-06
8846.8, 4.3898e-06
8848.8, 4.3197e-06
8850.8, 4.546e-06
8852.8, 4.5405e-06
8854.8, 4.3342e-06
8856.8, 4.556e-06
8858.8, 4.4066e-06
8860.9, 4.3608e-06
8862.9, 4.3955e-06
8864.9, 4.3988e-06
8866.9, 4.4019e-06
8868.9, 4.4947e-06
8870.9, 4.3326e-06
8872.9, 4.3009e-06
8874.9, 4.3835e-06
8876.9, 4.2938e-06
8878.9, 4.1129e-06
8880.9, 4.4985e-06
8882.9, 4.3386e-06
8884.9, 4.1661e-06
8886.9, 4.43e-06
8888.9, 4.4726e-06
8890.9, 4.5045e-06
8892.9, 4.345e-06
8894.9, 4.4377e-06
8896.9, 4.2134e-06
8898.9, 4.311e-06
8900.9, 4.1461e-06
8902.9, 4.257e-06
8904.9, 4.4883e-06
8906.9, 4.39e-06
8908.9, 4.5551e-06
8910.9, 4.1244e-06
8912.9, 4.3511e-06
8914.9, 4.3391e-06
8916.9, 4.3436e-06
8918.9, 4.4607e-06
8920.9, 4.128e-06
8922.9, 4.4399e-06
8924.9, 4.7993e-06
8926.9, 4.5889e-06
8928.9, 4.4293e-06
8930.9, 4.3538e-06
8932.9, 4.3119e-06
8934.9, 4.5125e-06
8936.9, 4.2909e-06
8938.9, 4.1644e-06
8940.9, 4.5049e-06
8942.9, 4.551e-06
8944.9, 4.2924e-06
8946.9, 4.4449e-06
8948.9, 4.3422e-06
8950.9, 4.4539e-06
8952.9, 4.6265e-06
8954.9, 4.324e-06
8956.9, 4.2151e-06
8958.9, 4.4644e-06
8961.0, 4.2125e-06
8963.0, 4.2826e-06
8965.0, 4.3883e-06
8967.0, 4.3683e-06
8969.0, 4.4619e-06
8971.0, 4.3989e-06
8973.0, 4.2462e-06
8975.0, 4.4085e-06
8977.0, 4.2851e-06
8979.0, 4.5788e-06
8981.0, 4.2476e-06
8983.0, 4.4482e-06
8985.0, 4.6152e-06
8987.0, 4.331e-06
8989.0, 4.3141e-06
8991.0, 4.3175e-06
8993.0, 4.5863e-06
8995.0, 4.4743e-06
8997.0, 4.4741e-06
8999.0, 4.4711e-06
9001.0, 4.4038e-06
9003.0, 4.2748e-06
9005.0, 4.5758e-06
9007.0, 4.6732e-06
9009.0, 4.3355e-06
9011.0, 4.4186e-06
9013.0, 3.9015e-06
9015.0, 4.372e-06
9017.0, 4.3954e-06
9019.0, 4.5348e-06
9021.0, 4.2925e-06
9023.0, 4.2991e-06
9025.0, 4.2694e-06
9027.0, 4.5724e-06
9029.0, 4.4142e-06
9031.0, 4.3806e-06
9033.0, 4.4789e-06
9035.0, 4.2952e-06
9037.0, 4.4503e-06
9039.0, 4.6862e-06
9041.0, 4.3625e-06
9043.0, 4.5067e-06
9045.0, 4.4381e-06
9047.0, 4.5808e-06
9049.0, 4.4028e-06
9051.0, 4.4841e-06
9053.0, 4.6348e-06
9055.0, 4.3254e-06
9057.0, 4.4975e-06
9059.0, 4.536e-06
9061.1, 4.3287e-06
9063.1, 4.3161e-06
9065.1, 4.447e-06
9067.1, 4.3914e-06
9069.1, 4.3662e-06
9071.1, 4.5728e-06
9073.1, 4.5714e-06
9075.1, 4.4147e-06
9077.1, 4.3951e-06
9079.1, 4.3257e-06
9081.1, 4.216e-06
9083.1, 4.4342e-06
9085.1, 4.439e-06
9087.1, 4.6093e-06
9089.1, 4.3593e-06
9091.1, 4.2464e-06
9093.1, 4.474e-06
9095.1, 4.5582e-06
9097.1, 4.1975e-06
9099.1, 4.402e-06
9101.1, 4.2817e-06
9103.1, 4.5534e-06
9105.1, 4.2966e-06
9107.1, 4.3746e-06
9109.1, 4.401e-06
9111.1, 4.5849e-06
9113.1, 4.4673e-06
9115.1, 4.3792e-06
9117.1, 4.4242e-06
9119.1, 4.5212e-06
9121.1, 4.2207e-06
9123.1, 4.5473e-06
9125.1, 4.3668e-06
9127.1, 4.2877e-06
9129.1, 4.3664e-06
9131.1, 4.5664e-06
9133.1, 4.2579e-06
9135.1, 4.2374e-06
9137.1, 4.4995e-06
9139.1, 4.5643e-06
9141.1, 4.3596e-06
9143.1, 4.3849e-06
9145.1, 4.3646e-06
9147.1, 4.2549e-06
9149.1, 4.4241e-06
9151.1, 4.494e-06
9153.1, 4.3244e-06
9155.1, 4.3095e-06
9157.1, 4.3058e-06
9159.1, 4.2099e-06
9161.2, 4.3751e-06
9163.2, 4.1961e-06
9165.2, 4.586e-06
9167.2, 4.395e-06
9169.2, 4.2706e-06
9171.2, 4.5696e-06
9173.2, 4.2664e-06
9175.2, 4.212e-06
9177.2, 4.2531e-06
9179.2, 4.3605e-06
9181.2, 4.6212e-06
9183.2, 4.4892e-06
9185.2, 4.4443e-06
9187.2, 4.3516e-06
9189.2, 4.0862e-06
9191.2, 4.3533e-06
9193.2, 3.9685e-06
9195.2, 4.5225e-06
9197.2, 4.5382e-06
9199.2, 4.1988e-06
9201.2, 4.4033e-06
9203.2, 4.3771e-06
9205.2, 4.4877e-06
9207.2, 4.4851e-06
9209.2, 4.358e-06
9211.2, 4.299e-06
9213.2, 4.5731e-06
9215.2, 4.4657e-06
9217.2, 4.1872e-06
9219.2, 4.0445e-06
9221.2, 4.0292e-06
9223.2, 4.5393e-06
9225.2, 4.3402e-06
9227.2, 4.4378e-06
9229.2, 4.5518e-06
9231.2, 4.4149e-06
9233.2, 4.4898e-06
9235.2, 4.3127e-06
9237.2, 4.5217e-06
9239.2, 4.3374e-06
9241.2, 4.3711e-06
9243.2, 4.1846e-06
9245.2, 4.4042e-06
9247.2, 4.3726e-06
9249.2, 4.2831e-06
9251.2, 4.0118e-06
9253.2, 4.2774e-06
9255.2, 4.2382e-06
9257.2, 4.4587e-06
9259.2, 4.4188e-06
9261.3, 4.409e-06
9263.3, 4.2436e-06
9265.3, 4.6863e-06
9267.3, 4.6057e-06
9269.3, 4.3792e-06
9271.3, 4.1117e-06
9273.3, 4.7216e-06
9275.3, 4.6219e-06
9277.3, 4.6623e-06
9279.3, 4.3664e-06
9281.3, 4.5876e-06
9283.3, 4.4461e-06
9285.3, 4.5519e-06
9287.3, 4.7639e-06
9289.3, 4.6127e-06
9291.3, 4.5888e-06
9293.3, 4.4127e-06
9295.3, 4.4871e-06
9297.3, 4.5696e-06
9299.3, 4.4897e-06
9301.3, 4.2392e-06
9303.3, 4.4734e-06
9305.3, 4.3988e-06
9307.3, 4.4778e-06
9309.3, 4.5619e-06
9311.3, 4.6901e-06
9313.3, 4.1806e-06
9315.3, 4.3208e-06
9317.3, 4.4774e-06
9319.3, 4.3827e-06
9321.3, 4.5917e-06
9323.3, 4.2061e-06
9325.3, 4.6646e-06
9327.3, 4.305e-06
9329.3, 4.4803e-06
9331.3, 4.3836e-06
9333.3, 4.2852e-06
9335.3, 4.3022e-06
9337.3, 4.2502e-06
9339.3, 4.337e-06
9341.3, 4.3863e-06
9343.3, 4.4548e-06
9345.3, 4.4656e-06
9347.3, 4.5057e-06
9349.3, 4.6549e-06
9351.3, 4.3663e-06
9353.3, 4.3423e-06
9355.3, 4.4628e-06
9357.3, 4.6866e-06
9359.3, 4.4943e-06
9361.4, 4.4768e-06
9363.4, 4.5061e-06
9365.4, 4.4853e-06
9367.4, 4.4594e-06
9369.4, 4.2586e-06
9371.4, 4.3694e-06
9373.4, 4.669e-06
9375.4, 4.4669e-06
9377.4, 4.7064e-06
9379.4, 4.3104e-06
9381.4, 4.6221e-06
9383.4, 4.5429e-06
9385.4, 4.428e-06
9387.4, 4.5936e-06
9389.4, 4.0718e-06
9391.4, 4.3806e-06
9393.4, 4.1819e-06
9395.4, 4.4676e-06
9397.4, 4.4175e-06
9399.4, 4.4287e-06
9401.4, 4.2134e-06
9403.4, 4.4557e-06
9405.4, 4.4089e-06
9407.4, 4.4479e-06
9409.4, 4.215e-06
9411.4, 4.5793e-06
9413.4, 4.3983e-06
9415.4, 4.5133e-06
9417.4, 4.2757e-06
9419.4, 4.2876e-06
9421.4, 4.4508e-06
9423.4, 4.5808e-06
9425.4, 4.4076e-06
9427.4, 4.4841e-06
9429.4, 4.4724e-06
9431.4, 4.427e-06
9433.4, 4.3849e-06
9435.4, 4.3054e-06
9437.4, 4.2044e-06
9439.4, 3.9668e-06
9441.4, 4.4299e-06
9443.4, 4.1084e-06
9445.4, 4.2512e-06
9447.4, 4.7087e-06
9449.4, 4.3428e-06
9451.4, 4.316e-06
9453.4, 4.2268e-06
9455.4, 4.5893e-06
9457.4, 4.4835e-06
9459.4, 4.1885e-06
9461.5, 4.4799e-06
9463.5, 4.4456e-06
9465.5, 4.6615e-06
9467.5, 4.4403e-06
9469.5, 4.4452e-06
9471.5, 4.528e-06
9473.5, 4.5264e-06
9475.5, 4.3439e-06
9477.5, 4.2779e-06
9479.5, 4.565e-06
9481.5, 3.7221e-06
9483.5, 4.2493e-06
9485.5, 4.6326e-06
9487.5, 4.4382e-06
9489.5, 4.7094e-06
9491.5, 4.422e-06
9493.5, 4.4402e-06
9495.5, 4.504e-06
9497.5, 4.3551e-06
9499.5, 2.1533e-06
9501.5, -2.548e-08
9503.5, -3.135e-08
9505.5, -3.037e-08
9507.5, -3.07e-08
9509.5, -3.246e-08
9511.5, -3.106e-08
9513.5, -3.308e-08
9515.5, -3.052e-08
9517.5, -3.359e-08
9519.5, -3.472e-08
9521.5, -3.491e-08
9523.5, -3.546e-08
9525.5, -3.638e-08
9527.5, -3.603e-08
9529.5, -3.462e-08
9531.5, -3.324e-08
9533.5, -3.672e-08
9535.5, -3.525e-08
9537.5, -3.766e-08
9539.5, -3.574e-08
9541.5, -3.448e-08
9543.5, -3.515e-08
9545.5, -3.365e-08
9547.5, -3.495e-08
9549.5, -3.552e-08
9551.5, -3.392e-08
9553.5, -3.288e-08
9555.5, -3.16e-08
9557.5, -4.004e-08
9559.5, -3.324e-08
9561.6, -3.615e-08
9563.6, -3.715e-08
9565.6, -3.57e-08
9567.6, -3.356e-08
9569.6, -3.691e-08
9571.6, -3.381e-08
9573.6, -3.765e-08
9575.6, -3.654e-08
9577.6, -3.449e-08
9579.6, -3.632e-08
9581.6, -3.648e-08
9583.6, -3.619e-08
9585.6, -4.147e-08
9587.6, -3.543e-08
9589.6, -3.351e-08
9591.6, -3.329e-08
9593.6, -3.585e-08
9595.6, -3.52e-08
9597.6, -3.627e-08
9599.6, -3.256e-08
9601.6, -2.973e-08
9603.6, -3.366e-08
9605.6, -3.494e-08
9607.6, -3.315e-08
9609.6, -3.257e-08
9611.6, -3.229e-08
9613.6, -2.995e-08
9615.6, -3.035e-08
9617.6, -3.277e-08
9619.6, -3.426e-08
9621.6, -3.405e-08
9623.6, -3.452e-08
9625.6, -3.619e-08
9627.6, -3.23e-08
9629.6, -3.374e-08
9631.6, -3.034e-08
9633.6, -2.93e-08
9635.6, -3.065e-08
9637.6, -3.229e-08
9639.6, -3.239e-08
9641.6, -3.366e-08
9643.6, -3.205e-08
9645.6, -3.198e-08
9647.6, -3.113e-08
9649.6, -3.384e-08
9651.6, -2.994e-08
9653.6, -3.445e-08
9655.6, -3.207e-08
9657.6, -2.981e-08
9659.6, -3.526e-08
9661.7, -3.214e-08
9663.7, -3.166e-08
9665.7, -3.439e-08
9667.7, -3.486e-08
9669.7, -3.28e-08
9671.7, -3.003e-08
9673.7, -3.285e-08
9675.7, -3.563e-08
9677.7, -3.508e-08
9679.7, -3.469e-08
9681.7, -3.2e-08
9683.7, -3.048e-08
9685.7, -2.955e-08
9687.7, -3.532e-08
9689.7, -3.315e-08
9691.7, -3.679e-08
9693.7, -3.184e-08
9695.7, -3.419e-08
9697.7, -3.434e-08
9699.7, -3.325e-08
9701.7, -3.476e-08
9703.7, -3.361e-08
9705.7, -3.053e-08
9707.7, -3.315e-08
9709.7, -3.179e-08
9711.7, -3.219e-08
9713.7, -3.606e-08
9715.7, -3.136e-08
9717.7, -3.29e-08
9719.7, -3.057e-08
9721.7, -3.389e-08
9723.7, -3.248e-08
9725.7, -3.569e-08
9727.7, -3.058e-08
9729.7, -3.28e-08
9731.7, -3.422e-08
9733.7, -3.492e-08
9735.7, -3.65e-08
9737.7, -3.633e-08
9739.7, -3.715e-08
9741.7, -3.382e-08
9743.7, -3.606e-08
9745.7, -3.375e-08
9747.7, -3.292e-08
9749.7, -3.36e-08
9751.7, -3.531e-08
9753.7, -3.647e-08
9755.7, -3.702e-08
9757.7, -3.561e-08
9759.7, -3.359e-08
9761.8, -3.498e-08
9763.8, -3.594e-08
9765.8, -3.179e-08
9767.8, -3.094e-08
9769.8, -3.362e-08
9771.8, -3.329e-08
9773.8, -3.538e-08
9775.8, -3.447e-08
9777.8, -3.501e-08
9779.8, -3.34e-08
9781.8, -3.684e-08
9783.8, -3.486e-08
9785.8, -3.33e-08
9787.8, -3.796e-08
9789.8, -3.007e-08
9791.8, -3.389e-08
9793.8, -3.735e-08
9795.8, -2.975e-08
9797.8, -3.21e-08
9799.8, -2.893e-08
9801.8, -2.981e-08
9803.8, -3.064e-08
9805.8, -3.23e-08
9807.8, -3.3e-08
9809.8, -2.927e-08
9811.8, -3.093e-08
9813.8, -3.202e-08
9815.8, -3.133e-08
9817.8, -3.096e-08
9819.8, -2.868e-08
9821.8, -3.055e-08
9823.8, -3.022e-08
9825.8, -3.281e-08
9827.8, -3.023e-08
9829.8, -3.082e-08
9831.8, -3.259e-08
9833.8, -3.111e-08
9835.8, -3.041e-08
9837.8, -3.24e-08
9839.8, -3.364e-08
9841.8, -3.557e-08
9843.8, -3.307e-08
9845.8, -3.503e-08
9847.8, -3.129e-08
9849.8, -2.886e-08
9851.8, -2.625e-08
9853.8, -2.926e-08
9855.8, -3.024e-08
9857.8, -2.831e-08
9859.8, -3.07e-08
9861.9, -2.974e-08
9863.9, -3.063e-08
9865.9, -2.938e-08
9867.9, -2.866e-08
9869.9, -3.206e-08
9871.9, -2.899e-08
9873.9, -3.276e-08
9875.9, -3.346e-08
9877.9, -3.259e-08
9879.9, -3.031e-08
9881.9, -3.011e-08
9883.9, -3.099e-08
9885.9, -3.091e-08
9887.9, -3.169e-08
9889.9, -3.126e-08
9891.9, -2.985e-08
9893.9, -3.133e-08
9895.9, -3.409e-08
9897.9, -3.187e-08
9899.9, -3.059e-08
9901.9, -2.958e-08
9903.9, -3.245e-08
9905.9, -3.045e-08
9907.9, -2.767e-08
9909.9, -2.997e-08
9911.9, -3.162e-08
9913.9, -3.045e-08
9915.9, -3.339e-08
9917.9, -2.596e-08
9919.9, -2.693e-08
9921.9, -2.554e-08
9923.9, -2.745e-08
9925.9, -2.803e-08
9927.9, -2.893e-08
9929.9, -3.047e-08
9931.9, -2.721e-08
9933.9, -2.82e-08
9935.9, -2.813e-08
9937.9, -2.827e-08
9939.9, -2.671e-08
9941.9, -2.648e-08
9943.9, -2.726e-08
9945.9, -2.478e-08
9947.9, -2.46e-08
9949.9, -2.445e-08
9951.9, -2.657e-08
9953.9, -2.449e-08
9955.9, -2.733e-08
9957.9, -2.341e-08
9959.9, -2.419e-08
9962.0, -2.882e-08
9964.0, -2.81e-08
9966.0, -2.515e-08
9968.0, -2.852e-08
9970.0, -2.734e-08
9972.0, -2.808e-08
9974.0, -2.711e-08
9976.0, -2.911e-08
9978.0, -2.615e-08
9980.0, -2.971e-08
9982.0, -3.027e-08
9984.0, -2.907e-08
9986.0, -3.022e-08
9988.0, -3.431e-08
9990.0, -3.08e-08
9992.0, -2.831e-08
9994.0, -2.967e-08
9996.0, -2.973e-08
9998.0, -3e-08
10000.0, -3.098e-08
10002.0, -3e-08
10004.0, -2.655e-08
10006.0, -2.943e-08
10008.0, -3.202e-08
10010.0, -2.745e-08
10012.0, -2.897e-08
10014.0, -2.92e-08
10016.0, -3.217e-08
10018.0, -3.018e-08
10020.0, -2.795e-08
10022.0, -2.928e-08
10024.0, -3.145e-08
10026.0, -2.987e-08
10028.0, -3.288e-08
10030.0, -3.038e-08
10032.0, -2.621e-08
10034.0, -2.821e-08
10036.0, -3.036e-08
10038.0, -3.002e-08
10040.0, -3.086e-08
10042.0, -2.951e-08
10044.0, -2.795e-08
10046.0, -2.869e-08
10048.0, -2.73e-08
10050.0, -2.575e-08
10052.0, -2.68e-08
10054.0, -2.688e-08
10056.0, -2.885e-08
10058.0, -3.098e-08
10060.0, -3.088e-08
10062.0, -2.956e-08
10064.0, -2.852e-08
10066.0, -2.993e-08
10068.0, -2.793e-08
10070.0, -2.679e-08
10072.0, -2.995e-08
10074.0, -2.931e-08
10076.0, -3.033e-08
10078.0, -3.114e-08
10080.0, -3.099e-08
10082.0, -3.199e-08
10084.0, -2.932e-08
10086.0, -2.736e-08
10088.0, -2.911e-08
10090.0, -2.486e-08
10092.0, -2.981e-08
10094.0, -2.431e-08
10096.0, -2.649e-08
10098.0, -2.779e-08
10100.0, -3.012e-08
10102.0, -2.99e-08
10104.0, -2.803e-08
10106.0, -3.149e-08
10108.0, -3.123e-08
10110.0, -3.056e-08
10112.0, -3.078e-08
10114.0, -3.076e-08
10116.0, -2.755e-08
10118.0, -3.257e-08
10120.0, -2.776e-08
10122.0, -2.961e-08
10124.0, -2.98e-08
10126.0, -2.918e-08
10128.0, -2.485e-08
10130.0, -2.57e-08
10132.0, -2.399e-08
10134.0, -2.531e-08
10136.0, -2.568e-08
10138.0, -2.623e-08
10140.0, -2.826e-08
10142.0, -2.703e-08
10144.0, -2.723e-08
10146.0, -3.119e-08
10148.0, -3.27e-08
10150.0, -3.241e-08
10152.0, -2.923e-08
10154.0, -2.724e-08
10156.0, -3.029e-08
10158.0, -2.937e-08
10160.0, -2.668e-08
10162.0, -3.06e-08
10164.0, -2.858e-08
10166.0, -2.887e-08
10168.0, -3.403e-08
10170.0, -3.223e-08
10172.0, -2.887e-08
10174.0, -2.951e-08
10176.0, -3.132e-08
10178.0, -2.981e-08
10180.0, -2.882e-08
10182.0, -2.852e-08
10184.0, -2.778e-08
10186.0, -3.249e-08
10188.0, -3.33e-08
10190.0, -3.063e-08
10192.0, -2.597e-08
10194.0, -2.788e-08
10196.0, -2.817e-08
10198.0, -2.965e-08
10200.0, -2.735e-08
10202.0, -3.068e-08
10204.0, -3.182e-08
10206.0, -2.786e-08
10208.0, -3.08e-08
10210.0, -2.951e-08
10212.0, -2.974e-08
10214.0, -3.19e-08
10216.0, -3.038e-08
10218.0, -3.272e-08
10220.0, -2.921e-08
10222.0, -3.084e-08
10224.0, -2.924e-08
10226.0, -3.032e-08
10228.0, -3.075e-08
10230.0, -2.937e-08
10232.0, -3.145e-08
10234.0, -3.094e-08
10236.0, -3.174e-08
10238.0, -3.463e-08
10240.0, -3.314e-08
10242.0, -2.775e-08
10244.0, -3.179e-08
10246.0, -2.971e-08
10248.0, -2.946e-08
10250.0, -3.032e-08
10252.0, -2.869e-08
10254.0, -2.7e-08
10256.0, -2.695e-08
10258.0, -2.758e-08
10260.0, -2.874e-08
10262.0, -3.21e-08
10264.0, -3.396e-08
10266.0, -3.029e-08
10268.0, -2.981e-08
10270.0, -3.039e-08
10272.0, -3.334e-08
10274.0, -3.087e-08
10276.0, -3.388e-08
10278.0, -3.365e-08
10280.0, -3.28e-08
10282.0, -3.132e-08
10284.0, -3.672e-08
10286.0, -3.237e-08
10288.0, -3.394e-08
10290.0, -3.565e-08
10292.0, -3.314e-08
10294.0, -3.219e-08
10296.0, -3.32e-08
10298.0, -3.424e-08
10300.0, -3.499e-08
10302.0, -3.498e-08
10304.0, -3.475e-08
10306.0, -3.426e-08
10308.0, -3.016e-08
10310.0, -3.096e-08
10312.0, -3.106e-08
10314.0, -3.498e-08
10316.0, -3.461e-08
10318.0, -3.259e-08
10320.0, -2.966e-08
10322.0, -3.153e-08
10324.0, -3.156e-08
10326.0, -3.329e-08
10328.0, -2.996e-08
10330.0, -3.286e-08
10332.0, -2.72e-08
10334.0, -2.945e-08
10336.0, -2.893e-08
10338.0, -2.822e-08
10340.0, -2.926e-08
10342.0, -2.931e-08
10344.0, -3.3e-08
10346.0, -2.949e-08
10348.0, -3.185e-08
10350.0, -3.431e-08
10352.0, -3.011e-08
10354.0, -2.856e-08
10356.0, -2.95e-08
10358.0, -2.936e-08
10360.0, -3.123e-08
10362.0, -3.182e-08
10364.0, -3.112e-08
10366.0, -2.712e-08
10368.0, -3.067e-08
10370.0, -2.839e-08
10372.0, -2.897e-08
10374.0, -3.158e-08
10376.0, -3.225e-08
10378.0, -3.203e-08
10380.0, -3.348e-08
10382.0, -3.138e-08
10384.0, -2.885e-08
10386.0, -2.999e-08
10388.0, -3.044e-08
10390.0, -3.042e-08
10392.0, -3.021e-08
10394.0, -3.203e-08
10396.0, -3.165e-08
10398.0, -2.864e-08
10400.0, -2.98e-08
10402.0, -3.107e-08
10404.0, -2.807e-08
10406.0, -2.943e-08
10408.0, -2.872e-08
10410.0, -3.035e-08
10412.0, -3.064e-08
10414.0, -2.891e-08
10416.0, -2.907e-08
10418.0, -2.848e-08
10420.0, -3.046e-08
10422.0, -3.007e-08
10424.0, -2.964e-08
10426.0, -2.885e-08
10428.0, -2.8e-08
10430.0, -3.229e-08
10432.0, -2.736e-08
10434.0, -2.92e-08
10436.0, -2.709e-08
10438.0, -2.833e-08
10440.0, -2.473e-08
10442.0, -2.325e-08
10444.0, -2.548e-08
10446.0, -2.82e-08
10448.0, -2.721e-08
10450.0, -2.758e-08
10452.0, -2.737e-08
10454.0, -2.876e-08
10456.0, -2.588e-08
10458.0, -2.956e-08
10460.0, -2.595e-08
10462.0, -3.044e-08
10464.0, -2.539e-08
10466.0, -2.517e-08
10468.0, -2.757e-08
10470.0, -2.569e-08
10472.0, -2.746e-08
10474.0, -2.762e-08
10476.0, -2.706e-08
10478.0, -2.534e-08
10480.0, -2.359e-08
10482.0, -2.829e-08
10484.0, -2.698e-08
10486.0, -2.859e-08
10488.0, -2.92e-08
10490.0, -2.707e-08
10492.0, -2.644e-08
10494.0, -2.741e-08
10496.0, -2.836e-08
10498.0, -3.037e-08
10500.0, -2.43e-08
10502.0, -2.613e-08
10504.0, -2.919e-08
10506.0, -2.685e-08
10508.0, -3.102e-08
10510.0, -2.812e-08
10513.0, -2.773e-08
10515.0, -2.983e-08
10517.0, -3.195e-08
10519.0, -2.954e-08
10521.0, -2.95e-08
10523.0, -3.146e-08
10525.0, -3.206e-08
10527.0, -2.858e-08
10529.0, -2.788e-08
10531.0, -2.847e-08
10533.0, -2.561e-08
10535.0, -2.846e-08
10537.0, -2.808e-08
10539.0, -3.084e-08
10541.0, -2.937e-08
10543.0, -2.864e-08
10545.0, -3.086e-08
10547.0, -3.053e-08
10549.0, -2.842e-08
10551.0, -2.753e-08
10553.0, -2.754e-08
10555.0, -3.176e-08
10557.0, -3.259e-08
10559.0, -3.116e-08
10561.0, -2.933e-08
10563.0, -2.951e-08
10565.0, -3.307e-08
10567.0, -3.396e-08
10569.0, -3.342e-08
10571.0, -3.039e-08
10573.0, -3.135e-08
10575.0, -2.78e-08
10577.0, -2.777e-08
10579.0, -2.977e-08
10581.0, -2.7e-08
10583.0, -3.039e-08
10585.0, -2.903e-08
10587.0, -3.015e-08
10589.0, -2.926e-08
10591.0, -2.859e-08
10593.0, -2.959e-08
10595.0, -2.587e-08
10597.0, -2.871e-08
10599.0, -2.997e-08
10601.0, -2.737e-08
10603.0, -2.756e-08
10605.0, -2.961e-08
10607.0, -3.148e-08
10609.0, -3.122e-08
10611.0, -2.701e-08
10613.0, -2.793e-08
10615.0, -2.779e-08
10617.0, -2.819e-08
10619.0, -3.23e-08
10621.0, -3.094e-08
10623.0, -3.226e-08
10625.0, -3.214e-08
10627.0, -3.08e-08
10629.0, -3.267e-08
10631.0, -3.375e-08
10633.0, -3.564e-08
10635.0, -3.133e-08
10637.0, -3.401e-08
10639.0, -2.931e-08
10641.0, -3.273e-08
10643.0, -3.264e-08
10645.0, -3.093e-08
10647.0, -2.87e-08
10649.0, -3.005e-08
10651.0, -2.76e-08
10653.0, -2.818e-08
10655.0, -2.727e-08
10657.0, -2.632e-08
10659.0, -2.846e-08
10661.0, -3.001e-08
10663.0, -2.867e-08
10665.0, -2.962e-08
10667.0, -3.121e-08
10669.0, -2.874e-08
10671.0, -3.236e-08
10673.0, -2.933e-08
10675.0, -2.913e-08
10677.0, -2.708e-08
10679.0, -3.27e-08
10681.0, -3.001e-08
10683.0, -2.669e-08
10685.0, -2.851e-08
10687.0, -3.122e-08
10689.0, -3.253e-08
10691.0, -3.117e-08
10693.0, -3.16e-08
10695.0, -2.97e-08
10697.0, -3.136e-08
10699.0, -2.97e-08
10701.0, -2.784e-08
10703.0, -3.041e-08
10705.0, -2.538e-08
10707.0, -2.678e-08
10709.0, -2.687e-08
10711.0, -2.531e-08
10713.0, -2.898e-08
10715.0, -2.772e-08
10717.0, -2.593e-08
10719.0, -2.743e-08
10721.0, -2.545e-08
10723.0, -2.639e-08
10725.0, -2.853e-08
10727.0, -2.739e-08
10729.0, -2.598e-08
10731.0, -2.262e-08
10733.0, -2.397e-08
10735.0, -2.929e-08
10737.0, -2.881e-08
10739.0, -2.888e-08
10741.0, -2.978e-08
10743.0, -3.065e-08
10745.0, -3.104e-08
10747.0, -3.034e-08
10749.0, -3.153e-08
10751.0, -3.185e-08
10753.0, -2.922e-08
10755.0, -3.306e-08
10757.0, -3.086e-08
10759.0, -3.157e-08
10761.0, -3.332e-08
10763.0, -3.092e-08
10765.0, -3.137e-08
10767.0, -3.261e-08
10769.0, -3.354e-08
10771.0, -3.096e-08
10773.0, -3.529e-08
10775.0, -2.948e-08
10777.0, -2.969e-08
10779.0, -3.134e-08
10781.0, -2.817e-08
10783.0, -2.928e-08
10785.0, -3.277e-08
10787.0, -3.029e-08
10789.0, -2.944e-08
10791.0, -3.239e-08
10793.0, -3.269e-08
10795.0, -3.639e-08
10797.0, -3.198e-08
10799.0, -3.334e-08
10801.0, -3.619e-08
10803.0, -3.268e-08
10805.0, -3.328e-08
10807.0, -2.947e-08
10809.0, -3.26e-08
10811.0, -3.232e-08
10813.0, -3.295e-08
10815.0, -3.314e-08
10817.0, -3.446e-08
10819.0, -2.923e-08
10821.0, -2.749e-08
10823.0, -3.005e-08
10825.0, -3.33e-08
10827.0, -3.261e-08
10829.0, -2.996e-08
10831.0, -2.846e-08
10833.0, -3.157e-08
10835.0, -3.37e-08
10837.0, -3.335e-08
10839.0, -3e-08
10841.0, -3.202e-08
10843.0, -3.471e-08
10845.0, -3.27e-08
10847.0, -3.159e-08
10849.0, -3.639e-08
10851.0, -3.23e-08
10853.0, -3.366e-08
10855.0, -3.437e-08
10857.0, -3.09e-08
10859.0, -2.966e-08
10861.0, -2.928e-08
10863.0, -3.136e-08
10865.0, -3.295e-08
10867.0, -3.447e-08
10869.0, -3.383e-08
10871.0, -3.139e-08
10873.0, -3.232e-08
10875.0, -2.957e-08
10877.0, -3.031e-08
10879.0, -3.244e-08
10881.0, -3.587e-08
10883.0, -3.261e-08
10885.0, -3.197e-08
10887.0, -3.009e-08
10889.0, -2.955e-08
10891.0, -3.027e-08
10893.0, -2.911e-08
10895.0, -3.102e-08
10897.0, -2.734e-08
10899.0, -2.889e-08
10901.0, -3.056e-08
10903.0, -2.953e-08
10905.0, -2.899e-08
10907.0, -3.033e-08
10909.0, -3.192e-08
10911.0, -3.161e-08
10913.0, -2.976e-08
10915.0, -3.077e-08
10917.0, -3.091e-08
10919.0, -3.327e-08
10921.0, -3.318e-08
10923.0, -2.835e-08
10925.0, -3.307e-08
10927.0, -3.035e-08
10929.0, -2.965e-08
10931.0, -3.145e-08
10933.0, -3.368e-08
10935.0, -3.058e-08
10937.0, -3.107e-08
10939.0, -3.125e-08
10941.0, -3.16e-08
10943.0, -2.765e-08
10945.0, -2.624e-08
10947.0, -3.018e-08
10949.0, -3.075e-08
10951.0, -3.172e-08
10953.0, -2.892e-08
10955.0, -3.349e-08
10957.0, -2.967e-08
10959.0, -3.176e-08
10961.0, -3.259e-08
10963.0, -3.48e-08
10965.0, -3.214e-08
10967.0, -3.389e-08
10969.0, -3.321e-08
10971.0, -3.077e-08
10973.0, -3.222e-08
10975.0, -3.52e-08
10977.0, -3.032e-08
10979.0, -3.124e-08
10981.0, -3.547e-08
10983.0, -3.244e-08
10985.0, -2.903e-08
10987.0, -3.363e-08
10989.0, -3.336e-08
10991.0, -3.1e-08
10993.0, -3.145e-08
10995.0, -3.13e-08
10997.0, -3.29e-08
10999.0, -3.428e-08
11001.0, -3.302e-08
11003.0, -3.136e-08
11005.0, -3.154e-08
11007.0, -3.133e-08
11009.0, -3.216e-08
