Time sep (ms?), Current (A)
0.0, -3.931e-08
2.002, -3.641e-08
4.004, -3.792e-08
6.006, -3.164e-08
8.008, -3.55e-08
10.01, -3.178e-08
12.012, -3.742e-08
14.014, -3.664e-08
16.016, -3.499e-08
18.018, -3.598e-08
20.02, -3.487e-08
22.022, -3.379e-08
24.024, -3.285e-08
26.026, -3.422e-08
28.028, -3.737e-08
30.03, -3.795e-08
32.032, -3.653e-08
34.034, -3.444e-08
36.036, -3.783e-08
38.038, -3.552e-08
40.04, -3.49e-08
42.042, -3.371e-08
44.044, -3.478e-08
46.046, -3.705e-08
48.048, -3.205e-08
50.05, -3.335e-08
52.052, -3.296e-08
54.054, -3.519e-08
56.056, -3.642e-08
58.058, -3.486e-08
60.06, -3.573e-08
62.062, -3.454e-08
64.064, -3.609e-08
66.066, -3.773e-08
68.068, -3.274e-08
70.07, -3.754e-08
72.072, -3.621e-08
74.074, -3.836e-08
76.076, -3.647e-08
78.078, -3.649e-08
80.08, -3.715e-08
82.082, -3.989e-08
84.084, -3.954e-08
86.086, -3.566e-08
88.088, -3.521e-08
90.09, -3.614e-08
92.092, -3.862e-08
94.094, -3.874e-08
96.096, -3.919e-08
98.098, -3.631e-08
100.1, -3.207e-08
102.1, -3.675e-08
104.1, -3.702e-08
106.11, -3.684e-08
108.11, -3.397e-08
110.11, -3.404e-08
112.11, -3.583e-08
114.11, -3.941e-08
116.12, -4.01e-08
118.12, -3.961e-08
120.12, -3.446e-08
122.12, -3.624e-08
124.12, -3.89e-08
126.13, -3.756e-08
128.13, -3.858e-08
130.13, -3.639e-08
132.13, -3.858e-08
134.13, -3.572e-08
136.14, -3.581e-08
138.14, -3.268e-08
140.14, -3.627e-08
142.14, -3.873e-08
144.14, -3.704e-08
146.15, -3.533e-08
148.15, -3.112e-08
150.15, -3.584e-08
152.15, -3.753e-08
154.15, -3.401e-08
156.16, -3.652e-08
158.16, -3.172e-08
160.16, -3.452e-08
162.16, -3.613e-08
164.16, -3.552e-08
166.17, -3.414e-08
168.17, -3.147e-08
170.17, -3.433e-08
172.17, -3.434e-08
174.17, -3.548e-08
176.18, -3.311e-08
178.18, -3.465e-08
180.18, -3.544e-08
182.18, -3.761e-08
184.18, -3.592e-08
186.19, -3.581e-08
188.19, -3.832e-08
190.19, -3.604e-08
192.19, -3.978e-08
194.19, -3.482e-08
196.2, -3.529e-08
198.2, -3.619e-08
200.2, -3.468e-08
202.2, -3.553e-08
204.2, -3.216e-08
206.21, -3.294e-08
208.21, -3.172e-08
210.21, -3.24e-08
212.21, -3.754e-08
214.21, -3.744e-08
216.22, -3.521e-08
218.22, -3.405e-08
220.22, -3.669e-08
222.22, -3.744e-08
224.22, -3.356e-08
226.23, -3.526e-08
228.23, -3.816e-08
230.23, -3.552e-08
232.23, -3.762e-08
234.23, -3.429e-08
236.24, -3.551e-08
238.24, -3.248e-08
240.24, -3.139e-08
242.24, -3.823e-08
244.24, -3.701e-08
246.25, -3.724e-08
248.25, -3.591e-08
250.25, -3.693e-08
252.25, -3.854e-08
254.25, -3.792e-08
256.26, -3.837e-08
258.26, -3.673e-08
260.26, -3.47e-08
262.26, -3.759e-08
264.26, -3.406e-08
266.27, -3.527e-08
268.27, -3.639e-08
270.27, -3.52e-08
272.27, -3.681e-08
274.27, -3.62e-08
276.28, -3.443e-08
278.28, -3.177e-08
280.28, -3.215e-08
282.28, -3.697e-08
284.28, -3.561e-08
286.29, -3.381e-08
288.29, -3.72e-08
290.29, -3.359e-08
292.29, -3.223e-08
294.29, -3.731e-08
296.3, -3.236e-08
298.3, -3.492e-08
300.3, -3.612e-08
302.3, -3.353e-08
304.3, -3.772e-08
306.31, -3.459e-08
308.31, -3.51e-08
310.31, -3.246e-08
312.31, -3.195e-08
314.31, -3.644e-08
316.32, -3.267e-08
318.32, -3.293e-08
320.32, -3.54e-08
322.32, -3.883e-08
324.32, -3.426e-08
326.33, -3.344e-08
328.33, -3.518e-08
330.33, -2.957e-08
332.33, -3.333e-08
334.33, -3.421e-08
336.34, -3.488e-08
338.34, -3.241e-08
340.34, -3.234e-08
342.34, -3.597e-08
344.34, -3.668e-08
346.35, -3.362e-08
348.35, -3.22e-08
350.35, -3.525e-08
352.35, -3.767e-08
354.35, -3.65e-08
356.36, -3.957e-08
358.36, -3.39e-08
360.36, -3.407e-08
362.36, -3.96e-08
364.36, -3.252e-08
366.37, -3.606e-08
368.37, -3.416e-08
370.37, -3.184e-08
372.37, -3.348e-08
374.37, -3.523e-08
376.38, -3.144e-08
378.38, -2.903e-08
380.38, -3.018e-08
382.38, -3.197e-08
384.38, -3.708e-08
386.39, -3.397e-08
388.39, -3.576e-08
390.39, -3.84e-08
392.39, -3.954e-08
394.39, -3.731e-08
396.4, -3.563e-08
398.4, -3.25e-08
400.4, -3.525e-08
402.4, -3.462e-08
404.4, -3.267e-08
406.41, -3.475e-08
408.41, -3.309e-08
410.41, -3.454e-08
412.41, -3.646e-08
414.41, -3.786e-08
416.42, -3.649e-08
418.42, -3.798e-08
420.42, -3.742e-08
422.42, -3.944e-08
424.42, -3.905e-08
426.43, -3.648e-08
428.43, -3.727e-08
430.43, -3.601e-08
432.43, -3.782e-08
434.43, -3.633e-08
436.44, -4.048e-08
438.44, -4.006e-08
440.44, -3.949e-08
442.44, -3.669e-08
444.44, -3.752e-08
446.45, -3.867e-08
448.45, -3.97e-08
450.45, -3.552e-08
452.45, -3.644e-08
454.45, -3.836e-08
456.46, -3.84e-08
458.46, -3.764e-08
460.46, -3.765e-08
462.46, -3.7e-08
464.46, -3.808e-08
466.47, -3.959e-08
468.47, -3.654e-08
470.47, -3.641e-08
472.47, -3.679e-08
474.47, -3.548e-08
476.48, -3.68e-08
478.48, -3.437e-08
480.48, -3.458e-08
482.48, -3.465e-08
484.48, -3.508e-08
486.49, -3.405e-08
488.49, -3.372e-08
490.49, -3.647e-08
492.49, -3.615e-08
494.49, -3.411e-08
496.5, -3.715e-08
498.5, -3.694e-08
500.5, -3.538e-08
502.5, -3.667e-08
504.5, -3.579e-08
506.51, -3.598e-08
508.51, -3.593e-08
510.51, -3.753e-08
512.51, -3.256e-08
514.51, -3.263e-08
516.52, -3.338e-08
518.52, -3.369e-08
520.52, -3.206e-08
522.52, -3.497e-08
524.52, -3.356e-08
526.53, -3.105e-08
528.53, -3.271e-08
530.53, -3.442e-08
532.53, -3.431e-08
534.53, -3.403e-08
536.54, -3.708e-08
538.54, -3.344e-08
540.54, -3.604e-08
542.54, -3.351e-08
544.54, -3.763e-08
546.55, -3.295e-08
548.55, -3.53e-08
550.55, -3.207e-08
552.55, -3.008e-08
554.55, -3.174e-08
556.56, -3.457e-08
558.56, -3.377e-08
560.56, -3.186e-08
562.56, -3.126e-08
564.56, -3.354e-08
566.57, -3.197e-08
568.57, -3.342e-08
570.57, -3.367e-08
572.57, -3.406e-08
574.57, -3.163e-08
576.58, -3.018e-08
578.58, -2.793e-08
580.58, -2.821e-08
582.58, -3.307e-08
584.58, -2.9e-08
586.59, -3.296e-08
588.59, -2.736e-08
590.59, -2.822e-08
592.59, -3.021e-08
594.59, -2.887e-08
596.6, -3.175e-08
598.6, -3.339e-08
600.6, -3.122e-08
602.6, -2.944e-08
604.6, -3.004e-08
606.61, -3.328e-08
608.61, -3.269e-08
610.61, -3.104e-08
612.61, -3.436e-08
614.61, -3.304e-08
616.62, -3.244e-08
618.62, -2.917e-08
620.62, -3.392e-08
622.62, -3.386e-08
624.62, -3.361e-08
626.63, -3.476e-08
628.63, -3.261e-08
630.63, -3.31e-08
632.63, -3.464e-08
634.63, -3.48e-08
636.64, -3.411e-08
638.64, -3.397e-08
640.64, -3.473e-08
642.64, -3.496e-08
644.64, -3.163e-08
646.65, -3.139e-08
648.65, -3.165e-08
650.65, -2.93e-08
652.65, -3.168e-08
654.65, -3.145e-08
656.66, -3.34e-08
658.66, -3.415e-08
660.66, -3.582e-08
662.66, -3.086e-08
664.66, -3.392e-08
666.67, -3.307e-08
668.67, -3.083e-08
670.67, -3.257e-08
672.67, -3.392e-08
674.67, -3.393e-08
676.68, -3.544e-08
678.68, -3.445e-08
680.68, -3.392e-08
682.68, -3.497e-08
684.68, -3.111e-08
686.69, -3.492e-08
688.69, -3.421e-08
690.69, -3.174e-08
692.69, -3.19e-08
694.69, -3.459e-08
696.7, -3.225e-08
698.7, -3.35e-08
700.7, -3.33e-08
702.7, -3.489e-08
704.7, -3.698e-08
706.71, -2.974e-08
708.71, -2.91e-08
710.71, -3.363e-08
712.71, -3.296e-08
714.71, -3.413e-08
716.72, -3.302e-08
718.72, -3.28e-08
720.72, -3.103e-08
722.72, -3.359e-08
724.72, -3.382e-08
726.73, -3.343e-08
728.73, -3.109e-08
730.73, -3.374e-08
732.73, -3.351e-08
734.73, -3.109e-08
736.74, -3.328e-08
738.74, -3.043e-08
740.74, -3.166e-08
742.74, -2.963e-08
744.74, -3.542e-08
746.75, -3.536e-08
748.75, -3.185e-08
750.75, -3.505e-08
752.75, -3.496e-08
754.75, -4.037e-08
756.76, -3.553e-08
758.76, -3.634e-08
760.76, -3.684e-08
762.76, -3.819e-08
764.76, -3.62e-08
766.77, -3.69e-08
768.77, -3.554e-08
770.77, -3.477e-08
772.77, -3.668e-08
774.77, -3.594e-08
776.78, -3.655e-08
778.78, -3.223e-08
780.78, -3.247e-08
782.78, -3.496e-08
784.78, -3.637e-08
786.79, -3.377e-08
788.79, -3.448e-08
790.79, -3.651e-08
792.79, -3.244e-08
794.79, -3.505e-08
796.8, -3.536e-08
798.8, -3.944e-08
800.8, -3.539e-08
802.8, -3.651e-08
804.8, -3.664e-08
806.81, -3.312e-08
808.81, -3.354e-08
810.81, -3.224e-08
812.81, -3.291e-08
814.81, -2.993e-08
816.82, -3.326e-08
818.82, -3.311e-08
820.82, -2.991e-08
822.82, -3.104e-08
824.82, -2.994e-08
826.83, -3.5e-08
828.83, -3.315e-08
830.83, -3.149e-08
832.83, -3.372e-08
834.83, -3.345e-08
836.84, -3.174e-08
838.84, -3.093e-08
840.84, -3.349e-08
842.84, -3.318e-08
844.84, -3.266e-08
846.85, -3.507e-08
848.85, -3.377e-08
850.85, -3.347e-08
852.85, -3.18e-08
854.85, -2.987e-08
856.86, -3.245e-08
858.86, -3.243e-08
860.86, -3.385e-08
862.86, -3.165e-08
864.86, -3.378e-08
866.87, -3.469e-08
868.87, -3.249e-08
870.87, -2.934e-08
872.87, -2.922e-08
874.87, -2.964e-08
876.88, -3.526e-08
878.88, -3.092e-08
880.88, -3.193e-08
882.88, -3.232e-08
884.88, -3.364e-08
886.89, -3.624e-08
888.89, -3.495e-08
890.89, -3.435e-08
892.89, -3.485e-08
894.89, -3.454e-08
896.9, -3.6e-08
898.9, -3.257e-08
900.9, -3.325e-08
902.9, -3.336e-08
904.9, -3.346e-08
906.91, -3.267e-08
908.91, -3.398e-08
910.91, -2.998e-08
912.91, -3.332e-08
914.91, -3.712e-08
916.92, -3.441e-08
918.92, -3.529e-08
920.92, -3.325e-08
922.92, -3.419e-08
924.92, -3.256e-08
926.93, -3.347e-08
928.93, -3.325e-08
930.93, -3.122e-08
932.93, -3.015e-08
934.93, -3.152e-08
936.94, -3.01e-08
938.94, -2.916e-08
940.94, -3.075e-08
942.94, -2.989e-08
944.94, -3.585e-08
946.95, -3.281e-08
948.95, -3.211e-08
950.95, -3.375e-08
952.95, -3.086e-08
954.95, -3.457e-08
956.96, -3.417e-08
958.96, -3.104e-08
960.96, -3.221e-08
962.96, -2.96e-08
964.96, -3.091e-08
966.97, -2.825e-08
968.97, -3.366e-08
970.97, -2.925e-08
972.97, -2.927e-08
974.97, -3.103e-08
976.98, -3.076e-08
978.98, -3.326e-08
980.98, -3e-08
982.98, -3.25e-08
984.98, -3.31e-08
986.99, -3.583e-08
988.99, -3.043e-08
990.99, -3.212e-08
992.99, -2.912e-08
994.99, -3.327e-08
997.0, -3.443e-08
999.0, -3.135e-08
1001.0, -3.127e-08
1003.0, -3.388e-08
1005.0, -3.103e-08
1007.0, -3.017e-08
1009.0, -3.016e-08
1011.0, -3.504e-08
1013.0, -3.833e-08
1015.0, -3.839e-08
1017.0, -3.586e-08
1019.0, -3.644e-08
1021.0, -3.359e-08
1023.0, -3.624e-08
1025.0, -3.873e-08
1027.0, -3.182e-08
1029.0, -3.53e-08
1031.0, -3.122e-08
1033.0, -3.253e-08
1035.0, -3.44e-08
1037.0, -3.253e-08
1039.0, -3.459e-08
1041.0, -3.662e-08
1043.0, -3.356e-08
1045.0, -3.831e-08
1047.0, -3.717e-08
1049.0, -3.907e-08
1051.0, 1.0192e-06
1053.1, 9.2022e-07
1055.1, 9.8589e-07
1057.1, 8.9779e-07
1059.1, 9.6242e-07
1061.1, 9.7044e-07
1063.1, 9.5027e-07
1065.1, 9.7998e-07
1067.1, 9.3546e-07
1069.1, 9.1127e-07
1071.1, 9.3831e-07
1073.1, 9.376e-07
1075.1, 9.572e-07
1077.1, 9.6028e-07
1079.1, 9.1522e-07
1081.1, 9.2633e-07
1083.1, 9.2553e-07
1085.1, 9.1807e-07
1087.1, 9.3113e-07
1089.1, 9.0738e-07
1091.1, 9.4722e-07
1093.1, 9.6259e-07
1095.1, 9.291e-07
1097.1, 9.0101e-07
1099.1, 9.4117e-07
1101.1, 9.7069e-07
1103.1, 9.5788e-07
1105.1, 9.2896e-07
1107.1, 9.6646e-07
1109.1, 9.5758e-07
1111.1, 9.2351e-07
1113.1, 9.2822e-07
1115.1, 8.9333e-07
1117.1, 9.1509e-07
1119.1, 9.2791e-07
1121.1, 9.3164e-07
1123.1, 9.1753e-07
1125.1, 9.3902e-07
1127.1, 9.5628e-07
1129.1, 9.6995e-07
1131.1, 9.6508e-07
1133.1, 1.0011e-06
1135.1, 9.1365e-07
1137.1, 9.6889e-07
1139.1, 9.5234e-07
1141.1, 9.8423e-07
1143.1, 9.6221e-07
1145.1, 9.508e-07
1147.1, 9.8297e-07
1149.1, 9.422e-07
1151.1, 9.8423e-07
1153.2, 9.5691e-07
1155.2, 1.0218e-06
1157.2, 9.4134e-07
1159.2, 9.3739e-07
1161.2, 9.9676e-07
1163.2, 1.0093e-06
1165.2, 9.7716e-07
1167.2, 9.5368e-07
1169.2, 9.9028e-07
1171.2, 9.9216e-07
1173.2, 9.6532e-07
1175.2, 9.896e-07
1177.2, 9.7864e-07
1179.2, 9.646e-07
1181.2, 9.7446e-07
1183.2, 9.3114e-07
1185.2, 9.7276e-07
1187.2, 9.6163e-07
1189.2, 1.0335e-06
1191.2, 1.009e-06
1193.2, 1.041e-06
1195.2, 1.0083e-06
1197.2, 9.7075e-07
1199.2, 1.0051e-06
1201.2, 9.7561e-07
1203.2, 9.135e-07
1205.2, 1.038e-06
1207.2, 1.0518e-06
1209.2, 9.8048e-07
1211.2, 1.0056e-06
1213.2, 9.8477e-07
1215.2, 9.8522e-07
1217.2, 9.7226e-07
1219.2, 9.6897e-07
1221.2, 1.0523e-06
1223.2, 9.9104e-07
1225.2, 9.6332e-07
1227.2, 1.0326e-06
1229.2, 1.0067e-06
1231.2, 9.6239e-07
1233.2, 1.0092e-06
1235.2, 9.7495e-07
1237.2, 1.0796e-06
1239.2, 9.7923e-07
1241.2, 9.8461e-07
1243.2, 9.7367e-07
1245.2, 9.9971e-07
1247.2, 1.0111e-06
1249.2, 9.9787e-07
1251.2, 1.0054e-06
1253.3, 9.5666e-07
1255.3, 9.8155e-07
1257.3, 9.9166e-07
1259.3, 1.0249e-06
1261.3, 1.0095e-06
1263.3, 1.0097e-06
1265.3, 9.8841e-07
1267.3, 1.0232e-06
1269.3, 9.3703e-07
1271.3, 1.0178e-06
1273.3, 1.0264e-06
1275.3, 9.9448e-07
1277.3, 9.8162e-07
1279.3, 9.8742e-07
1281.3, 1.0332e-06
1283.3, 9.8197e-07
1285.3, 1.03e-06
1287.3, 9.7467e-07
1289.3, 9.7828e-07
1291.3, 9.6719e-07
1293.3, 1.0169e-06
1295.3, 9.936e-07
1297.3, 9.9427e-07
1299.3, 1.0211e-06
1301.3, 1.0528e-06
1303.3, 1.0918e-06
1305.3, 1.0596e-06
1307.3, 1.0019e-06
1309.3, 9.8632e-07
1311.3, 1.0264e-06
1313.3, 1.0013e-06
1315.3, 9.7112e-07
1317.3, 1.0134e-06
1319.3, 9.8291e-07
1321.3, 1.0435e-06
1323.3, 1.0462e-06
1325.3, 1.005e-06
1327.3, 9.854e-07
1329.3, 1.0462e-06
1331.3, 9.9447e-07
1333.3, 9.3944e-07
1335.3, 9.8133e-07
1337.3, 9.8921e-07
1339.3, 1.0187e-06
1341.3, 1.0671e-06
1343.3, 1.0492e-06
1345.3, 1.0445e-06
1347.3, 1.022e-06
1349.3, 9.9129e-07
1351.3, 9.9749e-07
1353.4, 9.8894e-07
1355.4, 9.718e-07
1357.4, 1.0089e-06
1359.4, 1.0334e-06
1361.4, 1.0213e-06
1363.4, 9.891e-07
1365.4, 1.0131e-06
1367.4, 9.7594e-07
1369.4, 1.0598e-06
1371.4, 1.001e-06
1373.4, 1.0623e-06
1375.4, 1.0126e-06
1377.4, 9.9467e-07
1379.4, 9.5396e-07
1381.4, 9.8775e-07
1383.4, 1.0068e-06
1385.4, 9.6305e-07
1387.4, 1.0148e-06
1389.4, 1.0495e-06
1391.4, 1.1093e-06
1393.4, 1.0556e-06
1395.4, 1.0162e-06
1397.4, 1.0104e-06
1399.4, 9.9421e-07
1401.4, 9.7968e-07
1403.4, 1.0099e-06
1405.4, 1.0591e-06
1407.4, 1.0629e-06
1409.4, 1.1394e-06
1411.4, 9.8927e-07
1413.4, 1.0012e-06
1415.4, 1.0199e-06
1417.4, 9.987e-07
1419.4, 9.642e-07
1421.4, 9.8694e-07
1423.4, 1.0321e-06
1425.4, 1.0157e-06
1427.4, 9.8706e-07
1429.4, 1.0122e-06
1431.4, 1.0306e-06
1433.4, 1.0428e-06
1435.4, 1.0128e-06
1437.4, 9.8543e-07
1439.4, 9.4401e-07
1441.4, 1.038e-06
1443.4, 1.0007e-06
1445.4, 9.7849e-07
1447.4, 1.0065e-06
1449.4, 1.0329e-06
1451.4, 1.0578e-06
1453.5, 1.0305e-06
1455.5, 1.0511e-06
1457.5, 1.0732e-06
1459.5, 1.0205e-06
1461.5, 1.066e-06
1463.5, 1.0229e-06
1465.5, 1.0528e-06
1467.5, 1.0208e-06
1469.5, 1.0266e-06
1471.5, 1.0095e-06
1473.5, 1.0631e-06
1475.5, 1.0115e-06
1477.5, 1.0694e-06
1479.5, 1.0078e-06
1481.5, 1.0426e-06
1483.5, 9.6669e-07
1485.5, 1.019e-06
1487.5, 1.0293e-06
1489.5, 1.0173e-06
1491.5, 1.025e-06
1493.5, 1.0814e-06
1495.5, 9.5201e-07
1497.5, 1.0228e-06
1499.5, 1.0112e-06
1501.5, 1.0301e-06
1503.5, 9.9564e-07
1505.5, 1.0234e-06
1507.5, 1.0274e-06
1509.5, 1.0286e-06
1511.5, 9.7996e-07
1513.5, 1.0554e-06
1515.5, 1.0343e-06
1517.5, 9.8178e-07
1519.5, 9.8319e-07
1521.5, 1.0393e-06
1523.5, 1.0175e-06
1525.5, 9.9319e-07
1527.5, 9.9797e-07
1529.5, 1.0513e-06
1531.5, 9.943e-07
1533.5, 9.6685e-07
1535.5, 9.7051e-07
1537.5, 1.0869e-06
1539.5, 1.01e-06
1541.5, 1.0772e-06
1543.5, 1.0082e-06
1545.5, 1.0842e-06
1547.5, 1.0559e-06
1549.5, 1.0594e-06
1551.5, 1.0088e-06
1553.6, 1.0055e-06
1555.6, 1.0427e-06
1557.6, 1.0364e-06
1559.6, 9.7971e-07
1561.6, 1.0241e-06
1563.6, 1.057e-06
1565.6, 1.0231e-06
1567.6, 1.0104e-06
1569.6, 1.0242e-06
1571.6, 1.0631e-06
1573.6, 9.7966e-07
1575.6, 1.0051e-06
1577.6, 1.029e-06
1579.6, 1.0748e-06
1581.6, 1.0191e-06
1583.6, 1.0553e-06
1585.6, 1.0383e-06
1587.6, 9.8058e-07
1589.6, 1.0088e-06
1591.6, 1.079e-06
1593.6, 1.0279e-06
1595.6, 1.0211e-06
1597.6, 1.0116e-06
1599.6, 9.6124e-07
1601.6, 1.0232e-06
1603.6, 1.071e-06
1605.6, 1.0561e-06
1607.6, 9.8755e-07
1609.6, 1.0265e-06
1611.6, 1.0608e-06
1613.6, 1.0093e-06
1615.6, 1.0525e-06
1617.6, 1.0241e-06
1619.6, 1.0097e-06
1621.6, 9.9472e-07
1623.6, 1.0099e-06
1625.6, 1.058e-06
1627.6, 1.0424e-06
1629.6, 1.0488e-06
1631.6, 1.0148e-06
1633.6, 1.0091e-06
1635.6, 1.026e-06
1637.6, 1.0122e-06
1639.6, 9.9758e-07
1641.6, 1.0606e-06
1643.6, 9.8281e-07
1645.6, 1.0006e-06
1647.6, 1.0181e-06
1649.6, 1.0167e-06
1651.6, 1.0412e-06
1653.7, 1.0372e-06
1655.7, 1.0531e-06
1657.7, 1.0576e-06
1659.7, 9.5809e-07
1661.7, 1.05e-06
1663.7, 1.0361e-06
1665.7, 1.0355e-06
1667.7, 1.0085e-06
1669.7, 1.0455e-06
1671.7, 1.0217e-06
1673.7, 1.0056e-06
1675.7, 1.024e-06
1677.7, 1.0128e-06
1679.7, 1.0642e-06
1681.7, 1.1032e-06
1683.7, 1.0892e-06
1685.7, 1.0504e-06
1687.7, 1.0455e-06
1689.7, 1.0229e-06
1691.7, 1.0221e-06
1693.7, 9.687e-07
1695.7, 1.0626e-06
1697.7, 1.0183e-06
1699.7, 1.0202e-06
1701.7, 1.0029e-06
1703.7, 1.0445e-06
1705.7, 1.0375e-06
1707.7, 1.0421e-06
1709.7, 1.0289e-06
1711.7, 1.0578e-06
1713.7, 1.0845e-06
1715.7, 1.0166e-06
1717.7, 1.0716e-06
1719.7, 1.0981e-06
1721.7, 1.0412e-06
1723.7, 1.0001e-06
1725.7, 1.0502e-06
1727.7, 9.8214e-07
1729.7, 1.0728e-06
1731.7, 1.0197e-06
1733.7, 1.0169e-06
1735.7, 1.0039e-06
1737.7, 1.0554e-06
1739.7, 1.0363e-06
1741.7, 9.4218e-07
1743.7, 1.0101e-06
1745.7, 1.0562e-06
1747.7, 1.0273e-06
1749.7, 1.0221e-06
1751.7, 1.0394e-06
1753.8, 1.1026e-06
1755.8, 1.0091e-06
1757.8, 1.0036e-06
1759.8, 1.0142e-06
1761.8, 9.9667e-07
1763.8, 1.0185e-06
1765.8, 9.9247e-07
1767.8, 1.075e-06
1769.8, 1.0448e-06
1771.8, 1.0192e-06
1773.8, 1.0488e-06
1775.8, 1.0573e-06
1777.8, 1.0951e-06
1779.8, 9.7961e-07
1781.8, 1.0126e-06
1783.8, 1.0001e-06
1785.8, 1.0864e-06
1787.8, 9.8036e-07
1789.8, 1.0842e-06
1791.8, 1.0524e-06
1793.8, 1.0243e-06
1795.8, 1.0053e-06
1797.8, 1.0246e-06
1799.8, 1.0403e-06
1801.8, 9.9519e-07
1803.8, 1.0305e-06
1805.8, 1.0669e-06
1807.8, 1.0526e-06
1809.8, 9.9e-07
1811.8, 1.0489e-06
1813.8, 1.0366e-06
1815.8, 9.9786e-07
1817.8, 1.0395e-06
1819.8, 1.0307e-06
1821.8, 1.0787e-06
1823.8, 1.0957e-06
1825.8, 1.0239e-06
1827.8, 1.0507e-06
1829.8, 1.0523e-06
1831.8, 1.0879e-06
1833.8, 1.0551e-06
1835.8, 1.0262e-06
1837.8, 1.0187e-06
1839.8, 1.0163e-06
1841.8, 1.1211e-06
1843.8, 1.0665e-06
1845.8, 1.0721e-06
1847.8, 1.0359e-06
1849.8, 1.0215e-06
1851.8, 1.1137e-06
1853.9, 9.9169e-07
1855.9, 1.0301e-06
1857.9, 1.0686e-06
1859.9, 9.7816e-07
1861.9, 1.0488e-06
1863.9, 1.0233e-06
1865.9, 1.0645e-06
1867.9, 1.0471e-06
1869.9, 1.0339e-06
1871.9, 1.0341e-06
1873.9, 9.7426e-07
1875.9, 9.6587e-07
1877.9, 1.0239e-06
1879.9, 1.0556e-06
1881.9, 1.0218e-06
1883.9, 1.022e-06
1885.9, 1.0183e-06
1887.9, 1.0153e-06
1889.9, 1.0872e-06
1891.9, 1.0715e-06
1893.9, 1.0074e-06
1895.9, 1.0275e-06
1897.9, 1.0462e-06
1899.9, 1.0614e-06
1901.9, 9.8292e-07
1903.9, 1.0005e-06
1905.9, 1.0872e-06
1907.9, 1.042e-06
1909.9, 1.0173e-06
1911.9, 1.073e-06
1913.9, 9.885e-07
1915.9, 1.0329e-06
1917.9, 1.0378e-06
1919.9, 1.0603e-06
1921.9, 1.0008e-06
1923.9, 1.0605e-06
1925.9, 9.7444e-07
1927.9, 1.0267e-06
1929.9, 1.0232e-06
1931.9, 1.0312e-06
1933.9, 1.0676e-06
1935.9, 1.0317e-06
1937.9, 1.0005e-06
1939.9, 1.0216e-06
1941.9, 1.0178e-06
1943.9, 1.0536e-06
1945.9, 1.0356e-06
1947.9, 1.0518e-06
1949.9, 9.7496e-07
1951.9, 1.0867e-06
1954.0, 1.0459e-06
1956.0, 1.0653e-06
1958.0, 9.8237e-07
1960.0, 1.0187e-06
1962.0, 1.0183e-06
1964.0, 1.1441e-06
1966.0, 1.0228e-06
1968.0, 1.0375e-06
1970.0, 1.01e-06
1972.0, 1.0629e-06
1974.0, 9.8294e-07
1976.0, 1.0356e-06
1978.0, 1.0308e-06
1980.0, 1.0561e-06
1982.0, 1.065e-06
1984.0, 1.0339e-06
1986.0, 1.0273e-06
1988.0, 1.0658e-06
1990.0, 1.0609e-06
1992.0, 1.0092e-06
1994.0, 1.11e-06
1996.0, 1.0804e-06
1998.0, 1.0355e-06
2000.0, 1.0543e-06
2002.0, 1.0818e-06
2004.0, 1.0605e-06
2006.0, 9.9225e-07
2008.0, 1.0697e-06
2010.0, 1.0539e-06
2012.0, 1.035e-06
2014.0, 1.0363e-06
2016.0, 1.0153e-06
2018.0, 1.002e-06
2020.0, 1.0671e-06
2022.0, 1.096e-06
2024.0, 1.0725e-06
2026.0, 1.0794e-06
2028.0, 9.9764e-07
2030.0, 1.0685e-06
2032.0, 1.0736e-06
2034.0, 9.9502e-07
2036.0, 1.0325e-06
2038.0, 1.116e-06
2040.0, 1.0862e-06
2042.0, 9.9841e-07
2044.0, 9.6742e-07
2046.0, 1.0237e-06
2048.0, 1.0656e-06
2050.0, 9.8932e-07
2052.0, -3.496e-08
2054.1, -3.728e-08
2056.1, -3.781e-08
2058.1, -3.84e-08
2060.1, -3.955e-08
2062.1, -4.134e-08
2064.1, -3.548e-08
2066.1, -3.595e-08
2068.1, -3.89e-08
2070.1, -3.529e-08
2072.1, -3.51e-08
2074.1, -3.555e-08
2076.1, -3.427e-08
2078.1, -3.583e-08
2080.1, -3.789e-08
2082.1, -3.807e-08
2084.1, -3.506e-08
2086.1, -3.793e-08
2088.1, -3.699e-08
2090.1, -3.754e-08
2092.1, -3.871e-08
2094.1, -3.558e-08
2096.1, -3.824e-08
2098.1, -3.869e-08
2100.1, -3.899e-08
2102.1, -3.47e-08
2104.1, -3.437e-08
2106.1, -4.033e-08
2108.1, -3.486e-08
2110.1, -3.751e-08
2112.1, -3.636e-08
2114.1, -3.569e-08
2116.1, -3.474e-08
2118.1, -3.98e-08
2120.1, -3.957e-08
2122.1, -3.843e-08
2124.1, -3.509e-08
2126.1, -3.556e-08
2128.1, -3.452e-08
2130.1, -3.241e-08
2132.1, -3.409e-08
2134.1, -3.583e-08
2136.1, -3.792e-08
2138.1, -3.7e-08
2140.1, -3.596e-08
2142.1, -3.526e-08
2144.1, -3.698e-08
2146.1, -3.514e-08
2148.1, -3.408e-08
2150.1, -3.498e-08
2152.1, -3.555e-08
2154.2, -3.3e-08
2156.2, -3.7e-08
2158.2, -3.347e-08
2160.2, -3.544e-08
2162.2, -3.295e-08
2164.2, -3.147e-08
2166.2, -3.063e-08
2168.2, -3.245e-08
2170.2, -3.223e-08
2172.2, -3.467e-08
2174.2, -3.466e-08
2176.2, -3.332e-08
2178.2, -3.581e-08
2180.2, -3.371e-08
2182.2, -3.319e-08
2184.2, -3.398e-08
2186.2, -3.43e-08
2188.2, -3.508e-08
2190.2, -3.621e-08
2192.2, -3.097e-08
2194.2, -3.51e-08
2196.2, -3.473e-08
2198.2, -3.463e-08
2200.2, -3.456e-08
2202.2, -3.504e-08
2204.2, -3.695e-08
2206.2, -3.589e-08
2208.2, -3.609e-08
2210.2, -3.49e-08
2212.2, -3.292e-08
2214.2, -3.265e-08
2216.2, -3.876e-08
2218.2, -3.401e-08
2220.2, -3.604e-08
2222.2, -3.382e-08
2224.2, -2.897e-08
2226.2, -2.919e-08
2228.2, -3.573e-08
2230.2, -3.21e-08
2232.2, -3.425e-08
2234.2, -3.23e-08
2236.2, -3.451e-08
2238.2, -3.264e-08
2240.2, -3.408e-08
2242.2, -2.971e-08
2244.2, -3.121e-08
2246.2, -3.583e-08
2248.2, -3.658e-08
2250.2, -3.377e-08
2252.2, -3.722e-08
2254.3, -3.454e-08
2256.3, -3.632e-08
2258.3, -3.546e-08
2260.3, -3.698e-08
2262.3, -3.689e-08
2264.3, -3.306e-08
2266.3, -3.211e-08
2268.3, -3.207e-08
2270.3, -3.056e-08
2272.3, -3.26e-08
2274.3, -3.326e-08
2276.3, -3.362e-08
2278.3, -3.542e-08
2280.3, -3.542e-08
2282.3, -3.551e-08
2284.3, -3.407e-08
2286.3, -3.48e-08
2288.3, -3.22e-08
2290.3, -2.978e-08
2292.3, -3.322e-08
2294.3, -3.294e-08
2296.3, -4.009e-08
2298.3, -3.692e-08
2300.3, -3.419e-08
2302.3, -3.395e-08
2304.3, -3.606e-08
2306.3, -3.307e-08
2308.3, -3.427e-08
2310.3, -3.406e-08
2312.3, -3.243e-08
2314.3, -3.554e-08
2316.3, -3.656e-08
2318.3, -3.724e-08
2320.3, -3.423e-08
2322.3, -3.628e-08
2324.3, -3.383e-08
2326.3, -3.514e-08
2328.3, -3.703e-08
2330.3, -3.67e-08
2332.3, -3.773e-08
2334.3, -3.854e-08
2336.3, -3.584e-08
2338.3, -3.874e-08
2340.3, -3.175e-08
2342.3, -3.331e-08
2344.3, -3.325e-08
2346.3, -2.872e-08
2348.3, -3.109e-08
2350.3, -3.327e-08
2352.3, -3.204e-08
2354.4, -3.43e-08
2356.4, -3.207e-08
2358.4, -3.421e-08
2360.4, -3.496e-08
2362.4, -3.31e-08
2364.4, -3.306e-08
2366.4, -3.592e-08
2368.4, -3.343e-08
2370.4, -3.431e-08
2372.4, -3.083e-08
2374.4, -3.592e-08
2376.4, -3.28e-08
2378.4, -3.426e-08
2380.4, -3.422e-08
2382.4, -3.146e-08
2384.4, -3.385e-08
2386.4, -3.399e-08
2388.4, -3.406e-08
2390.4, -3.166e-08
2392.4, -3.593e-08
2394.4, -2.938e-08
2396.4, -3.068e-08
2398.4, -3.216e-08
2400.4, -3.606e-08
2402.4, -3.321e-08
2404.4, -3.266e-08
2406.4, -3.552e-08
2408.4, -2.934e-08
2410.4, -3.035e-08
2412.4, -3.181e-08
2414.4, -3.126e-08
2416.4, -3.573e-08
2418.4, -3.715e-08
2420.4, -3.35e-08
2422.4, -3.264e-08
2424.4, -3.658e-08
2426.4, -3.628e-08
2428.4, -3.561e-08
2430.4, -3.931e-08
2432.4, -3.708e-08
2434.4, -3.763e-08
2436.4, -3.502e-08
2438.4, -3.339e-08
2440.4, -3.318e-08
2442.4, -3.256e-08
2444.4, -2.872e-08
2446.4, -3.711e-08
2448.4, -3.689e-08
2450.4, -4.022e-08
2452.4, -3.507e-08
2454.5, -3.363e-08
2456.5, -3.211e-08
2458.5, -3.258e-08
2460.5, -3.692e-08
2462.5, -3.383e-08
2464.5, -3.343e-08
2466.5, -3.174e-08
2468.5, -3.486e-08
2470.5, -3.372e-08
2472.5, -3.491e-08
2474.5, -3.429e-08
2476.5, -3.711e-08
2478.5, -3.622e-08
2480.5, -3.576e-08
2482.5, -3.349e-08
2484.5, -3.677e-08
2486.5, -3.346e-08
2488.5, -3.649e-08
2490.5, -3.822e-08
2492.5, -4.086e-08
2494.5, -3.41e-08
2496.5, -3.338e-08
2498.5, -4.004e-08
2500.5, -3.884e-08
2502.5, -3.748e-08
2504.5, -3.849e-08
2506.5, -3.846e-08
2508.5, -3.687e-08
2510.5, -3.553e-08
2512.5, -3.498e-08
2514.5, -3.46e-08
2516.5, -3.856e-08
2518.5, -3.638e-08
2520.5, -3.027e-08
2522.5, -3.258e-08
2524.5, -3.271e-08
2526.5, -3.345e-08
2528.5, -3.492e-08
2530.5, -3.871e-08
2532.5, -3.638e-08
2534.5, -3.648e-08
2536.5, -3.33e-08
2538.5, -3.411e-08
2540.5, -3.758e-08
2542.5, -3.86e-08
2544.5, -3.821e-08
2546.5, -3.378e-08
2548.5, -3.81e-08
2550.5, -3.672e-08
2552.5, -3.954e-08
2554.6, -3.566e-08
2556.6, -3.68e-08
2558.6, -3.649e-08
2560.6, -3.56e-08
2562.6, -3.703e-08
2564.6, -3.561e-08
2566.6, -3.396e-08
2568.6, -3.458e-08
2570.6, -3.473e-08
2572.6, -3.356e-08
2574.6, -3.655e-08
2576.6, -3.6e-08
2578.6, -3.894e-08
2580.6, -3.697e-08
2582.6, -3.77e-08
2584.6, -3.657e-08
2586.6, -3.765e-08
2588.6, -3.604e-08
2590.6, -3.364e-08
2592.6, -3.53e-08
2594.6, -3.548e-08
2596.6, -3.503e-08
2598.6, -3.379e-08
2600.6, -3.577e-08
2602.6, -3.778e-08
2604.6, -3.706e-08
2606.6, -3.445e-08
2608.6, -3.447e-08
2610.6, -3.629e-08
2612.6, -3.547e-08
2614.6, -3.351e-08
2616.6, -3.82e-08
2618.6, -3.336e-08
2620.6, -3.575e-08
2622.6, -3.674e-08
2624.6, -3.669e-08
2626.6, -3.954e-08
2628.6, -4.031e-08
2630.6, -3.69e-08
2632.6, -3.95e-08
2634.6, -3.947e-08
2636.6, -3.671e-08
2638.6, -3.7e-08
2640.6, -3.631e-08
2642.6, -3.791e-08
2644.6, -3.331e-08
2646.6, -3.43e-08
2648.6, -3.45e-08
2650.6, -3.467e-08
2652.6, -3.857e-08
2654.7, -3.435e-08
2656.7, -3.503e-08
2658.7, -3.589e-08
2660.7, -3.523e-08
2662.7, -3.549e-08
2664.7, -3.619e-08
2666.7, -3.496e-08
2668.7, -3.539e-08
2670.7, -3.403e-08
2672.7, -3.459e-08
2674.7, -3.435e-08
2676.7, -3.564e-08
2678.7, -3.442e-08
2680.7, -3.317e-08
2682.7, -3.792e-08
2684.7, -3.268e-08
2686.7, -3.293e-08
2688.7, -3.252e-08
2690.7, -3.133e-08
2692.7, -3.302e-08
2694.7, -3.16e-08
2696.7, -3.323e-08
2698.7, -3.437e-08
2700.7, -3.648e-08
2702.7, -3.801e-08
2704.7, -3.405e-08
2706.7, -3.513e-08
2708.7, -3.461e-08
2710.7, -3.803e-08
2712.7, -3.764e-08
2714.7, -3.675e-08
2716.7, -3.375e-08
2718.7, -3.472e-08
2720.7, -3.602e-08
2722.7, -3.602e-08
2724.7, -3.607e-08
2726.7, -3.442e-08
2728.7, -3.462e-08
2730.7, -3.617e-08
2732.7, -3.594e-08
2734.7, -3.611e-08
2736.7, -3.832e-08
2738.7, -3.936e-08
2740.7, -3.842e-08
2742.7, -4.119e-08
2744.7, -4.083e-08
2746.7, -4.013e-08
2748.7, -3.697e-08
2750.7, -3.701e-08
2752.7, -3.452e-08
2754.8, -3.707e-08
2756.8, -3.603e-08
2758.8, -3.519e-08
2760.8, -3.794e-08
2762.8, -3.605e-08
2764.8, -3.872e-08
2766.8, -3.981e-08
2768.8, -4.246e-08
2770.8, -3.758e-08
2772.8, -3.516e-08
2774.8, -3.801e-08
2776.8, -3.677e-08
2778.8, -3.863e-08
2780.8, -3.81e-08
2782.8, -3.411e-08
2784.8, -3.461e-08
2786.8, -3.407e-08
2788.8, -3.542e-08
2790.8, -3.576e-08
2792.8, -3.595e-08
2794.8, -3.377e-08
2796.8, -3.509e-08
2798.8, -3.551e-08
2800.8, -3.609e-08
2802.8, -3.784e-08
2804.8, -3.649e-08
2806.8, -3.549e-08
2808.8, -3.799e-08
2810.8, -3.794e-08
2812.8, -3.859e-08
2814.8, -3.91e-08
2816.8, -3.834e-08
2818.8, -3.613e-08
2820.8, -3.967e-08
2822.8, -3.838e-08
2824.8, -3.729e-08
2826.8, -4.338e-08
2828.8, -4.15e-08
2830.8, -3.852e-08
2832.8, -3.863e-08
2834.8, -4.088e-08
2836.8, -4.05e-08
2838.8, -3.889e-08
2840.8, -3.685e-08
2842.8, -3.696e-08
2844.8, -4.007e-08
2846.8, -4.352e-08
2848.8, -4.043e-08
2850.8, -3.826e-08
2852.8, -3.875e-08
2854.9, -3.805e-08
2856.9, -3.685e-08
2858.9, -3.738e-08
2860.9, -4.035e-08
2862.9, -3.544e-08
2864.9, -3.584e-08
2866.9, -3.482e-08
2868.9, -3.379e-08
2870.9, -3.495e-08
2872.9, -3.408e-08
2874.9, -3.731e-08
2876.9, -3.687e-08
2878.9, -3.938e-08
2880.9, -3.885e-08
2882.9, -3.647e-08
2884.9, -3.49e-08
2886.9, -3.804e-08
2888.9, -3.759e-08
2890.9, -3.909e-08
2892.9, -3.528e-08
2894.9, -3.759e-08
2896.9, -3.91e-08
2898.9, -3.963e-08
2900.9, -3.929e-08
2902.9, -3.488e-08
2904.9, -3.461e-08
2906.9, -3.491e-08
2908.9, -3.772e-08
2910.9, -3.764e-08
2912.9, -3.602e-08
2914.9, -3.476e-08
2916.9, -3.835e-08
2918.9, -3.773e-08
2920.9, -3.639e-08
2922.9, -3.734e-08
2924.9, -3.848e-08
2926.9, -4.015e-08
2928.9, -3.971e-08
2930.9, -3.929e-08
2932.9, -3.932e-08
2934.9, -4.103e-08
2936.9, -4.128e-08
2938.9, -3.837e-08
2940.9, -3.759e-08
2942.9, -4.158e-08
2944.9, -4.021e-08
2946.9, -3.746e-08
2948.9, -3.825e-08
2950.9, -3.769e-08
2952.9, -4.122e-08
2955.0, -4.067e-08
2957.0, -3.911e-08
2959.0, -4.114e-08
2961.0, -3.81e-08
2963.0, -3.717e-08
2965.0, -3.536e-08
2967.0, -3.771e-08
2969.0, -3.701e-08
2971.0, -3.656e-08
2973.0, -3.679e-08
2975.0, -3.715e-08
2977.0, -3.845e-08
2979.0, -4.105e-08
2981.0, -3.918e-08
2983.0, -4.062e-08
2985.0, -4.283e-08
2987.0, -4.014e-08
2989.0, -3.897e-08
2991.0, -3.897e-08
2993.0, -3.85e-08
2995.0, -3.831e-08
2997.0, -3.613e-08
2999.0, -3.58e-08
3001.0, -3.835e-08
3003.0, -3.686e-08
3005.0, -3.696e-08
3007.0, -3.637e-08
3009.0, -3.617e-08
3011.0, -3.549e-08
3013.0, -4.031e-08
3015.0, -3.61e-08
3017.0, -3.437e-08
3019.0, -3.95e-08
3021.0, -3.536e-08
3023.0, -3.686e-08
3025.0, -3.6e-08
3027.0, -3.805e-08
3029.0, -3.702e-08
3031.0, -3.766e-08
3033.0, -4.205e-08
3035.0, -4.401e-08
3037.0, -4.259e-08
3039.0, -4.046e-08
3041.0, -3.821e-08
3043.0, -3.952e-08
3045.0, -4.189e-08
3047.0, -4.228e-08
3049.0, -3.654e-08
3051.0, -3.807e-08
3053.0, -3.749e-08
3055.1, -4.069e-08
3057.1, -3.684e-08
3059.1, -3.769e-08
3061.1, -3.601e-08
3063.1, -3.512e-08
3065.1, -3.883e-08
3067.1, -4.098e-08
3069.1, -3.783e-08
3071.1, -3.91e-08
3073.1, -3.462e-08
3075.1, -3.551e-08
3077.1, -3.847e-08
3079.1, -3.741e-08
3081.1, -3.736e-08
3083.1, -3.631e-08
3085.1, -4.427e-08
3087.1, -4.232e-08
3089.1, -3.995e-08
3091.1, 4.8134e-07
3093.1, 9.0068e-07
3095.1, 9.4479e-07
3097.1, 9.4675e-07
3099.1, 9.2939e-07
3101.1, 9.6003e-07
3103.1, 9.3904e-07
3105.1, 9.5367e-07
3107.1, 9.3627e-07
3109.1, 9.2962e-07
3111.1, 8.8301e-07
3113.1, 9.7182e-07
3115.1, 9.7551e-07
3117.1, 8.9501e-07
3119.1, 9.3347e-07
3121.1, 1.0143e-06
3123.1, 8.9365e-07
3125.1, 9.1052e-07
3127.1, 9.4677e-07
3129.1, 9.5985e-07
3131.1, 9.2965e-07
3133.1, 9.7156e-07
3135.1, 9.6977e-07
3137.1, 9.5971e-07
3139.1, 9.3318e-07
3141.1, 9.6096e-07
3143.1, 9.3739e-07
3145.1, 9.3912e-07
3147.1, 9.6236e-07
3149.1, 9.3091e-07
3151.1, 9.3635e-07
3153.1, 9.0861e-07
3155.2, 9.1841e-07
3157.2, 9.4499e-07
3159.2, 9.7664e-07
3161.2, 9.4991e-07
3163.2, 9.7372e-07
3165.2, 9.8714e-07
3167.2, 9.516e-07
3169.2, 9.5938e-07
3171.2, 9.5895e-07
3173.2, 1.0197e-06
3175.2, 9.5458e-07
3177.2, 9.6474e-07
3179.2, 9.6117e-07
3181.2, 9.1485e-07
3183.2, 1.0235e-06
3185.2, 9.735e-07
3187.2, 9.9273e-07
3189.2, 9.9446e-07
3191.2, 9.4523e-07
3193.2, 9.9107e-07
3195.2, 9.0988e-07
3197.2, 9.4129e-07
3199.2, 9.4444e-07
3201.2, 1.0228e-06
3203.2, 9.5086e-07
3205.2, 9.5488e-07
3207.2, 9.664e-07
3209.2, 1.0339e-06
3211.2, 1.0548e-06
3213.2, 1.0056e-06
3215.2, 9.8979e-07
3217.2, 9.6172e-07
3219.2, 9.4978e-07
3221.2, 9.5706e-07
3223.2, 9.994e-07
3225.2, 1.0339e-06
3227.2, 9.1762e-07
3229.2, 9.8648e-07
3231.2, 1.0175e-06
3233.2, 9.2682e-07
3235.2, 9.9213e-07
3237.2, 9.6435e-07
3239.2, 9.9727e-07
3241.2, 9.9096e-07
3243.2, 1.0128e-06
3245.2, 1.011e-06
3247.2, 9.5035e-07
3249.2, 1.015e-06
3251.2, 9.3561e-07
3253.2, 1.0108e-06
3255.3, 1.0191e-06
3257.3, 1.021e-06
3259.3, 9.8615e-07
3261.3, 1.0131e-06
3263.3, 9.5398e-07
3265.3, 9.6608e-07
3267.3, 9.4967e-07
3269.3, 1.0207e-06
3271.3, 1.0088e-06
3273.3, 1.0109e-06
3275.3, 9.4414e-07
3277.3, 9.9095e-07
3279.3, 1.0058e-06
3281.3, 1.0308e-06
3283.3, 9.5165e-07
3285.3, 1.0255e-06
3287.3, 9.7888e-07
3289.3, 9.9491e-07
3291.3, 9.7428e-07
3293.3, 1.0107e-06
3295.3, 1.0462e-06
3297.3, 1.0021e-06
3299.3, 9.842e-07
3301.3, 1.0135e-06
3303.3, 1.02e-06
3305.3, 9.8579e-07
3307.3, 1.001e-06
3309.3, 9.5088e-07
3311.3, 9.9317e-07
3313.3, 1.0035e-06
3315.3, 9.6471e-07
3317.3, 9.5912e-07
3319.3, 1.0014e-06
3321.3, 9.9118e-07
3323.3, 9.9779e-07
3325.3, 9.9111e-07
3327.3, 9.7208e-07
3329.3, 9.8891e-07
3331.3, 9.521e-07
3333.3, 9.9304e-07
3335.3, 9.6782e-07
3337.3, 9.8706e-07
3339.3, 1.0469e-06
3341.3, 9.7059e-07
3343.3, 9.3555e-07
3345.3, 1.0351e-06
3347.3, 9.8528e-07
3349.3, 1.0043e-06
3351.3, 1.0218e-06
3353.3, 9.5868e-07
3355.4, 9.5839e-07
3357.4, 1.0001e-06
3359.4, 1.0146e-06
3361.4, 1.0158e-06
3363.4, 9.9506e-07
3365.4, 1.03e-06
3367.4, 1.0035e-06
3369.4, 9.6296e-07
3371.4, 1.0107e-06
3373.4, 9.7089e-07
3375.4, 1.0179e-06
3377.4, 1.0483e-06
3379.4, 1.0102e-06
3381.4, 1.0299e-06
3383.4, 9.8351e-07
3385.4, 1.0188e-06
3387.4, 9.6977e-07
3389.4, 1.0106e-06
3391.4, 9.4609e-07
3393.4, 1.0079e-06
3395.4, 1.0557e-06
3397.4, 9.9199e-07
3399.4, 1.0087e-06
3401.4, 1.0207e-06
3403.4, 9.6613e-07
3405.4, 9.9295e-07
3407.4, 1.0075e-06
3409.4, 9.9416e-07
3411.4, 9.6695e-07
3413.4, 9.8239e-07
3415.4, 9.913e-07
3417.4, 9.7038e-07
3419.4, 9.7836e-07
3421.4, 1.0023e-06
3423.4, 1.055e-06
3425.4, 1.0037e-06
3427.4, 9.7879e-07
3429.4, 1.0037e-06
3431.4, 1.0167e-06
3433.4, 1.0395e-06
3435.4, 1.0529e-06
3437.4, 1.0195e-06
3439.4, 9.9652e-07
3441.4, 9.7042e-07
3443.4, 1.0147e-06
3445.4, 1.0617e-06
3447.4, 1.0248e-06
3449.4, 1.0042e-06
3451.4, 9.919e-07
3453.4, 1.0477e-06
3455.5, 9.7284e-07
3457.5, 1.0397e-06
3459.5, 1.0394e-06
3461.5, 1.0222e-06
3463.5, 1.0487e-06
3465.5, 1.0022e-06
3467.5, 9.7192e-07
3469.5, 1.0855e-06
3471.5, 1.0045e-06
3473.5, 9.8891e-07
3475.5, 9.5605e-07
3477.5, 1.085e-06
3479.5, 1.0006e-06
3481.5, 1.0148e-06
3483.5, 1.0555e-06
3485.5, 1.063e-06
3487.5, 1.0119e-06
3489.5, 1.0082e-06
3491.5, 1.0034e-06
3493.5, 1.0269e-06
3495.5, 9.5613e-07
3497.5, 9.7189e-07
3499.5, 9.9922e-07
3501.5, 1.0648e-06
3503.5, 9.6638e-07
3505.5, 1.0281e-06
3507.5, 1.0307e-06
3509.5, 1.0102e-06
3511.5, 1.0337e-06
3513.5, 9.9837e-07
3515.5, 1.0681e-06
3517.5, 1.0602e-06
3519.5, 9.9612e-07
3521.5, 1.0354e-06
3523.5, 1.0657e-06
3525.5, 9.7313e-07
3527.5, 1.0459e-06
3529.5, 9.9144e-07
3531.5, 1.0183e-06
3533.5, 9.8557e-07
3535.5, 1.0486e-06
3537.5, 1.0267e-06
3539.5, 1.0086e-06
3541.5, 1.0249e-06
3543.5, 9.7489e-07
3545.5, 1.026e-06
3547.5, 1.0179e-06
3549.5, 1.028e-06
3551.5, 9.8564e-07
3553.5, 9.7748e-07
3555.6, 1.0035e-06
3557.6, 9.8485e-07
3559.6, 1.0252e-06
3561.6, 1.0354e-06
3563.6, 1.01e-06
3565.6, 1.0447e-06
3567.6, 1.004e-06
3569.6, 1.0086e-06
3571.6, 1.0124e-06
3573.6, 1.0351e-06
3575.6, 1.0194e-06
3577.6, 1.0015e-06
3579.6, 1.0869e-06
3581.6, 9.9594e-07
3583.6, 9.9852e-07
3585.6, 9.908e-07
3587.6, 9.7702e-07
3589.6, 9.8184e-07
3591.6, 1.0197e-06
3593.6, 9.8883e-07
3595.6, 1.0579e-06
3597.6, 1.0572e-06
3599.6, 9.7811e-07
3601.6, 1.0515e-06
3603.6, 1.06e-06
3605.6, 9.9158e-07
3607.6, 1.0622e-06
3609.6, 1.0209e-06
3611.6, 9.6355e-07
3613.6, 1.0152e-06
3615.6, 1.0204e-06
3617.6, 1.0999e-06
3619.6, 1.0039e-06
3621.6, 1.0213e-06
3623.6, 1.0242e-06
3625.6, 9.8559e-07
3627.6, 1.0364e-06
3629.6, 1.0785e-06
3631.6, 9.6071e-07
3633.6, 9.136e-07
3635.6, 1.0312e-06
3637.6, 1.0242e-06
3639.6, 1.0335e-06
3641.6, 1.0915e-06
3643.6, 1.0301e-06
3645.6, 1.0468e-06
3647.6, 1.0166e-06
3649.6, 1.0103e-06
3651.6, 1.0504e-06
3653.6, 9.6931e-07
3655.7, 1.0334e-06
3657.7, 1.0453e-06
3659.7, 9.8121e-07
3661.7, 1.0389e-06
3663.7, 1.0617e-06
3665.7, 9.8572e-07
3667.7, 1.0535e-06
3669.7, 1.0389e-06
3671.7, 1.0415e-06
3673.7, 1.0145e-06
3675.7, 9.916e-07
3677.7, 9.7862e-07
3679.7, 1.0484e-06
3681.7, 1.0969e-06
3683.7, 9.6289e-07
3685.7, 9.8334e-07
3687.7, 1.059e-06
3689.7, 9.8023e-07
3691.7, 1.0412e-06
3693.7, 9.3665e-07
3695.7, 1.0222e-06
3697.7, 1.0361e-06
3699.7, 1.0621e-06
3701.7, 1.0416e-06
3703.7, 1.0084e-06
3705.7, 9.5013e-07
3707.7, 1.0151e-06
3709.7, 1.0706e-06
3711.7, 9.9564e-07
3713.7, 1.0311e-06
3715.7, 1.0229e-06
3717.7, 1.0882e-06
3719.7, 1.0287e-06
3721.7, 1.0314e-06
3723.7, 1.0299e-06
3725.7, 1.0139e-06
3727.7, 1.0061e-06
3729.7, 1.0445e-06
3731.7, 9.8654e-07
3733.7, 1.0767e-06
3735.7, 9.8211e-07
3737.7, 1.048e-06
3739.7, 1.0023e-06
3741.7, 1.019e-06
3743.7, 1.1054e-06
3745.7, 1.0498e-06
3747.7, 1.0137e-06
3749.7, 9.8164e-07
3751.7, 1.0093e-06
3753.7, 9.722e-07
3755.8, 1.0458e-06
3757.8, 1.0696e-06
3759.8, 1.0363e-06
3761.8, 1.0245e-06
3763.8, 1.0301e-06
3765.8, 1.0758e-06
3767.8, 1.0375e-06
3769.8, 1.0153e-06
3771.8, 1.0238e-06
3773.8, 1.0739e-06
3775.8, 1.0588e-06
3777.8, 1.0071e-06
3779.8, 9.9559e-07
3781.8, 1.041e-06
3783.8, 1.0312e-06
3785.8, 1.0433e-06
3787.8, 1.0437e-06
3789.8, 9.8059e-07
3791.8, 1.0463e-06
3793.8, 1.0233e-06
3795.8, 1.045e-06
3797.8, 1.0458e-06
3799.8, 1.1191e-06
3801.8, 1.0715e-06
3803.8, 1.0347e-06
3805.8, 9.8148e-07
3807.8, 9.9008e-07
3809.8, 1.0383e-06
3811.8, 1.059e-06
3813.8, 1.061e-06
3815.8, 1.035e-06
3817.8, 9.7365e-07
3819.8, 9.8823e-07
3821.8, 1.0388e-06
3823.8, 1.0144e-06
3825.8, 1.0585e-06
3827.8, 9.9076e-07
3829.8, 1.0522e-06
3831.8, 9.7049e-07
3833.8, 9.6539e-07
3835.8, 1.0589e-06
3837.8, 1.0347e-06
3839.8, 1.0346e-06
3841.8, 1.021e-06
3843.8, 1.0352e-06
3845.8, 1.0151e-06
3847.8, 1.0031e-06
3849.8, 9.968e-07
3851.8, 1.0695e-06
3853.8, 9.7119e-07
3855.9, 1.0549e-06
3857.9, 1.0585e-06
3859.9, 1.0712e-06
3861.9, 1.0414e-06
3863.9, 1.0599e-06
3865.9, 1.0053e-06
3867.9, 1.0107e-06
3869.9, 1.0206e-06
3871.9, 1.0053e-06
3873.9, 1.0469e-06
3875.9, 1.0022e-06
3877.9, 9.9536e-07
3879.9, 1.0616e-06
3881.9, 1.0241e-06
3883.9, 1.0435e-06
3885.9, 1.063e-06
3887.9, 1.1018e-06
3889.9, 1.0583e-06
3891.9, 9.8094e-07
3893.9, 1.0048e-06
3895.9, 1.0687e-06
3897.9, 1.028e-06
3899.9, 1.0819e-06
3901.9, 1.0404e-06
3903.9, 1.0567e-06
3905.9, 1.0134e-06
3907.9, 1.0407e-06
3909.9, 1.0118e-06
3911.9, 9.7947e-07
3913.9, 9.4463e-07
3915.9, 1.0449e-06
3917.9, 1.0302e-06
3919.9, 1.053e-06
3921.9, 1.0465e-06
3923.9, 1.0371e-06
3925.9, 1.041e-06
3927.9, 1.0224e-06
3929.9, 1.041e-06
3931.9, 1.0079e-06
3933.9, 9.8523e-07
3935.9, 9.82e-07
3937.9, 1.0329e-06
3939.9, 1.0021e-06
3941.9, 9.593e-07
3943.9, 9.9017e-07
3945.9, 1.0284e-06
3947.9, 9.7356e-07
3949.9, 1.0389e-06
3951.9, 1.0578e-06
3953.9, 9.7469e-07
3956.0, 1.0021e-06
3958.0, 1.0381e-06
3960.0, 1.029e-06
3962.0, 1.011e-06
3964.0, 9.7909e-07
3966.0, 9.8256e-07
3968.0, 1.0541e-06
3970.0, 1.0387e-06
3972.0, 1.0408e-06
3974.0, 1.027e-06
3976.0, 1.0708e-06
3978.0, 1.032e-06
3980.0, 1.0546e-06
3982.0, 1.0519e-06
3984.0, 1.0239e-06
3986.0, 1.0011e-06
3988.0, 1.0107e-06
3990.0, 1.0208e-06
3992.0, 1.0656e-06
3994.0, 9.9804e-07
3996.0, 1.0141e-06
3998.0, 1.0698e-06
4000.0, 1.0163e-06
4002.0, 1.0072e-06
4004.0, 9.4275e-07
4006.0, 9.9859e-07
4008.0, 1.0364e-06
4010.0, 9.8965e-07
4012.0, 1.024e-06
4014.0, 9.9977e-07
4016.0, 1.0501e-06
4018.0, 1.0063e-06
4020.0, 9.9658e-07
4022.0, 1.0252e-06
4024.0, 9.9774e-07
4026.0, 1.084e-06
4028.0, 1.0327e-06
4030.0, 1.1023e-06
4032.0, 1.0003e-06
4034.0, 1.0983e-06
4036.0, 9.8524e-07
4038.0, 1.0805e-06
4040.0, 1.0499e-06
4042.0, 1.0322e-06
4044.0, 1.0393e-06
4046.0, 1.0292e-06
4048.0, 1.0698e-06
4050.0, 1.0032e-06
4052.0, 1.0407e-06
4054.0, 1.0395e-06
4056.1, 1.0273e-06
4058.1, 9.6527e-07
4060.1, 1.0549e-06
4062.1, 9.6745e-07
4064.1, 1.0842e-06
4066.1, 1.0317e-06
4068.1, 1.0156e-06
4070.1, 1.0256e-06
4072.1, 1.0005e-06
4074.1, 1.0497e-06
4076.1, 9.8488e-07
4078.1, 9.8717e-07
4080.1, 1.0479e-06
4082.1, 1.0136e-06
4084.1, 9.9289e-07
4086.1, 1.0178e-06
4088.1, 9.8342e-07
4090.1, 1.0284e-06
4092.1, 5.0247e-07
4094.1, -3.851e-08
4096.1, -3.682e-08
4098.1, -3.708e-08
4100.1, -3.579e-08
4102.1, -3.926e-08
4104.1, -3.774e-08
4106.1, -3.419e-08
4108.1, -3.742e-08
4110.1, -3.582e-08
4112.1, -3.965e-08
4114.1, -3.864e-08
4116.1, -3.4e-08
4118.1, -3.79e-08
4120.1, -3.501e-08
4122.1, -3.61e-08
4124.1, -3.673e-08
4126.1, -3.862e-08
4128.1, -3.841e-08
4130.1, -3.815e-08
4132.1, -3.929e-08
4134.1, -4.029e-08
4136.1, -3.455e-08
4138.1, -3.733e-08
4140.1, -3.923e-08
4142.1, -3.689e-08
4144.1, -3.595e-08
4146.1, -3.498e-08
4148.1, -3.865e-08
4150.1, -3.574e-08
4152.1, -4.006e-08
4154.1, -4.073e-08
4156.2, -4.056e-08
4158.2, -4.382e-08
4160.2, -4.188e-08
4162.2, -4.229e-08
4164.2, -4.246e-08
4166.2, -3.852e-08
4168.2, -3.841e-08
4170.2, -3.679e-08
4172.2, -3.854e-08
4174.2, -3.585e-08
4176.2, -3.755e-08
4178.2, -3.764e-08
4180.2, -3.85e-08
4182.2, -3.394e-08
4184.2, -3.605e-08
4186.2, -3.366e-08
4188.2, -3.525e-08
4190.2, -4.133e-08
4192.2, -3.536e-08
4194.2, -3.537e-08
4196.2, -3.529e-08
4198.2, -3.506e-08
4200.2, -3.587e-08
4202.2, -3.702e-08
4204.2, -3.524e-08
4206.2, -3.333e-08
4208.2, -3.542e-08
4210.2, -3.456e-08
4212.2, -3.578e-08
4214.2, -3.227e-08
4216.2, -3.245e-08
4218.2, -3.296e-08
4220.2, -3.288e-08
4222.2, -3.115e-08
4224.2, -3.339e-08
4226.2, -3.067e-08
4228.2, -3.246e-08
4230.2, -3.394e-08
4232.2, -3.707e-08
4234.2, -3.701e-08
4236.2, -3.616e-08
4238.2, -3.573e-08
4240.2, -3.857e-08
4242.2, -3.832e-08
4244.2, -3.864e-08
4246.2, -3.883e-08
4248.2, -3.677e-08
4250.2, -3.802e-08
4252.2, -3.716e-08
4254.2, -3.719e-08
4256.3, -3.412e-08
4258.3, -3.492e-08
4260.3, -3.674e-08
4262.3, -3.904e-08
4264.3, -3.267e-08
4266.3, -3.501e-08
4268.3, -3.578e-08
4270.3, -3.257e-08
4272.3, -3.579e-08
4274.3, -3.565e-08
4276.3, -3.811e-08
4278.3, -3.476e-08
4280.3, -3.748e-08
4282.3, -3.735e-08
4284.3, -3.425e-08
4286.3, -3.663e-08
4288.3, -3.637e-08
4290.3, -3.255e-08
4292.3, -3.548e-08
4294.3, -3.427e-08
4296.3, -3.168e-08
4298.3, -3.348e-08
4300.3, -3.594e-08
4302.3, -3.457e-08
4304.3, -3.075e-08
4306.3, -2.906e-08
4308.3, -3.149e-08
4310.3, -3.147e-08
4312.3, -2.669e-08
4314.3, -2.845e-08
4316.3, -2.789e-08
4318.3, -2.724e-08
4320.3, -2.708e-08
4322.3, -3.046e-08
4324.3, -3.175e-08
4326.3, -2.898e-08
4328.3, -2.944e-08
4330.3, -2.944e-08
4332.3, -3.242e-08
4334.3, -3.076e-08
4336.3, -3.339e-08
4338.3, -3.245e-08
4340.3, -3.472e-08
4342.3, -3.397e-08
4344.3, -3.649e-08
4346.3, -3.08e-08
4348.3, -3.073e-08
4350.3, -3.118e-08
4352.3, -3.176e-08
4354.3, -3.058e-08
4356.4, -3.352e-08
4358.4, -3.248e-08
4360.4, -3.399e-08
4362.4, -2.775e-08
4364.4, -3.328e-08
4366.4, -3.141e-08
4368.4, -3.255e-08
4370.4, -3.328e-08
4372.4, -3.46e-08
4374.4, -3.629e-08
4376.4, -3.685e-08
4378.4, -3.244e-08
4380.4, -3.438e-08
4382.4, -3.52e-08
4384.4, -3.135e-08
4386.4, -3.103e-08
4388.4, -3.49e-08
4390.4, -3.605e-08
4392.4, -3.439e-08
4394.4, -3.451e-08
4396.4, -3.025e-08
4398.4, -3.337e-08
4400.4, -3.414e-08
4402.4, -3.165e-08
4404.4, -2.983e-08
4406.4, -2.972e-08
4408.4, -3.184e-08
4410.4, -2.862e-08
4412.4, -3.159e-08
4414.4, -3.094e-08
4416.4, -3.399e-08
4418.4, -3.558e-08
4420.4, -3.405e-08
4422.4, -3.307e-08
4424.4, -3.243e-08
4426.4, -3.138e-08
4428.4, -3.419e-08
4430.4, -3.172e-08
4432.4, -3.373e-08
4434.4, -3.493e-08
4436.4, -3.416e-08
4438.4, -3.395e-08
4440.4, -3.072e-08
4442.4, -3.104e-08
4444.4, -3.701e-08
4446.4, -3.314e-08
4448.4, -3.545e-08
4450.4, -3.386e-08
4452.4, -3.401e-08
4454.4, -3.201e-08
4456.5, -3.35e-08
4458.5, -3.481e-08
4460.5, -2.919e-08
4462.5, -3e-08
4464.5, -2.974e-08
4466.5, -3.149e-08
4468.5, -3.146e-08
4470.5, -3.066e-08
4472.5, -3.355e-08
4474.5, -3.327e-08
4476.5, -2.858e-08
4478.5, -3.168e-08
4480.5, -3.326e-08
4482.5, -3.236e-08
4484.5, -3.065e-08
4486.5, -3.285e-08
4488.5, -3.553e-08
4490.5, -3.322e-08
4492.5, -3.466e-08
4494.5, -3.327e-08
4496.5, -3.428e-08
4498.5, -3.61e-08
4500.5, -3.738e-08
4502.5, -3.593e-08
4504.5, -3.613e-08
4506.5, -3.506e-08
4508.5, -3.64e-08
4510.5, -3.72e-08
4512.5, -3.665e-08
4514.5, -3.847e-08
4516.5, -3.77e-08
4518.5, -3.812e-08
4520.5, -3.606e-08
4522.5, -3.658e-08
4524.5, -3.753e-08
4526.5, -3.387e-08
4528.5, -3.964e-08
4530.5, -3.464e-08
4532.5, -3.411e-08
4534.5, -3.883e-08
4536.5, -3.471e-08
4538.5, -3.897e-08
4540.5, -3.661e-08
4542.5, -3.638e-08
4544.5, -3.683e-08
4546.5, -3.099e-08
4548.5, -3.718e-08
4550.5, -3.641e-08
4552.5, -3.579e-08
4554.5, -3.383e-08
4556.6, -3.826e-08
4558.6, -3.393e-08
4560.6, -3.613e-08
4562.6, -3.803e-08
4564.6, -3.558e-08
4566.6, -3.435e-08
4568.6, -3.376e-08
4570.6, -3.423e-08
4572.6, -3.372e-08
4574.6, -3.537e-08
4576.6, -3.424e-08
4578.6, -3.713e-08
4580.6, -3.475e-08
4582.6, -3.593e-08
4584.6, -3.513e-08
4586.6, -3.531e-08
4588.6, -3.435e-08
4590.6, -3.406e-08
4592.6, -2.926e-08
4594.6, -3.298e-08
4596.6, -3.248e-08
4598.6, -3.867e-08
4600.6, -3.474e-08
4602.6, -3.777e-08
4604.6, -3.489e-08
4606.6, -3.866e-08
4608.6, -3.821e-08
4610.6, -3.541e-08
4612.6, -3.565e-08
4614.6, -3.725e-08
4616.6, -3.928e-08
4618.6, -3.77e-08
4620.6, -3.979e-08
4622.6, -4.316e-08
4624.6, -3.693e-08
4626.6, -3.398e-08
4628.6, -3.568e-08
4630.6, -3.661e-08
4632.6, -3.675e-08
4634.6, -3.623e-08
4636.6, -3.736e-08
4638.6, -3.873e-08
4640.6, -3.794e-08
4642.6, -3.934e-08
4644.6, -3.905e-08
4646.6, -3.743e-08
4648.6, -4.001e-08
4650.6, -3.677e-08
4652.6, -3.662e-08
4654.6, -3.537e-08
4656.7, -3.433e-08
4658.7, -3.525e-08
4660.7, -3.755e-08
4662.7, -3.635e-08
4664.7, -3.614e-08
4666.7, -4.044e-08
4668.7, -3.752e-08
4670.7, -3.743e-08
4672.7, -3.694e-08
4674.7, -3.937e-08
4676.7, -3.711e-08
4678.7, -3.815e-08
4680.7, -3.801e-08
4682.7, -3.727e-08
4684.7, -3.634e-08
4686.7, -3.878e-08
4688.7, -4.027e-08
4690.7, -4.122e-08
4692.7, -3.83e-08
4694.7, -3.846e-08
4696.7, -3.565e-08
4698.7, -3.244e-08
4700.7, -3.593e-08
4702.7, -3.599e-08
4704.7, -3.489e-08
4706.7, -3.724e-08
4708.7, -3.51e-08
4710.7, -3.983e-08
4712.7, -3.826e-08
4714.7, -3.751e-08
4716.7, -3.53e-08
4718.7, -3.722e-08
4720.7, -3.553e-08
4722.7, -4.002e-08
4724.7, -3.945e-08
4726.7, -3.822e-08
4728.7, -4.167e-08
4730.7, -3.817e-08
4732.7, -3.905e-08
4734.7, -4.113e-08
4736.7, -3.92e-08
4738.7, -4.04e-08
4740.7, -4.238e-08
4742.7, -3.879e-08
4744.7, -3.831e-08
4746.7, -3.607e-08
4748.7, -4.454e-08
4750.7, -4.064e-08
4752.7, -3.853e-08
4754.7, -4.2e-08
4756.8, -4.089e-08
4758.8, -3.966e-08
4760.8, -4.029e-08
4762.8, -3.979e-08
4764.8, -3.65e-08
4766.8, -3.883e-08
4768.8, -3.902e-08
4770.8, -3.813e-08
4772.8, -4.198e-08
4774.8, -4.259e-08
4776.8, -4.107e-08
4778.8, -4.126e-08
4780.8, -4.206e-08
4782.8, -4.243e-08
4784.8, -4.043e-08
4786.8, -3.716e-08
4788.8, -3.803e-08
4790.8, -3.792e-08
4792.8, -3.766e-08
4794.8, -3.722e-08
4796.8, -3.474e-08
4798.8, -3.514e-08
4800.8, -3.738e-08
4802.8, -3.567e-08
4804.8, -3.457e-08
4806.8, -3.589e-08
4808.8, -3.46e-08
4810.8, -3.602e-08
4812.8, -3.436e-08
4814.8, -3.024e-08
4816.8, -3.232e-08
4818.8, -3.404e-08
4820.8, -3.545e-08
4822.8, -3.535e-08
4824.8, -3.782e-08
4826.8, -3.436e-08
4828.8, -3.62e-08
4830.8, -3.678e-08
4832.8, -3.625e-08
4834.8, -3.776e-08
4836.8, -3.576e-08
4838.8, -3.87e-08
4840.8, -4.051e-08
4842.8, -3.624e-08
4844.8, -3.66e-08
4846.8, -3.706e-08
4848.8, -3.809e-08
4850.8, -3.731e-08
4852.8, -3.518e-08
4854.8, -3.319e-08
4856.9, -3.661e-08
4858.9, -3.59e-08
4860.9, -3.576e-08
4862.9, -3.373e-08
4864.9, -3.44e-08
4866.9, -3.682e-08
4868.9, -3.43e-08
4870.9, -3.427e-08
4872.9, -3.777e-08
4874.9, -3.506e-08
4876.9, -3.762e-08
4878.9, -3.58e-08
4880.9, -3.836e-08
4882.9, -3.258e-08
4884.9, -3.748e-08
4886.9, -3.397e-08
4888.9, -3.58e-08
4890.9, -3.726e-08
4892.9, -3.468e-08
4894.9, -3.795e-08
4896.9, -3.576e-08
4898.9, -3.547e-08
4900.9, -3.342e-08
4902.9, -3.286e-08
4904.9, -3.152e-08
4906.9, -3.51e-08
4908.9, -3.035e-08
4910.9, -3.196e-08
4912.9, -3.272e-08
4914.9, -2.954e-08
4916.9, -3.358e-08
4918.9, -2.997e-08
4920.9, -3.121e-08
4922.9, -3.512e-08
4924.9, -3.664e-08
4926.9, -3.378e-08
4928.9, -3.394e-08
4930.9, -3.181e-08
4932.9, -3.844e-08
4934.9, -3.618e-08
4936.9, -3.287e-08
4938.9, -3.438e-08
4940.9, -3.666e-08
4942.9, -3.669e-08
4944.9, -3.554e-08
4946.9, -3.15e-08
4948.9, -3.088e-08
4950.9, -3.24e-08
4952.9, -3.221e-08
4954.9, -3.45e-08
4957.0, -3.302e-08
4959.0, -3.53e-08
4961.0, -3.291e-08
4963.0, -3.356e-08
4965.0, -3.159e-08
4967.0, -3.02e-08
4969.0, -3.298e-08
4971.0, -3.393e-08
4973.0, -3.369e-08
4975.0, -3.105e-08
4977.0, -3.098e-08
4979.0, -3.3e-08
4981.0, -3.282e-08
4983.0, -3.196e-08
4985.0, -3.07e-08
4987.0, -3.361e-08
4989.0, -3.086e-08
4991.0, -3.169e-08
4993.0, -3.301e-08
4995.0, -3.023e-08
4997.0, -3.27e-08
4999.0, -3.349e-08
5001.0, -3.639e-08
5003.0, -3.772e-08
5005.0, -3.552e-08
5007.0, -3.376e-08
5009.0, -3.776e-08
5011.0, -3.457e-08
5013.0, -3.201e-08
5015.0, -2.919e-08
5017.0, -2.896e-08
5019.0, -3.379e-08
5021.0, -3.029e-08
5023.0, -3.081e-08
5025.0, -3.462e-08
5027.0, -3.257e-08
5029.0, -2.726e-08
5031.0, -2.942e-08
5033.0, -2.927e-08
5035.0, -2.949e-08
5037.0, -2.905e-08
5039.0, -3.071e-08
5041.0, -3.368e-08
5043.0, -3.455e-08
5045.0, -3.16e-08
5047.0, -3.506e-08
5049.0, -3.115e-08
5051.0, -3.361e-08
5053.0, -3.385e-08
5055.0, -3.081e-08
5057.1, -3.43e-08
5059.1, -3.73e-08
5061.1, -3.527e-08
5063.1, -3.48e-08
5065.1, -3.14e-08
5067.1, -3.251e-08
5069.1, -3.686e-08
5071.1, -3.654e-08
5073.1, -3.361e-08
5075.1, -3.663e-08
5077.1, -3.718e-08
5079.1, -3.389e-08
5081.1, -3.468e-08
5083.1, -3.627e-08
5085.1, -3.467e-08
5087.1, -3.242e-08
5089.1, -3.479e-08
5091.1, -3.633e-08
5093.1, -3.641e-08
5095.1, -3.57e-08
5097.1, -3.618e-08
5099.1, -3.45e-08
5101.1, -3.674e-08
5103.1, -3.729e-08
5105.1, -3.672e-08
5107.1, -3.688e-08
5109.1, -3.736e-08
5111.1, -3.701e-08
5113.1, -3.197e-08
5115.1, -3.497e-08
5117.1, -3.223e-08
5119.1, -3.368e-08
5121.1, -3.44e-08
5123.1, -3.719e-08
5125.1, -3.595e-08
5127.1, -3.267e-08
5129.1, -3.683e-08
5131.1, -3.536e-08
5133.1, -3.455e-08
5135.1, 4.7822e-07
5137.1, 8.6015e-07
5139.1, 8.518e-07
5141.1, 9.5574e-07
5143.1, 9.4707e-07
5145.1, 8.4979e-07
5147.1, 9.2327e-07
5149.1, 8.9788e-07
5151.1, 8.6284e-07
5153.1, 9.8577e-07
5155.1, 9.9124e-07
5157.2, 8.7579e-07
5159.2, 9.7741e-07
5161.2, 9.3075e-07
5163.2, 9.3228e-07
5165.2, 9.4621e-07
5167.2, 9.096e-07
5169.2, 9.9221e-07
5171.2, 9.5719e-07
5173.2, 9.6197e-07
5175.2, 9.7499e-07
5177.2, 9.3529e-07
5179.2, 9.5559e-07
5181.2, 9.0933e-07
5183.2, 9.789e-07
5185.2, 9.5586e-07
5187.2, 8.7731e-07
5189.2, 9.4406e-07
5191.2, 9.3446e-07
5193.2, 9.6595e-07
5195.2, 9.5145e-07
5197.2, 9.4743e-07
5199.2, 9.3201e-07
5201.2, 9.5874e-07
5203.2, 9.8308e-07
5205.2, 9.2803e-07
5207.2, 9.589e-07
5209.2, 9.416e-07
5211.2, 9.4462e-07
5213.2, 9.9281e-07
5215.2, 9.7315e-07
5217.2, 9.7099e-07
5219.2, 1.0047e-06
5221.2, 9.8387e-07
5223.2, 9.5886e-07
5225.2, 9.7692e-07
5227.2, 9.3242e-07
5229.2, 9.6462e-07
5231.2, 1.0162e-06
5233.2, 9.9486e-07
5235.2, 1.0232e-06
5237.2, 9.4897e-07
5239.2, 9.915e-07
5241.2, 9.1633e-07
5243.2, 1.0091e-06
5245.2, 9.4145e-07
5247.2, 1.0018e-06
5249.2, 9.868e-07
5251.2, 1.0215e-06
5253.2, 9.9697e-07
5255.2, 1.0471e-06
5257.3, 9.7522e-07
5259.3, 9.7336e-07
5261.3, 9.7075e-07
5263.3, 9.4098e-07
5265.3, 9.7198e-07
5267.3, 1.0197e-06
5269.3, 9.8401e-07
5271.3, 9.8728e-07
5273.3, 9.5375e-07
5275.3, 9.8959e-07
5277.3, 9.4999e-07
5279.3, 9.5687e-07
5281.3, 9.5707e-07
5283.3, 9.0963e-07
5285.3, 1.0241e-06
5287.3, 9.5477e-07
5289.3, 9.595e-07
5291.3, 1.0259e-06
5293.3, 9.911e-07
5295.3, 9.7131e-07
5297.3, 9.6034e-07
5299.3, 9.4404e-07
5301.3, 9.3679e-07
5303.3, 1.0185e-06
5305.3, 1.007e-06
5307.3, 9.8813e-07
5309.3, 9.5102e-07
5311.3, 9.5948e-07
5313.3, 9.2748e-07
5315.3, 9.7012e-07
5317.3, 9.823e-07
5319.3, 1.0104e-06
5321.3, 9.5101e-07
5323.3, 9.2866e-07
5325.3, 1.0217e-06
5327.3, 9.2188e-07
5329.3, 9.8225e-07
5331.3, 9.9936e-07
5333.3, 1.0368e-06
5335.3, 1.0117e-06
5337.3, 1.0501e-06
5339.3, 9.3833e-07
5341.3, 9.617e-07
5343.3, 9.3071e-07
5345.3, 1.0263e-06
5347.3, 9.3e-07
5349.3, 1.0144e-06
5351.3, 1.0089e-06
5353.3, 1.0515e-06
5355.3, 1.0148e-06
5357.4, 1.0299e-06
5359.4, 9.8469e-07
5361.4, 9.7053e-07
5363.4, 9.7109e-07
5365.4, 1.0138e-06
5367.4, 9.5387e-07
5369.4, 1.0162e-06
5371.4, 1.005e-06
5373.4, 9.6103e-07
5375.4, 9.6117e-07
5377.4, 9.3506e-07
5379.4, 1.029e-06
5381.4, 9.466e-07
5383.4, 9.749e-07
5385.4, 9.4409e-07
5387.4, 1.1106e-06
5389.4, 9.9083e-07
5391.4, 1.0267e-06
5393.4, 1.0797e-06
5395.4, 1.0142e-06
5397.4, 9.2602e-07
5399.4, 9.8396e-07
5401.4, 9.8124e-07
5403.4, 9.495e-07
5405.4, 9.9876e-07
5407.4, 9.7205e-07
5409.4, 1.0179e-06
5411.4, 9.6552e-07
5413.4, 1.0244e-06
5415.4, 1.0217e-06
5417.4, 1.0229e-06
5419.4, 9.8671e-07
5421.4, 9.6898e-07
5423.4, 1.0537e-06
5425.4, 1.0216e-06
5427.4, 9.4666e-07
5429.4, 9.6797e-07
5431.4, 9.92e-07
5433.4, 1.0335e-06
5435.4, 1.041e-06
5437.4, 1.0066e-06
5439.4, 9.7609e-07
5441.4, 1.0144e-06
5443.4, 9.6757e-07
5445.4, 1.0447e-06
5447.4, 9.9192e-07
5449.4, 9.7711e-07
5451.4, 1.0343e-06
5453.4, 1.0108e-06
5455.4, 9.8333e-07
5457.5, 9.7344e-07
5459.5, 1.017e-06
5461.5, 1.0503e-06
5463.5, 9.5757e-07
5465.5, 1.0015e-06
5467.5, 1.0315e-06
5469.5, 9.8244e-07
5471.5, 1.0473e-06
5473.5, 1.0262e-06
5475.5, 1.0185e-06
5477.5, 1.0192e-06
5479.5, 9.9553e-07
5481.5, 1.0473e-06
5483.5, 9.5865e-07
5485.5, 1.0727e-06
5487.5, 9.9989e-07
5489.5, 9.8732e-07
5491.5, 1.0418e-06
5493.5, 1.0677e-06
5495.5, 9.681e-07
5497.5, 1.0227e-06
5499.5, 9.9967e-07
5501.5, 1.0289e-06
5503.5, 1.0104e-06
5505.5, 9.8816e-07
5507.5, 1.0409e-06
5509.5, 1.017e-06
5511.5, 9.9854e-07
5513.5, 9.9716e-07
5515.5, 1.0156e-06
5517.5, 9.6731e-07
5519.5, 1.0251e-06
5521.5, 9.556e-07
5523.5, 1.0066e-06
5525.5, 1.0329e-06
5527.5, 9.9091e-07
5529.5, 1.0289e-06
5531.5, 1.017e-06
5533.5, 1.0262e-06
5535.5, 1.036e-06
5537.5, 9.6994e-07
5539.5, 1.0414e-06
5541.5, 1.0369e-06
5543.5, 1.0345e-06
5545.5, 9.4902e-07
5547.5, 1.0562e-06
5549.5, 1.0381e-06
5551.5, 9.9632e-07
5553.5, 9.6963e-07
5555.5, 9.9453e-07
5557.6, 1.0619e-06
5559.6, 1.0128e-06
5561.6, 1.0572e-06
5563.6, 9.9364e-07
5565.6, 9.7307e-07
5567.6, 1.0723e-06
5569.6, 1.0599e-06
5571.6, 1.0128e-06
5573.6, 9.6348e-07
5575.6, 9.8408e-07
5577.6, 1.0994e-06
5579.6, 9.8409e-07
5581.6, 9.4449e-07
5583.6, 1.0683e-06
5585.6, 1.0774e-06
5587.6, 1.0533e-06
5589.6, 1.0184e-06
5591.6, 9.5316e-07
5593.6, 9.9763e-07
5595.6, 1.0836e-06
5597.6, 9.8034e-07
5599.6, 1.056e-06
5601.6, 9.692e-07
5603.6, 9.4783e-07
5605.6, 9.8362e-07
5607.6, 1.0191e-06
5609.6, 9.9213e-07
5611.6, 9.5811e-07
5613.6, 1.0239e-06
5615.6, 9.8514e-07
5617.6, 9.5282e-07
5619.6, 1.0765e-06
5621.6, 1.0208e-06
5623.6, 9.9901e-07
5625.6, 1.0238e-06
5627.6, 9.6416e-07
5629.6, 1.0702e-06
5631.6, 9.8061e-07
5633.6, 1.0612e-06
5635.6, 9.9267e-07
5637.6, 1.0405e-06
5639.6, 1.0265e-06
5641.6, 1.0611e-06
5643.6, 9.3794e-07
5645.6, 1.0376e-06
5647.6, 9.761e-07
5649.6, 9.5817e-07
5651.6, 9.8885e-07
5653.6, 1.0175e-06
5655.6, 1.0254e-06
5657.7, 9.8706e-07
5659.7, 1.0441e-06
5661.7, 1.0234e-06
5663.7, 1.0054e-06
5665.7, 1.0404e-06
5667.7, 1.0676e-06
5669.7, 1.0412e-06
5671.7, 9.8829e-07
5673.7, 9.9823e-07
5675.7, 1.0095e-06
5677.7, 9.869e-07
5679.7, 1.0242e-06
5681.7, 1.0245e-06
5683.7, 1.0138e-06
5685.7, 9.8638e-07
5687.7, 9.8758e-07
5689.7, 1.0623e-06
5691.7, 9.3929e-07
5693.7, 1.032e-06
5695.7, 9.9542e-07
5697.7, 1.0304e-06
5699.7, 9.7497e-07
5701.7, 1.0049e-06
5703.7, 9.7866e-07
5705.7, 1.0151e-06
5707.7, 9.7868e-07
5709.7, 9.6523e-07
5711.7, 1.0133e-06
5713.7, 9.9334e-07
5715.7, 1.0016e-06
5717.7, 1.0472e-06
5719.7, 1.0187e-06
5721.7, 1.0054e-06
5723.7, 1.0138e-06
5725.7, 1.0432e-06
5727.7, 1.0065e-06
5729.7, 1.0062e-06
5731.7, 1.0428e-06
5733.7, 1.04e-06
5735.7, 9.6974e-07
5737.7, 1.0627e-06
5739.7, 1.0334e-06
5741.7, 1.0233e-06
5743.7, 1.0616e-06
5745.7, 1.0042e-06
5747.7, 9.6626e-07
5749.7, 1.0174e-06
5751.7, 9.7391e-07
5753.7, 1.0503e-06
5755.7, 1.0645e-06
5757.8, 1.0501e-06
5759.8, 1.0201e-06
5761.8, 9.7976e-07
5763.8, 1.0235e-06
5765.8, 1.0292e-06
5767.8, 1.0517e-06
5769.8, 1.108e-06
5771.8, 1.0127e-06
5773.8, 9.7098e-07
5775.8, 1.0835e-06
5777.8, 1.07e-06
5779.8, 9.6713e-07
5781.8, 1.0062e-06
5783.8, 1.0349e-06
5785.8, 1.0583e-06
5787.8, 9.8084e-07
5789.8, 1.0465e-06
5791.8, 1.0087e-06
5793.8, 1.0184e-06
5795.8, 1.0492e-06
5797.8, 9.7091e-07
5799.8, 1.0109e-06
5801.8, 9.9767e-07
5803.8, 9.9842e-07
5805.8, 1.0304e-06
5807.8, 1.0036e-06
5809.8, 9.8085e-07
5811.8, 1.0506e-06
5813.8, 1.0347e-06
5815.8, 1.0751e-06
5817.8, 1.0262e-06
5819.8, 1.004e-06
5821.8, 1.0499e-06
5823.8, 9.8569e-07
5825.8, 9.5349e-07
5827.8, 9.6051e-07
5829.8, 1.0643e-06
5831.8, 1.0237e-06
5833.8, 9.714e-07
5835.8, 1.0777e-06
5837.8, 1.0489e-06
5839.8, 1.0047e-06
5841.8, 1.0372e-06
5843.8, 1.0315e-06
5845.8, 1.0198e-06
5847.8, 1.0059e-06
5849.8, 1.031e-06
5851.8, 1.0203e-06
5853.8, 1.0569e-06
5855.8, 1.0068e-06
5857.9, 9.8438e-07
5859.9, 1.0299e-06
5861.9, 1.064e-06
5863.9, 9.8618e-07
5865.9, 1.0383e-06
5867.9, 9.8388e-07
5869.9, 1.0462e-06
5871.9, 9.9376e-07
5873.9, 1.0682e-06
5875.9, 1.0373e-06
5877.9, 1.0695e-06
5879.9, 1.0285e-06
5881.9, 1.1237e-06
5883.9, 1.0248e-06
5885.9, 9.5955e-07
5887.9, 1.0405e-06
5889.9, 9.9193e-07
5891.9, 9.4908e-07
5893.9, 1.0443e-06
5895.9, 9.9933e-07
5897.9, 9.7984e-07
5899.9, 1.0055e-06
5901.9, 1.0353e-06
5903.9, 1.0186e-06
5905.9, 9.4364e-07
5907.9, 1.0353e-06
5909.9, 1.0002e-06
5911.9, 9.7378e-07
5913.9, 1.0183e-06
5915.9, 9.879e-07
5917.9, 1.0848e-06
5919.9, 9.6275e-07
5921.9, 9.5924e-07
5923.9, 1.037e-06
5925.9, 1.0278e-06
5927.9, 9.9626e-07
5929.9, 1.0329e-06
5931.9, 9.9695e-07
5933.9, 1.0047e-06
5935.9, 9.959e-07
5937.9, 1.0458e-06
5939.9, 1.025e-06
5941.9, 9.7628e-07
5943.9, 1.0442e-06
5945.9, 1.059e-06
5947.9, 1.0224e-06
5949.9, 1.0774e-06
5951.9, 1.0137e-06
5953.9, 9.9255e-07
5955.9, 1.0196e-06
5958.0, 9.8909e-07
5960.0, 1.052e-06
5962.0, 1.0417e-06
5964.0, 1.0297e-06
5966.0, 9.7182e-07
5968.0, 1.0197e-06
5970.0, 1.0267e-06
5972.0, 9.2391e-07
5974.0, 1.0227e-06
5976.0, 9.5574e-07
5978.0, 1.0627e-06
5980.0, 1.0496e-06
5982.0, 9.4707e-07
5984.0, 1.014e-06
5986.0, 1.053e-06
5988.0, 1.0353e-06
5990.0, 1.0602e-06
5992.0, 1.0496e-06
5994.0, 1.021e-06
5996.0, 9.7639e-07
5998.0, 9.9445e-07
6000.0, 9.9661e-07
6002.0, 1.0436e-06
6004.0, 1.0177e-06
6006.0, 1.0717e-06
6008.0, 9.9126e-07
6010.0, 9.1735e-07
6012.0, 1.0512e-06
6014.0, 1.0065e-06
6016.0, 1.0102e-06
6018.0, 9.7546e-07
6020.0, 1.0287e-06
6022.0, 1.0852e-06
6024.0, 1.0356e-06
6026.0, 9.7234e-07
6028.0, 1.0778e-06
6030.0, 9.8381e-07
6032.0, 9.7826e-07
6034.0, 1.0114e-06
6036.0, 1.0402e-06
6038.0, 9.9927e-07
6040.0, 1.0566e-06
6042.0, 1.015e-06
6044.0, 9.7969e-07
6046.0, 1.0457e-06
6048.0, 1.0396e-06
6050.0, 1.024e-06
6052.0, 1.0605e-06
6054.0, 1.0666e-06
6056.0, 1.0279e-06
6058.1, 9.8576e-07
6060.1, 9.7706e-07
6062.1, 1.0354e-06
6064.1, 1.0009e-06
6066.1, 9.8852e-07
6068.1, 1.0766e-06
6070.1, 9.4938e-07
6072.1, 1.0403e-06
6074.1, 9.9316e-07
6076.1, 1.0436e-06
6078.1, 1.0138e-06
6080.1, 9.8785e-07
6082.1, 1.0044e-06
6084.1, 1.0487e-06
6086.1, 1.0575e-06
6088.1, 9.9879e-07
6090.1, 9.9889e-07
6092.1, 1.0242e-06
6094.1, 9.9255e-07
6096.1, 1.0672e-06
6098.1, 1.017e-06
6100.1, 1.0889e-06
6102.1, 1.0242e-06
6104.1, 1.0531e-06
6106.1, 1.0199e-06
6108.1, 9.7528e-07
6110.1, 9.7607e-07
6112.1, 1.0181e-06
6114.1, 1.0235e-06
6116.1, 1.0153e-06
6118.1, 1.0196e-06
6120.1, 1.0212e-06
6122.1, 9.7437e-07
6124.1, 1.0417e-06
6126.1, 9.512e-07
6128.1, 1.0203e-06
6130.1, 9.7048e-07
6132.1, 1.0173e-06
6134.1, 1.0286e-06
6136.1, 4.9057e-07
6138.1, -3.605e-08
6140.1, -3.602e-08
6142.1, -3.822e-08
6144.1, -3.931e-08
6146.1, -3.846e-08
6148.1, -3.732e-08
6150.1, -3.362e-08
6152.1, -3.53e-08
6154.1, -3.546e-08
6156.1, -2.862e-08
6158.2, -3.045e-08
6160.2, -3.145e-08
6162.2, -3.181e-08
6164.2, -3.45e-08
6166.2, -3.306e-08
6168.2, -3.227e-08
6170.2, -3.22e-08
6172.2, -3.61e-08
6174.2, -3.103e-08
6176.2, -3.507e-08
6178.2, -3.428e-08
6180.2, -3.286e-08
6182.2, -3.128e-08
6184.2, -3.055e-08
6186.2, -3.147e-08
6188.2, -3.444e-08
6190.2, -3.548e-08
6192.2, -3.636e-08
6194.2, -3.542e-08
6196.2, -3.323e-08
6198.2, -3.084e-08
6200.2, -3.097e-08
6202.2, -3.302e-08
6204.2, -3.392e-08
6206.2, -3.385e-08
6208.2, -3.272e-08
6210.2, -3.503e-08
6212.2, -3.589e-08
6214.2, -3.269e-08
6216.2, -3.507e-08
6218.2, -3.616e-08
6220.2, -3.491e-08
6222.2, -3.364e-08
6224.2, -3.505e-08
6226.2, -3.148e-08
6228.2, -2.867e-08
6230.2, -3.409e-08
6232.2, -3.602e-08
6234.2, -3.189e-08
6236.2, -3.138e-08
6238.2, -3.406e-08
6240.2, -3.238e-08
6242.2, -3.332e-08
6244.2, -3.625e-08
6246.2, -3.42e-08
6248.2, -3.162e-08
6250.2, -3.066e-08
6252.2, -3.132e-08
6254.2, -3.168e-08
6256.2, -3.247e-08
6258.3, -3.378e-08
6260.3, -3.65e-08
6262.3, -3.309e-08
6264.3, -3.121e-08
6266.3, -3.077e-08
6268.3, -2.892e-08
6270.3, -3.084e-08
6272.3, -3.416e-08
6274.3, -3.726e-08
6276.3, -3.395e-08
6278.3, -3.456e-08
6280.3, -3.477e-08
6282.3, -3.397e-08
6284.3, -3.371e-08
6286.3, -3.329e-08
6288.3, -3.429e-08
6290.3, -3.482e-08
6292.3, -3.582e-08
6294.3, -3.722e-08
6296.3, -3.503e-08
6298.3, -3.587e-08
6300.3, -3.321e-08
6302.3, -3.445e-08
6304.3, -3.579e-08
6306.3, -3.578e-08
6308.3, -3.619e-08
6310.3, -3.65e-08
6312.3, -3.796e-08
6314.3, -3.521e-08
6316.3, -3.425e-08
6318.3, -3.753e-08
6320.3, -3.637e-08
6322.3, -3.698e-08
6324.3, -3.323e-08
6326.3, -3.689e-08
6328.3, -3.519e-08
6330.3, -3.463e-08
6332.3, -3.534e-08
6334.3, -3.625e-08
6336.3, -3.385e-08
6338.3, -2.97e-08
6340.3, -3.225e-08
6342.3, -3.499e-08
6344.3, -3.355e-08
6346.3, -3.949e-08
6348.3, -3.65e-08
6350.3, -3.276e-08
6352.3, -3.24e-08
6354.3, -3.258e-08
6356.3, -3.493e-08
6358.4, -3.186e-08
6360.4, -3.352e-08
6362.4, -3.14e-08
6364.4, -3.444e-08
6366.4, -3.603e-08
6368.4, -3.326e-08
6370.4, -3.261e-08
6372.4, -3.72e-08
6374.4, -3.9e-08
6376.4, -3.511e-08
6378.4, -3.639e-08
6380.4, -3.61e-08
6382.4, -3.874e-08
6384.4, -4.015e-08
6386.4, -3.709e-08
6388.4, -3.44e-08
6390.4, -3.679e-08
6392.4, -3.455e-08
6394.4, -3.649e-08
6396.4, -3.221e-08
6398.4, -3.336e-08
6400.4, -3.741e-08
6402.4, -3.761e-08
6404.4, -3.585e-08
6406.4, -3.761e-08
6408.4, -3.446e-08
6410.4, -3.78e-08
6412.4, -3.494e-08
6414.4, -3.595e-08
6416.4, -3.727e-08
6418.4, -3.773e-08
6420.4, -3.725e-08
6422.4, -3.486e-08
6424.4, -3.594e-08
6426.4, -3.345e-08
6428.4, -3.678e-08
6430.4, -3.622e-08
6432.4, -3.526e-08
6434.4, -3.615e-08
6436.4, -4.017e-08
6438.4, -3.595e-08
6440.4, -3.455e-08
6442.4, -3.467e-08
6444.4, -3.693e-08
6446.4, -3.599e-08
6448.4, -3.841e-08
6450.4, -3.613e-08
6452.4, -3.529e-08
6454.4, -3.387e-08
6456.4, -3.542e-08
6458.5, -3.586e-08
6460.5, -3.658e-08
6462.5, -3.598e-08
6464.5, -3.667e-08
6466.5, -3.821e-08
6468.5, -3.789e-08
6470.5, -3.811e-08
6472.5, -3.559e-08
6474.5, -4.166e-08
6476.5, -3.542e-08
6478.5, -3.805e-08
6480.5, -3.483e-08
6482.5, -3.223e-08
6484.5, -3.337e-08
6486.5, -3.282e-08
6488.5, -3.128e-08
6490.5, -3.357e-08
6492.5, -3.265e-08
6494.5, -3.638e-08
6496.5, -3.893e-08
6498.5, -3.774e-08
6500.5, -3.697e-08
6502.5, -3.333e-08
6504.5, -3.494e-08
6506.5, -3.06e-08
6508.5, -3.36e-08
6510.5, -3.503e-08
6512.5, -3.216e-08
6514.5, -3.19e-08
6516.5, -3.292e-08
6518.5, -3.29e-08
6520.5, -3.551e-08
6522.5, -3.759e-08
6524.5, -3.588e-08
6526.5, -3.471e-08
6528.5, -3.255e-08
6530.5, -3.623e-08
6532.5, -4.053e-08
6534.5, -3.775e-08
6536.5, -3.949e-08
6538.5, -3.472e-08
6540.5, -3.763e-08
6542.5, -3.733e-08
6544.5, -3.842e-08
6546.5, -3.807e-08
6548.5, -3.435e-08
6550.5, -3.646e-08
6552.5, -3.719e-08
6554.5, -3.603e-08
6556.5, -3.603e-08
6558.6, -3.549e-08
6560.6, -3.799e-08
6562.6, -3.819e-08
6564.6, -3.748e-08
6566.6, -3.589e-08
6568.6, -3.775e-08
6570.6, -3.715e-08
6572.6, -3.528e-08
6574.6, -4.056e-08
6576.6, -3.703e-08
6578.6, -3.532e-08
6580.6, -3.445e-08
6582.6, -3.74e-08
6584.6, -3.822e-08
6586.6, -3.76e-08
6588.6, -3.702e-08
6590.6, -3.789e-08
6592.6, -4.248e-08
6594.6, -3.635e-08
6596.6, -4.039e-08
6598.6, -3.476e-08
6600.6, -3.322e-08
6602.6, -3.338e-08
6604.6, -3e-08
6606.6, -3.467e-08
6608.6, -3.459e-08
6610.6, -3.264e-08
6612.6, -3.703e-08
6614.6, -3.715e-08
6616.6, -3.732e-08
6618.6, -3.389e-08
6620.6, -3.615e-08
6622.6, -3.88e-08
6624.6, -3.944e-08
6626.6, -3.453e-08
6628.6, -3.606e-08
6630.6, -3.845e-08
6632.6, -4.086e-08
6634.6, -3.611e-08
6636.6, -3.679e-08
6638.6, -3.626e-08
6640.6, -3.562e-08
6642.6, -3.7e-08
6644.6, -4.009e-08
6646.6, -4.071e-08
6648.6, -3.671e-08
6650.6, -3.652e-08
6652.6, -3.894e-08
6654.6, -4.149e-08
6656.6, -3.741e-08
6658.7, -3.782e-08
6660.7, -4.047e-08
6662.7, -4.138e-08
6664.7, -3.942e-08
6666.7, -3.793e-08
6668.7, -3.667e-08
6670.7, -3.493e-08
6672.7, -3.735e-08
6674.7, -3.806e-08
6676.7, -3.664e-08
6678.7, -3.902e-08
6680.7, -3.581e-08
6682.7, -3.496e-08
6684.7, -3.067e-08
6686.7, -3.414e-08
6688.7, -3.292e-08
6690.7, -3.051e-08
6692.7, -3.378e-08
6694.7, -3.268e-08
6696.7, -3.331e-08
6698.7, -2.985e-08
6700.7, -3.081e-08
6702.7, -3.241e-08
6704.7, -3.251e-08
6706.7, -3.22e-08
6708.7, -3.078e-08
6710.7, -3.369e-08
6712.7, -3.212e-08
6714.7, -3.464e-08
6716.7, -3.338e-08
6718.7, -3.132e-08
6720.7, -3.538e-08
6722.7, -3.416e-08
6724.7, -3.546e-08
6726.7, -3.741e-08
6728.7, -3.527e-08
6730.7, -3.724e-08
6732.7, -3.294e-08
6734.7, -3.148e-08
6736.7, -3.157e-08
6738.7, -3.321e-08
6740.7, -3.278e-08
6742.7, -3.379e-08
6744.7, -3.4e-08
6746.7, -3.113e-08
6748.7, -3.197e-08
6750.7, -3.202e-08
6752.7, -3.426e-08
6754.7, -3.165e-08
6756.7, -3.089e-08
6758.8, -3.056e-08
6760.8, -3.532e-08
6762.8, -3.65e-08
6764.8, -3.262e-08
6766.8, -3.927e-08
6768.8, -3.794e-08
6770.8, -3.46e-08
6772.8, -3.34e-08
6774.8, -3.606e-08
6776.8, -3.314e-08
6778.8, -3.819e-08
6780.8, -3.458e-08
6782.8, -3.364e-08
6784.8, -3.423e-08
6786.8, -3.242e-08
6788.8, -3.585e-08
6790.8, -3.207e-08
6792.8, -3.233e-08
6794.8, -3.114e-08
6796.8, -3.419e-08
6798.8, -3.017e-08
6800.8, -3.232e-08
6802.8, -3.581e-08
6804.8, -3.556e-08
6806.8, -3.436e-08
6808.8, -3.205e-08
6810.8, -3.272e-08
6812.8, -3.213e-08
6814.8, -3.605e-08
6816.8, -3.44e-08
6818.8, -3.281e-08
6820.8, -3.947e-08
6822.8, -3.098e-08
6824.8, -3.216e-08
6826.8, -3.099e-08
6828.8, -3.485e-08
6830.8, -3.145e-08
6832.8, -3.404e-08
6834.8, -3.553e-08
6836.8, -3.484e-08
6838.8, -3.578e-08
6840.8, -3.523e-08
6842.8, -3.511e-08
6844.8, -3.497e-08
6846.8, -3.606e-08
6848.8, -3.479e-08
6850.8, -3.402e-08
6852.8, -3.351e-08
6854.8, -3.518e-08
6856.8, -3.619e-08
6858.9, -3.284e-08
6860.9, -2.992e-08
6862.9, -3.074e-08
6864.9, -3.03e-08
6866.9, -3.17e-08
6868.9, -3.331e-08
6870.9, -3.402e-08
6872.9, -3.368e-08
6874.9, -3.184e-08
6876.9, -3.139e-08
6878.9, -3.299e-08
6880.9, -2.878e-08
6882.9, -3.62e-08
6884.9, -3.499e-08
6886.9, -3.397e-08
6888.9, -3.043e-08
6890.9, -3.197e-08
6892.9, -3.268e-08
6894.9, -3.362e-08
6896.9, -3.31e-08
6898.9, -3.309e-08
6900.9, -3.366e-08
6902.9, -3.684e-08
6904.9, -3.326e-08
6906.9, -3.54e-08
6908.9, -3.522e-08
6910.9, -3.588e-08
6912.9, -3.498e-08
6914.9, -3.352e-08
6916.9, -3.315e-08
6918.9, -3.251e-08
6920.9, -3.041e-08
6922.9, -3.146e-08
6924.9, -2.926e-08
6926.9, -3.18e-08
6928.9, -3.028e-08
6930.9, -3.331e-08
6932.9, -3.274e-08
6934.9, -3.173e-08
6936.9, -3.366e-08
6938.9, -3.481e-08
6940.9, -3.446e-08
6942.9, -3.405e-08
6944.9, -3.387e-08
6946.9, -3.427e-08
6948.9, -3.341e-08
6950.9, -3.337e-08
6952.9, -2.873e-08
6954.9, -3.433e-08
6956.9, -2.857e-08
6959.0, -3.059e-08
6961.0, -3.261e-08
6963.0, -3.32e-08
6965.0, -3.479e-08
6967.0, -3.413e-08
6969.0, -3.154e-08
6971.0, -3.558e-08
6973.0, -3.656e-08
6975.0, -3.524e-08
6977.0, -3.764e-08
6979.0, -3.797e-08
6981.0, -3.319e-08
6983.0, -3.448e-08
6985.0, -3.577e-08
6987.0, -3.465e-08
6989.0, -3.381e-08
6991.0, -3.384e-08
6993.0, -3.282e-08
6995.0, -3.753e-08
6997.0, -3.39e-08
6999.0, -3.145e-08
7001.0, -3.415e-08
7003.0, -3.068e-08
7005.0, -3.233e-08
7007.0, -3.777e-08
7009.0, -3.282e-08
7011.0, -3.345e-08
7013.0, -3.2e-08
7015.0, -3.138e-08
7017.0, -3.338e-08
7019.0, -3.664e-08
7021.0, -3.228e-08
7023.0, -3.566e-08
7025.0, -3.251e-08
7027.0, -3.007e-08
7029.0, -3.201e-08
7031.0, -3.303e-08
7033.0, -3.277e-08
7035.0, -3.098e-08
7037.0, -3.408e-08
7039.0, -2.954e-08
7041.0, -3.467e-08
7043.0, -3.498e-08
7045.0, -3.261e-08
7047.0, -3.555e-08
7049.0, -3.397e-08
7051.0, -3.78e-08
7053.0, -3.378e-08
7055.0, -3.242e-08
7057.0, -3.031e-08
7059.1, -3.194e-08
7061.1, -3.308e-08
7063.1, -3.438e-08
7065.1, -3.422e-08
7067.1, -3.34e-08
7069.1, -3.092e-08
7071.1, -3.295e-08
7073.1, -3.056e-08
7075.1, -3.467e-08
7077.1, -3.728e-08
7079.1, -3.203e-08
7081.1, -3.058e-08
7083.1, -3.267e-08
7085.1, -3.074e-08
7087.1, -3.585e-08
7089.1, -3.123e-08
7091.1, -3.246e-08
7093.1, -3.161e-08
7095.1, -3.307e-08
7097.1, -3.138e-08
7099.1, -2.98e-08
7101.1, -2.962e-08
7103.1, -3.243e-08
7105.1, -3.14e-08
7107.1, -3.35e-08
7109.1, -3.075e-08
7111.1, -3.051e-08
7113.1, -3.288e-08
7115.1, -3.304e-08
7117.1, -3.486e-08
7119.1, -3.199e-08
7121.1, -3.288e-08
7123.1, -3.521e-08
7125.1, -3.719e-08
7127.1, -3.387e-08
7129.1, -3.088e-08
7131.1, -3.298e-08
7133.1, -3.366e-08
7135.1, -3.258e-08
7137.1, -3.092e-08
7139.1, -3.28e-08
7141.1, -3.431e-08
7143.1, -3.421e-08
7145.1, -3.528e-08
7147.1, -3.323e-08
7149.1, -3.392e-08
7151.1, -3.439e-08
7153.1, -3.543e-08
7155.1, -3.502e-08
7157.1, -3.731e-08
7159.2, -3.312e-08
7161.2, -3.094e-08
7163.2, -3.733e-08
7165.2, -3.442e-08
7167.2, -3.33e-08
7169.2, -3.811e-08
7171.2, -3.125e-08
7173.2, -3.333e-08
7175.2, -3.361e-08
7177.2, -3.411e-08
7179.2, -3.485e-08
7181.2, -3.686e-08
7183.2, -3.53e-08
7185.2, -3.578e-08
7187.2, -3.43e-08
7189.2, -3.798e-08
7191.2, -3.419e-08
7193.2, -3.651e-08
7195.2, -3.421e-08
7197.2, -3.144e-08
7199.2, 1.0491e-07
7201.2, 9.2639e-07
7203.2, 9.0958e-07
7205.2, 9.0416e-07
7207.2, 9.1065e-07
7209.2, 8.7506e-07
7211.2, 8.7712e-07
7213.2, 8.6481e-07
7215.2, 9.0413e-07
7217.2, 8.8661e-07
7219.2, 8.5946e-07
7221.2, 8.4018e-07
7223.2, 8.5404e-07
7225.2, 8.8361e-07
7227.2, 8.9148e-07
7229.2, 8.662e-07
7231.2, 8.7064e-07
7233.2, 9.1135e-07
7235.2, 9.0475e-07
7237.2, 8.9182e-07
7239.2, 8.7905e-07
7241.2, 9.4752e-07
7243.2, 8.8711e-07
7245.2, 9.3666e-07
7247.2, 9.2977e-07
7249.2, 8.9517e-07
7251.2, 8.9355e-07
7253.2, 8.9037e-07
7255.2, 8.9874e-07
7257.2, 8.9228e-07
7259.3, 9.1291e-07
7261.3, 9.1765e-07
7263.3, 9.0992e-07
7265.3, 8.6803e-07
7267.3, 8.6542e-07
7269.3, 8.9854e-07
7271.3, 9.4657e-07
7273.3, 8.8589e-07
7275.3, 9.1266e-07
7277.3, 9.2058e-07
7279.3, 8.9766e-07
7281.3, 9.0956e-07
7283.3, 8.9787e-07
7285.3, 9.0831e-07
7287.3, 9.1169e-07
7289.3, 9.2059e-07
7291.3, 9.1131e-07
7293.3, 9.3111e-07
7295.3, 9.0755e-07
7297.3, 9.3944e-07
7299.3, 8.6032e-07
7301.3, 9.4382e-07
7303.3, 9.6156e-07
7305.3, 8.9653e-07
7307.3, 9.2811e-07
7309.3, 9.0269e-07
7311.3, 9.0268e-07
7313.3, 9.3957e-07
7315.3, 8.9443e-07
7317.3, 8.6277e-07
7319.3, 9.0095e-07
7321.3, 9.4548e-07
7323.3, 9.5099e-07
7325.3, 9.43e-07
7327.3, 9.6078e-07
7329.3, 9.3725e-07
7331.3, 9.2486e-07
7333.3, 9.472e-07
7335.3, 9.5745e-07
7337.3, 9.319e-07
7339.3, 9.3777e-07
7341.3, 9.317e-07
7343.3, 9.7443e-07
7345.3, 9.6806e-07
7347.3, 9.2256e-07
7349.3, 8.9958e-07
7351.3, 9.1331e-07
7353.3, 8.9063e-07
7355.3, 9.4746e-07
7357.3, 9.2566e-07
7359.4, 9.3737e-07
7361.4, 9.4373e-07
7363.4, 8.6085e-07
7365.4, 8.7097e-07
7367.4, 9.2308e-07
7369.4, 9.1586e-07
7371.4, 9.453e-07
7373.4, 9.4374e-07
7375.4, 9.662e-07
7377.4, 9.7801e-07
7379.4, 9.5153e-07
7381.4, 9.3539e-07
7383.4, 9.4658e-07
7385.4, 9.5369e-07
7387.4, 9.6005e-07
7389.4, 9.751e-07
7391.4, 9.4748e-07
7393.4, 9.9007e-07
7395.4, 8.9289e-07
7397.4, 9.1832e-07
7399.4, 9.3045e-07
7401.4, 9.5111e-07
7403.4, 9.8328e-07
7405.4, 9.3731e-07
7407.4, 9.2661e-07
7409.4, 9.9206e-07
7411.4, 9.7432e-07
7413.4, 9.3754e-07
7415.4, 9.7652e-07
7417.4, 9.5169e-07
7419.4, 9.4079e-07
7421.4, 9.2575e-07
7423.4, 9.2739e-07
7425.4, 9.8826e-07
7427.4, 9.66e-07
7429.4, 9.6605e-07
7431.4, 9.3865e-07
7433.4, 9.1245e-07
7435.4, 9.831e-07
7437.4, 9.6497e-07
7439.4, 9.9042e-07
7441.4, 9.1922e-07
7443.4, 9.404e-07
7445.4, 9.2396e-07
7447.4, 9.4632e-07
7449.4, 9.3638e-07
7451.4, 9.6803e-07
7453.4, 9.0765e-07
7455.4, 9.1763e-07
7457.4, 9.3042e-07
7459.5, 9.7726e-07
7461.5, 9.342e-07
7463.5, 9.4709e-07
7465.5, 9.6491e-07
7467.5, 9.7929e-07
7469.5, 1.0019e-06
7471.5, 9.8169e-07
7473.5, 9.9241e-07
7475.5, 9.9e-07
7477.5, 9.8932e-07
7479.5, 9.5943e-07
7481.5, 9.3117e-07
7483.5, 9.1908e-07
7485.5, 9.2904e-07
7487.5, 9.7056e-07
7489.5, 9.5743e-07
7491.5, 9.6012e-07
7493.5, 9.4719e-07
7495.5, 9.5019e-07
7497.5, 9.819e-07
7499.5, 9.5151e-07
7501.5, 9.8369e-07
7503.5, 9.7638e-07
7505.5, 9.6865e-07
7507.5, 9.7979e-07
7509.5, 1.0029e-06
7511.5, 1.0026e-06
7513.5, 9.6705e-07
7515.5, 9.4457e-07
7517.5, 9.8934e-07
7519.5, 9.3803e-07
7521.5, 1.0262e-06
7523.5, 9.8255e-07
7525.5, 9.2117e-07
7527.5, 9.6955e-07
7529.5, 9.4286e-07
7531.5, 9.963e-07
7533.5, 9.6783e-07
7535.5, 9.6513e-07
7537.5, 9.3901e-07
7539.5, 9.914e-07
7541.5, 9.4232e-07
7543.5, 9.4614e-07
7545.5, 9.9623e-07
7547.5, 9.9511e-07
7549.5, 9.9054e-07
7551.5, 9.8403e-07
7553.5, 1.0151e-06
7555.5, 9.8439e-07
7557.5, 9.6878e-07
7559.6, 9.944e-07
7561.6, 9.2984e-07
7563.6, 9.5755e-07
7565.6, 9.2328e-07
7567.6, 9.5142e-07
7569.6, 9.2994e-07
7571.6, 9.5126e-07
7573.6, 9.731e-07
7575.6, 9.5271e-07
7577.6, 9.8817e-07
7579.6, 9.3069e-07
7581.6, 9.7216e-07
7583.6, 1.0054e-06
7585.6, 9.86e-07
7587.6, 8.8582e-07
7589.6, 9.5317e-07
7591.6, 9.7968e-07
7593.6, 9.7319e-07
7595.6, 9.8359e-07
7597.6, 9.3963e-07
7599.6, 9.8986e-07
7601.6, 9.8596e-07
7603.6, 1.0112e-06
7605.6, 9.9422e-07
7607.6, 9.5417e-07
7609.6, 9.6997e-07
7611.6, 9.8471e-07
7613.6, 9.6389e-07
7615.6, 9.2097e-07
7617.6, 9.9365e-07
7619.6, 9.5305e-07
7621.6, 9.5801e-07
7623.6, 9.4225e-07
7625.6, 9.0566e-07
7627.6, 9.5242e-07
7629.6, 1.0042e-06
7631.6, 9.808e-07
7633.6, 9.7665e-07
7635.6, 9.6086e-07
7637.6, 9.9788e-07
7639.6, 1.0077e-06
7641.6, 9.4981e-07
7643.6, 9.4995e-07
7645.6, 9.6068e-07
7647.6, 1.0096e-06
7649.6, 9.6494e-07
7651.6, 9.8508e-07
7653.6, 9.6229e-07
7655.6, 9.4364e-07
7657.6, 9.7082e-07
7659.7, 9.7788e-07
7661.7, 9.2559e-07
7663.7, 9.9079e-07
7665.7, 1.0624e-06
7667.7, 9.4296e-07
7669.7, 9.9908e-07
7671.7, 9.9818e-07
7673.7, 9.7105e-07
7675.7, 9.3728e-07
7677.7, 9.2449e-07
7679.7, 9.4114e-07
7681.7, 9.7524e-07
7683.7, 9.7768e-07
7685.7, 9.7248e-07
7687.7, 9.434e-07
7689.7, 9.7688e-07
7691.7, 9.5961e-07
7693.7, 1.0124e-06
7695.7, 1.005e-06
7697.7, 9.4596e-07
7699.7, 9.3384e-07
7701.7, 9.5622e-07
7703.7, 1.0139e-06
7705.7, 9.8234e-07
7707.7, 9.4417e-07
7709.7, 9.7666e-07
7711.7, 9.8175e-07
7713.7, 9.973e-07
7715.7, 1.0015e-06
7717.7, 9.994e-07
7719.7, 1.0147e-06
7721.7, 9.531e-07
7723.7, 9.505e-07
7725.7, 9.6029e-07
7727.7, 1.0524e-06
7729.7, 1.0408e-06
7731.7, 9.8222e-07
7733.7, 1.06e-06
7735.7, 9.4633e-07
7737.7, 9.5723e-07
7739.7, 1.006e-06
7741.7, 9.5993e-07
7743.7, 9.7766e-07
7745.7, 9.9739e-07
7747.7, 9.972e-07
7749.7, 9.7565e-07
7751.7, 1.0377e-06
7753.7, 9.9436e-07
7755.7, 9.9993e-07
7757.7, 9.4821e-07
7759.8, 9.7928e-07
7761.8, 9.4312e-07
7763.8, 9.7203e-07
7765.8, 9.9518e-07
7767.8, 9.8989e-07
7769.8, 9.4204e-07
7771.8, 9.5323e-07
7773.8, 9.55e-07
7775.8, 9.355e-07
7777.8, 9.5131e-07
7779.8, 9.6883e-07
7781.8, 9.6249e-07
7783.8, 1.0357e-06
7785.8, 9.5943e-07
7787.8, 1.0173e-06
7789.8, 9.4857e-07
7791.8, 1.031e-06
7793.8, 1.0145e-06
7795.8, 9.5511e-07
7797.8, 9.565e-07
7799.8, 9.8521e-07
7801.8, 1.0477e-06
7803.8, 1.0066e-06
7805.8, 1.0087e-06
7807.8, 1.0268e-06
7809.8, 9.9736e-07
7811.8, 9.514e-07
7813.8, 9.4302e-07
7815.8, 9.8672e-07
7817.8, 9.8129e-07
7819.8, 9.4702e-07
7821.8, 9.6945e-07
7823.8, 9.5437e-07
7825.8, 1.0032e-06
7827.8, 9.5827e-07
7829.8, 9.6829e-07
7831.8, 1.0671e-06
7833.8, 9.6308e-07
7835.8, 9.6982e-07
7837.8, 9.7394e-07
7839.8, 1.0102e-06
7841.8, 9.951e-07
7843.8, 1.0044e-06
7845.8, 1.0549e-06
7847.8, 1.0343e-06
7849.8, 9.8334e-07
7851.8, 9.5961e-07
7853.8, 9.8986e-07
7855.8, 9.6331e-07
7857.8, 9.6432e-07
7859.9, 9.9072e-07
7861.9, 9.6708e-07
7863.9, 1.0113e-06
7865.9, 9.6962e-07
7867.9, 1.0048e-06
7869.9, 9.9563e-07
7871.9, 9.7456e-07
7873.9, 9.9062e-07
7875.9, 1.0053e-06
7877.9, 9.9687e-07
7879.9, 9.8637e-07
7881.9, 9.7761e-07
7883.9, 1.0112e-06
7885.9, 9.5326e-07
7887.9, 1.0078e-06
7889.9, 1.0407e-06
7891.9, 1.0087e-06
7893.9, 1.0206e-06
7895.9, 9.3911e-07
7897.9, 9.8978e-07
7899.9, 1.0366e-06
7901.9, 1.0026e-06
7903.9, 1.0046e-06
7905.9, 9.4506e-07
7907.9, 9.658e-07
7909.9, 9.4728e-07
7911.9, 9.6759e-07
7913.9, 9.9173e-07
7915.9, 9.7194e-07
7917.9, 1.011e-06
7919.9, 1.0763e-06
7921.9, 9.9025e-07
7923.9, 1.0092e-06
7925.9, 9.8691e-07
7927.9, 9.9614e-07
7929.9, 9.7103e-07
7931.9, 9.672e-07
7933.9, 9.6478e-07
7935.9, 9.6926e-07
7937.9, 9.1097e-07
7939.9, 1.008e-06
7941.9, 9.4203e-07
7943.9, 1.0086e-06
7945.9, 9.8356e-07
7947.9, 9.3429e-07
7949.9, 9.6249e-07
7951.9, 1.0128e-06
7953.9, 9.7457e-07
7955.9, 9.5317e-07
7957.9, 9.8065e-07
7960.0, 1.0124e-06
7962.0, 1.005e-06
7964.0, 9.8851e-07
7966.0, 1.0184e-06
7968.0, 9.7075e-07
7970.0, 1.0083e-06
7972.0, 1.0459e-06
7974.0, 1.0024e-06
7976.0, 9.975e-07
7978.0, 9.7199e-07
7980.0, 1.0231e-06
7982.0, 1.0385e-06
7984.0, 9.5693e-07
7986.0, 1.0016e-06
7988.0, 9.2985e-07
7990.0, 9.4195e-07
7992.0, 9.8098e-07
7994.0, 9.702e-07
7996.0, 9.8503e-07
7998.0, 9.4931e-07
8000.0, 9.5837e-07
8002.0, 1.0469e-06
8004.0, 9.8836e-07
8006.0, 1.0439e-06
8008.0, 1.0276e-06
8010.0, 9.4e-07
8012.0, 9.7039e-07
8014.0, 9.8927e-07
8016.0, 9.4477e-07
8018.0, 9.9661e-07
8020.0, 1.0272e-06
8022.0, 1.0105e-06
8024.0, 1.0344e-06
8026.0, 9.9632e-07
8028.0, 1.0247e-06
8030.0, 9.6848e-07
8032.0, 1.0117e-06
8034.0, 1.0157e-06
8036.0, 9.6477e-07
8038.0, 9.5802e-07
8040.0, 9.8577e-07
8042.0, 9.9147e-07
8044.0, 1.0396e-06
8046.0, 1.0124e-06
8048.0, 9.8187e-07
8050.0, 9.7398e-07
8052.0, 1.0256e-06
8054.0, 1.0171e-06
8056.0, 1.0091e-06
8058.0, 1.0185e-06
8060.1, 1.0663e-06
8062.1, 9.8211e-07
8064.1, 1.062e-06
8066.1, 1.0538e-06
8068.1, 1.0518e-06
8070.1, 1.0229e-06
8072.1, 1.0096e-06
8074.1, 9.751e-07
8076.1, 1.0088e-06
8078.1, 1.002e-06
8080.1, 1.0482e-06
8082.1, 9.8967e-07
8084.1, 1.0157e-06
8086.1, 9.58e-07
8088.1, 1.0442e-06
8090.1, 1.0235e-06
8092.1, 1.0263e-06
8094.1, 9.9784e-07
8096.1, 1.0088e-06
8098.1, 9.6393e-07
8100.1, 1.0503e-06
8102.1, 9.6335e-07
8104.1, 1.0023e-06
8106.1, 9.2026e-07
8108.1, 9.7248e-07
8110.1, 9.7027e-07
8112.1, 9.8578e-07
8114.1, 9.9681e-07
8116.1, 9.6511e-07
8118.1, 9.945e-07
8120.1, 9.8656e-07
8122.1, 1.0053e-06
8124.1, 9.6491e-07
8126.1, 9.8336e-07
8128.1, 9.5902e-07
8130.1, 1.0519e-06
8132.1, 1.0158e-06
8134.1, 9.6767e-07
8136.1, 9.6347e-07
8138.1, 9.8488e-07
8140.1, 9.9691e-07
8142.1, 1.054e-06
8144.1, 9.755e-07
8146.1, 1.0506e-06
8148.1, 9.9687e-07
8150.1, 9.7745e-07
8152.1, 9.5449e-07
8154.1, 1.0047e-06
8156.1, 9.5623e-07
8158.1, 9.5346e-07
8160.2, 1.0132e-06
8162.2, 9.8509e-07
8164.2, 1.0121e-06
8166.2, 9.5483e-07
8168.2, 9.8034e-07
8170.2, 9.6271e-07
8172.2, 9.9131e-07
8174.2, 9.7317e-07
8176.2, 9.906e-07
8178.2, 9.758e-07
8180.2, 9.797e-07
8182.2, 1.007e-06
8184.2, 9.9818e-07
8186.2, 9.933e-07
8188.2, 9.7082e-07
8190.2, 9.6655e-07
8192.2, 9.9256e-07
8194.2, 9.9809e-07
8196.2, 9.8912e-07
8198.2, 1.0323e-06
8200.2, 5.8544e-07
8202.2, -3.296e-08
8204.2, -3.712e-08
8206.2, -3.511e-08
8208.2, -3.645e-08
8210.2, -3.635e-08
8212.2, -3.047e-08
8214.2, -3.164e-08
8216.2, -3.44e-08
8218.2, -3.409e-08
8220.2, -3.174e-08
8222.2, -3.211e-08
8224.2, -3.113e-08
8226.2, -3.546e-08
8228.2, -3.244e-08
8230.2, -3.487e-08
8232.2, -3.184e-08
8234.2, -3.129e-08
8236.2, -3.41e-08
8238.2, -3.287e-08
8240.2, -3.2e-08
8242.2, -3.658e-08
8244.2, -3.529e-08
8246.2, -3.788e-08
8248.2, -3.532e-08
8250.2, -3.364e-08
8252.2, -3.573e-08
8254.2, -3.562e-08
8256.2, -3.587e-08
8258.2, -3.321e-08
8260.3, -3.499e-08
8262.3, -3.132e-08
8264.3, -2.971e-08
8266.3, -3.234e-08
8268.3, -3.37e-08
8270.3, -3.44e-08
8272.3, -3.175e-08
8274.3, -3.242e-08
8276.3, -3.69e-08
8278.3, -3.326e-08
8280.3, -3.174e-08
8282.3, -3.35e-08
8284.3, -3.274e-08
8286.3, -3.579e-08
8288.3, -3.272e-08
8290.3, -3.166e-08
8292.3, -3.488e-08
8294.3, -3.755e-08
8296.3, -3.276e-08
8298.3, -3.47e-08
8300.3, -3.653e-08
8302.3, -3.724e-08
8304.3, -3.651e-08
8306.3, -3.562e-08
8308.3, -3.646e-08
8310.3, -3.351e-08
8312.3, -3.496e-08
8314.3, -3.324e-08
8316.3, -3.103e-08
8318.3, -3.456e-08
8320.3, -3.517e-08
8322.3, -3.072e-08
8324.3, -3.386e-08
8326.3, -3.504e-08
8328.3, -3.383e-08
8330.3, -3.643e-08
8332.3, -3.437e-08
8334.3, -3.388e-08
8336.3, -3.512e-08
8338.3, -3.493e-08
8340.3, -3.237e-08
8342.3, -3.494e-08
8344.3, -3.194e-08
8346.3, -3.441e-08
8348.3, -3.268e-08
8350.3, -3.115e-08
8352.3, -3.333e-08
8354.3, -3.127e-08
8356.3, -3.303e-08
8358.3, -3.144e-08
8360.4, -3.425e-08
8362.4, -3.341e-08
8364.4, -3.212e-08
8366.4, -3.459e-08
8368.4, -3.702e-08
8370.4, -3.547e-08
8372.4, -3.687e-08
8374.4, -3.852e-08
8376.4, -3.759e-08
8378.4, -3.369e-08
8380.4, -3.669e-08
8382.4, -3.401e-08
8384.4, -3.488e-08
8386.4, -3.581e-08
8388.4, -3.564e-08
8390.4, -3.595e-08
8392.4, -3.188e-08
8394.4, -3.437e-08
8396.4, -3.647e-08
8398.4, -3.393e-08
8400.4, -3.374e-08
8402.4, -3.695e-08
8404.4, -3.273e-08
8406.4, -3.54e-08
8408.4, -3.639e-08
8410.4, -3.571e-08
8412.4, -3.119e-08
8414.4, -2.981e-08
8416.4, -3.356e-08
8418.4, -2.852e-08
8420.4, -3.109e-08
8422.4, -2.69e-08
8424.4, -3.305e-08
8426.4, -3e-08
8428.4, -2.934e-08
8430.4, -3.043e-08
8432.4, -2.979e-08
8434.4, -2.984e-08
8436.4, -2.875e-08
8438.4, -3.067e-08
8440.4, -3.198e-08
8442.4, -3.063e-08
8444.4, -3.057e-08
8446.4, -3.223e-08
8448.4, -2.895e-08
8450.4, -2.869e-08
8452.4, -2.866e-08
8454.4, -2.678e-08
8456.4, -2.624e-08
8458.4, -2.947e-08
8460.5, -2.698e-08
8462.5, -3.2e-08
8464.5, -2.976e-08
8466.5, -2.939e-08
8468.5, -3.022e-08
8470.5, -3.158e-08
8472.5, -3.074e-08
8474.5, -2.767e-08
8476.5, -2.682e-08
8478.5, -2.614e-08
8480.5, -3.098e-08
8482.5, -3.372e-08
8484.5, -3.255e-08
8486.5, -3.208e-08
8488.5, -3.28e-08
8490.5, -3.224e-08
8492.5, -3.136e-08
8494.5, -3.361e-08
8496.5, -2.77e-08
8498.5, -2.981e-08
8500.5, -3.124e-08
8502.5, -2.955e-08
8504.5, -3.09e-08
8506.5, -3.13e-08
8508.5, -3.145e-08
8510.5, -3.284e-08
8512.5, -2.922e-08
8514.5, -2.874e-08
8516.5, -3.43e-08
8518.5, -3.119e-08
8520.5, -3.205e-08
8522.5, -3.097e-08
8524.5, -3.398e-08
8526.5, -3.208e-08
8528.5, -3.27e-08
8530.5, -2.827e-08
8532.5, -2.727e-08
8534.5, -2.827e-08
8536.5, -3.179e-08
8538.5, -2.669e-08
8540.5, -2.669e-08
8542.5, -2.805e-08
8544.5, -2.64e-08
8546.5, -2.946e-08
8548.5, -2.83e-08
8550.5, -2.644e-08
8552.5, -2.878e-08
8554.5, -3.191e-08
8556.5, -3.263e-08
8558.5, -3.275e-08
8560.6, -3.217e-08
8562.6, -3.119e-08
8564.6, -3.297e-08
8566.6, -3.285e-08
8568.6, -2.758e-08
8570.6, -2.901e-08
8572.6, -3.194e-08
8574.6, -3.096e-08
8576.6, -3.247e-08
8578.6, -2.892e-08
8580.6, -3.026e-08
8582.6, -2.83e-08
8584.6, -3.376e-08
8586.6, -3.453e-08
8588.6, -3.167e-08
8590.6, -3.296e-08
8592.6, -3.24e-08
8594.6, -2.992e-08
8596.6, -3.417e-08
8598.6, -3.463e-08
8600.6, -3.277e-08
8602.6, -2.76e-08
8604.6, -3.179e-08
8606.6, -3.569e-08
8608.6, -2.921e-08
8610.6, -2.954e-08
8612.6, -3.189e-08
8614.6, -3.124e-08
8616.6, -3.091e-08
8618.6, -3.394e-08
8620.6, -2.845e-08
8622.6, -3.333e-08
8624.6, -3.641e-08
8626.6, -3.547e-08
8628.6, -3.371e-08
8630.6, -3.37e-08
8632.6, -3.109e-08
8634.6, -3.491e-08
8636.6, -3.578e-08
8638.6, -3.429e-08
8640.6, -3.076e-08
8642.6, -3.405e-08
8644.6, -3.132e-08
8646.6, -3.008e-08
8648.6, -3.203e-08
8650.6, -3.406e-08
8652.6, -3.21e-08
8654.6, -2.882e-08
8656.6, -3.241e-08
8658.6, -3.073e-08
8660.7, -3.149e-08
8662.7, -2.915e-08
8664.7, -3.136e-08
8666.7, -2.844e-08
8668.7, -3.212e-08
8670.7, -3.137e-08
8672.7, -3.129e-08
8674.7, -3.378e-08
8676.7, -3.272e-08
8678.7, -3.083e-08
8680.7, -3.184e-08
8682.7, -3.226e-08
8684.7, -3.086e-08
8686.7, -3.107e-08
8688.7, -3.145e-08
8690.7, -3.302e-08
8692.7, -3.198e-08
8694.7, -3.047e-08
8696.7, -2.882e-08
8698.7, -3.118e-08
8700.7, -2.979e-08
8702.7, -3.089e-08
8704.7, -3.098e-08
8706.7, -3.052e-08
8708.7, -3.576e-08
8710.7, -3.252e-08
8712.7, -3.229e-08
8714.7, -3.225e-08
8716.7, -3.561e-08
8718.7, -3.266e-08
8720.7, -3.031e-08
8722.7, -3.368e-08
8724.7, -3.609e-08
8726.7, -3.317e-08
8728.7, -3.284e-08
8730.7, -3.144e-08
8732.7, -3.463e-08
8734.7, -3.011e-08
8736.7, -3.152e-08
8738.7, -3.184e-08
8740.7, -2.975e-08
8742.7, -3.346e-08
8744.7, -2.981e-08
8746.7, -3.388e-08
8748.7, -3.246e-08
8750.7, -3.202e-08
8752.7, -3.138e-08
8754.7, -2.877e-08
8756.7, -3.198e-08
8758.7, -2.945e-08
8760.8, -2.951e-08
8762.8, -3.176e-08
8764.8, -3.397e-08
8766.8, -3.171e-08
8768.8, -3.361e-08
8770.8, -3.198e-08
8772.8, -3.247e-08
8774.8, -3.223e-08
8776.8, -3.163e-08
8778.8, -2.896e-08
8780.8, -3.429e-08
8782.8, -3.302e-08
8784.8, -3.325e-08
8786.8, -3.282e-08
8788.8, -3.485e-08
8790.8, -3.587e-08
8792.8, -3.394e-08
8794.8, -3.498e-08
8796.8, -3.126e-08
8798.8, -3.022e-08
8800.8, -2.953e-08
8802.8, -2.987e-08
8804.8, -3.169e-08
8806.8, -3.028e-08
8808.8, -3.031e-08
8810.8, -3.137e-08
8812.8, -3.357e-08
8814.8, -3.281e-08
8816.8, -3.486e-08
8818.8, -3.322e-08
8820.8, -2.977e-08
8822.8, -3.259e-08
8824.8, -3.08e-08
8826.8, -3.212e-08
8828.8, -3.39e-08
8830.8, -2.904e-08
8832.8, -3.035e-08
8834.8, -3.123e-08
8836.8, -2.777e-08
8838.8, -3.177e-08
8840.8, -2.837e-08
8842.8, -2.994e-08
8844.8, -2.931e-08
8846.8, -3.081e-08
8848.8, -2.938e-08
8850.8, -2.87e-08
8852.8, -2.649e-08
8854.8, -2.744e-08
8856.8, -2.911e-08
8858.8, -2.843e-08
8860.9, -3.317e-08
8862.9, -3.429e-08
8864.9, -3.31e-08
8866.9, -3.428e-08
8868.9, -3.201e-08
8870.9, -3.436e-08
8872.9, -2.93e-08
8874.9, -3.22e-08
8876.9, -3.261e-08
8878.9, -2.913e-08
8880.9, -2.936e-08
8882.9, -3.178e-08
8884.9, -3.084e-08
8886.9, -3.204e-08
8888.9, -3.197e-08
8890.9, -3.432e-08
8892.9, -3.189e-08
8894.9, -3.289e-08
8896.9, -3.131e-08
8898.9, -3.23e-08
8900.9, -3.225e-08
8902.9, -3.15e-08
8904.9, -2.968e-08
8906.9, -3.147e-08
8908.9, -3.274e-08
8910.9, -3.303e-08
8912.9, -3.331e-08
8914.9, -3.318e-08
8916.9, -3.59e-08
8918.9, -3.374e-08
8920.9, -3.773e-08
8922.9, -3.625e-08
8924.9, -3.276e-08
8926.9, -3.242e-08
8928.9, -3.651e-08
8930.9, -3.579e-08
8932.9, -3.499e-08
8934.9, -3.723e-08
8936.9, -3.786e-08
8938.9, -3.636e-08
8940.9, -3.499e-08
8942.9, -3.272e-08
8944.9, -3.496e-08
8946.9, -2.955e-08
8948.9, -3.245e-08
8950.9, -3.03e-08
8952.9, -3.182e-08
8954.9, -3.382e-08
8956.9, -3.274e-08
8958.9, -3.495e-08
8961.0, -3.478e-08
8963.0, -3.305e-08
8965.0, -3.336e-08
8967.0, -3.092e-08
8969.0, -3.449e-08
8971.0, -3.55e-08
8973.0, -3.329e-08
8975.0, -3.413e-08
8977.0, -3.162e-08
8979.0, -3.273e-08
8981.0, -3.099e-08
8983.0, -3.172e-08
8985.0, -3.457e-08
8987.0, -3.364e-08
8989.0, -3.26e-08
8991.0, -3.228e-08
8993.0, -3.5e-08
8995.0, -3.113e-08
8997.0, -3.661e-08
8999.0, -2.967e-08
9001.0, -2.93e-08
9003.0, -2.916e-08
9005.0, -2.973e-08
9007.0, -3.263e-08
9009.0, -3.343e-08
9011.0, -3.178e-08
9013.0, -3.55e-08
9015.0, -3.48e-08
9017.0, -3.766e-08
9019.0, -3.582e-08
9021.0, -3.682e-08
9023.0, -3.287e-08
9025.0, -3.544e-08
9027.0, -3.446e-08
9029.0, -3.249e-08
9031.0, -3.083e-08
9033.0, -3.473e-08
9035.0, -3.127e-08
9037.0, -3.243e-08
9039.0, -3.586e-08
9041.0, -3.276e-08
9043.0, -3.173e-08
9045.0, -3.256e-08
9047.0, -3.52e-08
9049.0, -3.657e-08
9051.0, -3.226e-08
9053.0, -3.236e-08
9055.0, -3.357e-08
9057.0, -3.506e-08
9059.0, -3.199e-08
9061.1, -2.97e-08
9063.1, -2.92e-08
9065.1, -3.023e-08
9067.1, -3.116e-08
9069.1, -3.109e-08
9071.1, -3.401e-08
9073.1, -3.383e-08
9075.1, -3.522e-08
9077.1, -3.389e-08
9079.1, -3.719e-08
9081.1, -3.654e-08
9083.1, -3.497e-08
9085.1, -3.407e-08
9087.1, -3.464e-08
9089.1, -3.42e-08
9091.1, -3.608e-08
9093.1, -3.742e-08
9095.1, -3.413e-08
9097.1, -3.554e-08
9099.1, -3.268e-08
9101.1, -3.537e-08
9103.1, -3.218e-08
9105.1, -3.397e-08
9107.1, -3.517e-08
9109.1, -3.828e-08
9111.1, -3.393e-08
9113.1, -3.515e-08
9115.1, -3.683e-08
9117.1, -3.84e-08
9119.1, -3.772e-08
9121.1, -3.508e-08
9123.1, -3.663e-08
9125.1, -3.731e-08
9127.1, -3.746e-08
9129.1, -3.342e-08
9131.1, -3.608e-08
9133.1, -3.466e-08
9135.1, -3.477e-08
9137.1, -3.436e-08
9139.1, -3.654e-08
9141.1, -3.866e-08
9143.1, -3.618e-08
9145.1, -3.733e-08
9147.1, -3.719e-08
9149.1, -3.687e-08
9151.1, -3.245e-08
9153.1, -3.889e-08
9155.1, -3.727e-08
9157.1, -3.557e-08
9159.1, -3.404e-08
9161.2, -3.399e-08
9163.2, -3.486e-08
9165.2, -3.553e-08
9167.2, -3.769e-08
9169.2, -3.808e-08
9171.2, -3.466e-08
9173.2, -3.777e-08
9175.2, -3.745e-08
9177.2, -3.479e-08
9179.2, -3.769e-08
9181.2, -3.429e-08
9183.2, -3.595e-08
9185.2, -3.366e-08
9187.2, -3.558e-08
9189.2, -3.481e-08
9191.2, -3.918e-08
9193.2, -3.56e-08
9195.2, -3.268e-08
9197.2, -3.501e-08
9199.2, -3.367e-08
9201.2, -3.754e-08
9203.2, -3.316e-08
9205.2, -3.187e-08
9207.2, -3.363e-08
9209.2, -3.622e-08
9211.2, -3.397e-08
9213.2, -3.368e-08
9215.2, -3.696e-08
9217.2, -3.568e-08
9219.2, -3.435e-08
9221.2, -3.8e-08
9223.2, -4.029e-08
9225.2, -3.577e-08
9227.2, -3.634e-08
9229.2, -3.675e-08
9231.2, 9.6147e-07
9233.2, 8.5035e-07
9235.2, 9.4471e-07
9237.2, 9.2672e-07
9239.2, 9.6385e-07
9241.2, 9.3189e-07
9243.2, 9.6237e-07
9245.2, 9.0718e-07
9247.2, 9.3131e-07
9249.2, 9.2442e-07
9251.2, 8.5998e-07
9253.2, 9.113e-07
9255.2, 9.5655e-07
9257.2, 8.6752e-07
9259.2, 9.505e-07
9261.3, 9.5193e-07
9263.3, 8.992e-07
9265.3, 8.8061e-07
9267.3, 9.0509e-07
9269.3, 8.9659e-07
9271.3, 9.1689e-07
9273.3, 9.158e-07
9275.3, 8.9251e-07
9277.3, 9.23e-07
9279.3, 8.9115e-07
9281.3, 9.1988e-07
9283.3, 9.4996e-07
9285.3, 9.4691e-07
9287.3, 9.7947e-07
9289.3, 8.6064e-07
9291.3, 9.3109e-07
9293.3, 9.6026e-07
9295.3, 9.2228e-07
9297.3, 9.156e-07
9299.3, 9.4721e-07
9301.3, 1.0279e-06
9303.3, 9.9007e-07
9305.3, 9.8082e-07
9307.3, 9.1072e-07
9309.3, 9.4733e-07
9311.3, 9.6642e-07
9313.3, 9.1755e-07
9315.3, 9.1163e-07
9317.3, 9.7708e-07
9319.3, 9.3805e-07
9321.3, 9.6336e-07
9323.3, 8.7919e-07
9325.3, 9.7717e-07
9327.3, 9.5483e-07
9329.3, 9.675e-07
9331.3, 9.2696e-07
9333.3, 9.6391e-07
9335.3, 9.2786e-07
9337.3, 9.9876e-07
9339.3, 9.5246e-07
9341.3, 9.5777e-07
9343.3, 9.34e-07
9345.3, 9.931e-07
9347.3, 9.637e-07
9349.3, 9.8344e-07
9351.3, 1.006e-06
9353.3, 9.3366e-07
9355.3, 9.2896e-07
9357.3, 9.6398e-07
9359.3, 1.0144e-06
9361.4, 9.1356e-07
9363.4, 9.8373e-07
9365.4, 9.438e-07
9367.4, 1.0225e-06
9369.4, 9.8935e-07
9371.4, 9.6573e-07
9373.4, 9.1204e-07
9375.4, 9.6835e-07
9377.4, 9.7052e-07
9379.4, 1.0074e-06
9381.4, 9.4237e-07
9383.4, 9.1287e-07
9385.4, 1.0059e-06
9387.4, 9.3851e-07
9389.4, 9.8998e-07
9391.4, 9.2599e-07
9393.4, 1.0189e-06
9395.4, 9.6688e-07
9397.4, 1.0145e-06
9399.4, 9.8383e-07
9401.4, 9.7256e-07
9403.4, 1.009e-06
9405.4, 9.968e-07
9407.4, 9.9116e-07
9409.4, 9.6531e-07
9411.4, 9.815e-07
9413.4, 9.9379e-07
9415.4, 1.0224e-06
9417.4, 9.1411e-07
9419.4, 9.6464e-07
9421.4, 9.8005e-07
9423.4, 9.1041e-07
9425.4, 9.6041e-07
9427.4, 8.9082e-07
9429.4, 9.6321e-07
9431.4, 9.9564e-07
9433.4, 9.5861e-07
9435.4, 9.8815e-07
9437.4, 9.9808e-07
9439.4, 9.5402e-07
9441.4, 9.8727e-07
9443.4, 9.6987e-07
9445.4, 9.8612e-07
9447.4, 9.9909e-07
9449.4, 9.5726e-07
9451.4, 9.482e-07
9453.4, 9.1868e-07
9455.4, 9.5803e-07
9457.4, 1.0698e-06
9459.4, 9.0515e-07
9461.5, 1.0682e-06
9463.5, 9.9135e-07
9465.5, 1.0565e-06
9467.5, 9.9351e-07
9469.5, 9.6651e-07
9471.5, 9.43e-07
9473.5, 9.5828e-07
9475.5, 1.0206e-06
9477.5, 9.6862e-07
9479.5, 9.476e-07
9481.5, 1.024e-06
9483.5, 1.025e-06
9485.5, 9.9428e-07
9487.5, 1.0103e-06
9489.5, 9.9697e-07
9491.5, 9.5505e-07
9493.5, 9.9724e-07
9495.5, 9.9595e-07
9497.5, 9.8723e-07
9499.5, 1.0795e-06
9501.5, 9.9757e-07
9503.5, 9.7463e-07
9505.5, 9.781e-07
9507.5, 9.0591e-07
9509.5, 1.0281e-06
9511.5, 9.9131e-07
9513.5, 9.5788e-07
9515.5, 9.7613e-07
9517.5, 1.0551e-06
9519.5, 1.0158e-06
9521.5, 9.7213e-07
9523.5, 9.5282e-07
9525.5, 1.0383e-06
9527.5, 9.7981e-07
9529.5, 1.0088e-06
9531.5, 1.0257e-06
9533.5, 9.9056e-07
9535.5, 9.2505e-07
9537.5, 9.4865e-07
9539.5, 1.0053e-06
9541.5, 1.0121e-06
9543.5, 9.9961e-07
9545.5, 9.497e-07
9547.5, 9.9619e-07
9549.5, 9.6294e-07
9551.5, 9.911e-07
9553.5, 9.9412e-07
9555.5, 9.8993e-07
9557.5, 1.0392e-06
9559.5, 1.0052e-06
9561.6, 1.0348e-06
9563.6, 1.0271e-06
9565.6, 9.545e-07
9567.6, 9.8559e-07
9569.6, 9.8829e-07
9571.6, 9.8944e-07
9573.6, 1.0121e-06
9575.6, 1.0308e-06
9577.6, 1.0089e-06
9579.6, 9.4748e-07
9581.6, 9.9987e-07
9583.6, 1.0004e-06
9585.6, 1.003e-06
9587.6, 1.0291e-06
9589.6, 9.7997e-07
9591.6, 1.0149e-06
9593.6, 9.6118e-07
9595.6, 9.6259e-07
9597.6, 1.0309e-06
9599.6, 9.5759e-07
9601.6, 9.9666e-07
9603.6, 1.0023e-06
9605.6, 9.921e-07
9607.6, 1.0495e-06
9609.6, 9.9984e-07
9611.6, 1.0354e-06
9613.6, 9.8314e-07
9615.6, 1.0016e-06
9617.6, 1.0024e-06
9619.6, 1.023e-06
9621.6, 1.0538e-06
9623.6, 9.9945e-07
9625.6, 1.0323e-06
9627.6, 1.0376e-06
9629.6, 1.0125e-06
9631.6, 1.0096e-06
9633.6, 9.9532e-07
9635.6, 9.5541e-07
9637.6, 9.6982e-07
9639.6, 9.8016e-07
9641.6, 1.0369e-06
9643.6, 9.8352e-07
9645.6, 9.5929e-07
9647.6, 1.0249e-06
9649.6, 1.0092e-06
9651.6, 1.0038e-06
9653.6, 1.0071e-06
9655.6, 1.0352e-06
9657.6, 1.0229e-06
9659.6, 9.7827e-07
9661.7, 1.0452e-06
9663.7, 9.7436e-07
9665.7, 9.9892e-07
9667.7, 9.4836e-07
9669.7, 1.0119e-06
9671.7, 1.0429e-06
9673.7, 9.5678e-07
9675.7, 1.0193e-06
9677.7, 9.9501e-07
9679.7, 1.0046e-06
9681.7, 9.6462e-07
9683.7, 1.0245e-06
9685.7, 1.0751e-06
9687.7, 1.0326e-06
9689.7, 9.8837e-07
9691.7, 1.0049e-06
9693.7, 1.0051e-06
9695.7, 9.8905e-07
9697.7, 1.0665e-06
9699.7, 1.0032e-06
9701.7, 1.0563e-06
9703.7, 1.0387e-06
9705.7, 1.0636e-06
9707.7, 1.0561e-06
9709.7, 1.0079e-06
9711.7, 9.3947e-07
9713.7, 1.01e-06
9715.7, 1.0269e-06
9717.7, 9.8432e-07
9719.7, 9.5535e-07
9721.7, 1.0144e-06
9723.7, 1.006e-06
9725.7, 1.0633e-06
9727.7, 1.0423e-06
9729.7, 1.0159e-06
9731.7, 1.0475e-06
9733.7, 9.9831e-07
9735.7, 9.7105e-07
9737.7, 1.0567e-06
9739.7, 1.0149e-06
9741.7, 1.0327e-06
9743.7, 1.0488e-06
9745.7, 9.7892e-07
9747.7, 1.0403e-06
9749.7, 1.0445e-06
9751.7, 1.0107e-06
9753.7, 1.016e-06
9755.7, 1.0075e-06
9757.7, 1.0023e-06
9759.7, 1.0018e-06
9761.8, 1.0218e-06
9763.8, 1.0416e-06
9765.8, 9.8239e-07
9767.8, 1.0227e-06
9769.8, 1.0477e-06
9771.8, 9.4854e-07
9773.8, 9.9102e-07
9775.8, 1.0276e-06
9777.8, 1.0386e-06
9779.8, 1.0021e-06
9781.8, 1.042e-06
9783.8, 1.0867e-06
9785.8, 9.6805e-07
9787.8, 1.0254e-06
9789.8, 1.0499e-06
9791.8, 1.0145e-06
9793.8, 1.0206e-06
9795.8, 1.0125e-06
9797.8, 1.0509e-06
9799.8, 9.959e-07
9801.8, 1.0322e-06
9803.8, 1.0116e-06
9805.8, 9.8994e-07
9807.8, 1.0377e-06
9809.8, 1.0091e-06
9811.8, 9.7438e-07
9813.8, 1.0094e-06
9815.8, 9.3019e-07
9817.8, 1.115e-06
9819.8, 9.6814e-07
9821.8, 1.0291e-06
9823.8, 1.0658e-06
9825.8, 9.8665e-07
9827.8, 1.033e-06
9829.8, 1.0332e-06
9831.8, 1.0564e-06
9833.8, 1.0172e-06
9835.8, 9.8584e-07
9837.8, 1.0281e-06
9839.8, 1.0417e-06
9841.8, 1.0321e-06
9843.8, 1.0192e-06
9845.8, 9.614e-07
9847.8, 1.0748e-06
9849.8, 1.0062e-06
9851.8, 1.1081e-06
9853.8, 1.0306e-06
9855.8, 1.0999e-06
9857.8, 9.8559e-07
9859.8, 9.4941e-07
9861.9, 1.0301e-06
9863.9, 1.0008e-06
9865.9, 9.6941e-07
9867.9, 1.0385e-06
9869.9, 1.0577e-06
9871.9, 1.0221e-06
9873.9, 9.8424e-07
9875.9, 1.0306e-06
9877.9, 9.9866e-07
9879.9, 1.0284e-06
9881.9, 1.0103e-06
9883.9, 1.0978e-06
9885.9, 1.0795e-06
9887.9, 9.9846e-07
9889.9, 1.0464e-06
9891.9, 1.1061e-06
9893.9, 1.0248e-06
9895.9, 9.664e-07
9897.9, 9.7225e-07
9899.9, 1.0757e-06
9901.9, 1.0552e-06
9903.9, 1.0095e-06
9905.9, 9.8791e-07
9907.9, 1.041e-06
9909.9, 9.8747e-07
9911.9, 1.011e-06
9913.9, 1.0075e-06
9915.9, 1.0755e-06
9917.9, 1.0093e-06
9919.9, 1.0465e-06
9921.9, 1.021e-06
9923.9, 1.0736e-06
9925.9, 1.0239e-06
9927.9, 1.0495e-06
9929.9, 9.8782e-07
9931.9, 1.0436e-06
9933.9, 1.0446e-06
9935.9, 1.0242e-06
9937.9, 1.0174e-06
9939.9, 9.975e-07
9941.9, 1.0227e-06
9943.9, 1.0431e-06
9945.9, 9.8552e-07
9947.9, 1.017e-06
9949.9, 9.6999e-07
9951.9, 9.9621e-07
9953.9, 1.0331e-06
9955.9, 1.1149e-06
9957.9, 1.0271e-06
9959.9, 1.0735e-06
9962.0, 1.0502e-06
9964.0, 9.7434e-07
9966.0, 9.8484e-07
9968.0, 1.0256e-06
9970.0, 9.6609e-07
9972.0, 1.0042e-06
9974.0, 9.369e-07
9976.0, 1.0642e-06
9978.0, 1.0579e-06
9980.0, 9.8753e-07
9982.0, 9.5751e-07
9984.0, 1.0322e-06
9986.0, 9.989e-07
9988.0, 1.0703e-06
9990.0, 9.5808e-07
9992.0, 1.0189e-06
9994.0, 9.5106e-07
9996.0, 1.0105e-06
9998.0, 1.0487e-06
10000.0, 1.1114e-06
10002.0, 9.8794e-07
10004.0, 9.9177e-07
10006.0, 1.0535e-06
10008.0, 1.0146e-06
10010.0, 1.0241e-06
10012.0, 1.0026e-06
10014.0, 1.0159e-06
10016.0, 1.0122e-06
10018.0, 1.006e-06
10020.0, 1.0657e-06
10022.0, 9.9315e-07
10024.0, 1.0237e-06
10026.0, 9.9222e-07
10028.0, 1.0433e-06
10030.0, 1.0089e-06
10032.0, 1.0872e-06
10034.0, 1.0288e-06
10036.0, 1.0592e-06
10038.0, 1.0303e-06
10040.0, 1.1109e-06
10042.0, 1.0694e-06
10044.0, 1.0593e-06
10046.0, 1.0141e-06
10048.0, 1.0017e-06
10050.0, 1.0324e-06
10052.0, 9.8413e-07
10054.0, 1.0266e-06
10056.0, 1.0691e-06
10058.0, 1.0198e-06
10060.0, 1.0339e-06
10062.0, 1.0409e-06
10064.0, 1.0431e-06
10066.0, 1.0006e-06
10068.0, 1.0614e-06
10070.0, 9.9713e-07
10072.0, 1.0682e-06
10074.0, 1.0256e-06
10076.0, 1.0246e-06
10078.0, 1.0565e-06
10080.0, 1.021e-06
10082.0, 9.9468e-07
10084.0, 9.8097e-07
10086.0, 1.0702e-06
10088.0, 1.0298e-06
10090.0, 1.0183e-06
10092.0, 9.7865e-07
10094.0, 9.6807e-07
10096.0, 1.0478e-06
10098.0, 1.002e-06
10100.0, 1.0064e-06
10102.0, 9.8689e-07
10104.0, 1.0186e-06
10106.0, 1.07e-06
10108.0, 1.0376e-06
10110.0, 9.9759e-07
10112.0, 9.8476e-07
10114.0, 1.0379e-06
10116.0, 1.0138e-06
10118.0, 1.028e-06
10120.0, 1.0428e-06
10122.0, 1.0586e-06
10124.0, 1.0149e-06
10126.0, 9.8004e-07
10128.0, 9.8811e-07
10130.0, 1.0247e-06
10132.0, 1.0162e-06
10134.0, 9.8405e-07
10136.0, 9.8726e-07
10138.0, 1.0106e-06
10140.0, 1.0745e-06
10142.0, 1.0177e-06
10144.0, 9.8551e-07
10146.0, 1.011e-06
10148.0, 9.902e-07
10150.0, 1.0263e-06
10152.0, 1.051e-06
10154.0, 9.8658e-07
10156.0, 1.0199e-06
10158.0, 1.0379e-06
10160.0, 1.0253e-06
10162.0, 1.0295e-06
10164.0, 9.9799e-07
10166.0, 1.0178e-06
10168.0, 9.6813e-07
10170.0, 1.0344e-06
10172.0, 1.0351e-06
10174.0, 1.1319e-06
10176.0, 1.0767e-06
10178.0, 9.6191e-07
10180.0, 1.0725e-06
10182.0, 1.0046e-06
10184.0, 1.0221e-06
10186.0, 1.0333e-06
10188.0, 1.0136e-06
10190.0, 1.0221e-06
10192.0, 1.0258e-06
10194.0, 9.8017e-07
10196.0, 1.0101e-06
10198.0, 9.979e-07
10200.0, 9.4855e-07
10202.0, 1.0327e-06
10204.0, 1.0764e-06
10206.0, 1.0365e-06
10208.0, 1.0368e-06
10210.0, 1.0203e-06
10212.0, 1.0228e-06
10214.0, 1.0529e-06
10216.0, 1.0374e-06
10218.0, 1.0352e-06
10220.0, 9.6926e-07
10222.0, 1.0253e-06
10224.0, 1.1076e-06
10226.0, 9.8423e-07
10228.0, 1.0305e-06
10230.0, 9.716e-07
10232.0, -4.394e-08
10234.0, -3.523e-08
10236.0, -3.613e-08
10238.0, -3.617e-08
10240.0, -3.531e-08
10242.0, -3.407e-08
10244.0, -3.809e-08
10246.0, -3.406e-08
10248.0, -3.308e-08
10250.0, -3.41e-08
10252.0, -3.309e-08
10254.0, -3.345e-08
10256.0, -3.342e-08
10258.0, -3.667e-08
10260.0, -3.313e-08
10262.0, -3.428e-08
10264.0, -2.859e-08
10266.0, -3.535e-08
10268.0, -3.779e-08
10270.0, -3.538e-08
10272.0, -3.485e-08
10274.0, -3.4e-08
10276.0, -3.353e-08
10278.0, -3.326e-08
10280.0, -3.272e-08
10282.0, -3.287e-08
10284.0, -3.207e-08
10286.0, -3.545e-08
10288.0, -3.503e-08
10290.0, -3.24e-08
10292.0, -3.481e-08
10294.0, -3.457e-08
10296.0, -3.026e-08
10298.0, -3.393e-08
10300.0, -3.973e-08
10302.0, -3.102e-08
10304.0, -3.109e-08
10306.0, -3.016e-08
10308.0, -3.005e-08
10310.0, -3.166e-08
10312.0, -3.259e-08
10314.0, -3.082e-08
10316.0, -3.199e-08
10318.0, -3.655e-08
10320.0, -3.367e-08
10322.0, -3.086e-08
10324.0, -3.381e-08
10326.0, -3.197e-08
10328.0, -2.916e-08
10330.0, -3.003e-08
10332.0, -3.071e-08
10334.0, -3.238e-08
10336.0, -3.321e-08
10338.0, -3.24e-08
10340.0, -3.603e-08
10342.0, -3.472e-08
10344.0, -3.581e-08
10346.0, -3.464e-08
10348.0, -3.836e-08
10350.0, -3.649e-08
10352.0, -3.57e-08
10354.0, -3.41e-08
10356.0, -3.579e-08
10358.0, -3.696e-08
10360.0, -3.289e-08
10362.0, -3.567e-08
10364.0, -3.122e-08
10366.0, -3.33e-08
10368.0, -3.446e-08
10370.0, -3.539e-08
10372.0, -3.438e-08
10374.0, -3.246e-08
10376.0, -3.211e-08
10378.0, -3.579e-08
10380.0, -3.247e-08
10382.0, -3.303e-08
10384.0, -2.971e-08
10386.0, -3.171e-08
10388.0, -3.075e-08
10390.0, -3.188e-08
10392.0, -2.93e-08
10394.0, -2.895e-08
10396.0, -3.098e-08
10398.0, -2.542e-08
10400.0, -3.16e-08
10402.0, -3.238e-08
10404.0, -3.009e-08
10406.0, -2.912e-08
10408.0, -3.371e-08
10410.0, -3.652e-08
10412.0, -3.194e-08
10414.0, -3.2e-08
10416.0, -2.989e-08
10418.0, -2.967e-08
10420.0, -2.842e-08
10422.0, -2.704e-08
10424.0, -3.137e-08
10426.0, -2.855e-08
10428.0, -3.516e-08
10430.0, -3.179e-08
10432.0, -3.029e-08
10434.0, -3.096e-08
10436.0, -3.135e-08
10438.0, -3.402e-08
10440.0, -3.013e-08
10442.0, -3.35e-08
10444.0, -3.045e-08
10446.0, -2.952e-08
10448.0, -3.1e-08
10450.0, -3.249e-08
10452.0, -3.118e-08
10454.0, -2.93e-08
10456.0, -3.228e-08
10458.0, -3.287e-08
10460.0, -3.297e-08
10462.0, -2.905e-08
10464.0, -2.82e-08
10466.0, -3.413e-08
10468.0, -3.367e-08
10470.0, -3.256e-08
10472.0, -3.048e-08
10474.0, -3.422e-08
10476.0, -3.549e-08
10478.0, -3.325e-08
10480.0, -3.372e-08
10482.0, -3.442e-08
10484.0, -3.526e-08
10486.0, -3.584e-08
10488.0, -3.509e-08
10490.0, -3.744e-08
10492.0, -3.779e-08
10494.0, -3.284e-08
10496.0, -3.468e-08
10498.0, -3.448e-08
10500.0, -3.308e-08
10502.0, -3.503e-08
10504.0, -3.405e-08
10506.0, -3.608e-08
10508.0, -3.984e-08
10510.0, -3.925e-08
10513.0, -3.897e-08
10515.0, -3.618e-08
10517.0, -3.782e-08
10519.0, -3.6e-08
10521.0, -3.773e-08
10523.0, -3.863e-08
10525.0, -3.721e-08
10527.0, -3.76e-08
10529.0, -3.78e-08
10531.0, -3.752e-08
10533.0, -3.474e-08
10535.0, -3.543e-08
10537.0, -3.131e-08
10539.0, -3.628e-08
10541.0, -3.796e-08
10543.0, -3.512e-08
10545.0, -3.541e-08
10547.0, -3.206e-08
10549.0, -3.15e-08
10551.0, -3.113e-08
10553.0, -3.297e-08
10555.0, -3.255e-08
10557.0, -3.354e-08
10559.0, -3.238e-08
10561.0, -3.348e-08
10563.0, -2.873e-08
10565.0, -2.993e-08
10567.0, -3.131e-08
10569.0, -3.525e-08
10571.0, -3.323e-08
10573.0, -3.581e-08
10575.0, -3.383e-08
10577.0, -3.063e-08
10579.0, -3.454e-08
10581.0, -3.51e-08
10583.0, -3.574e-08
10585.0, -3.033e-08
10587.0, -3.206e-08
10589.0, -2.986e-08
10591.0, -2.986e-08
10593.0, -2.787e-08
10595.0, -2.902e-08
10597.0, -3.092e-08
10599.0, -3.023e-08
10601.0, -3.493e-08
10603.0, -3.361e-08
10605.0, -3.545e-08
10607.0, -3.95e-08
10609.0, -3.386e-08
10611.0, -3.76e-08
10613.0, -3.462e-08
10615.0, -3.649e-08
10617.0, -3.628e-08
10619.0, -3.43e-08
10621.0, -3.545e-08
10623.0, -3.313e-08
10625.0, -3.352e-08
10627.0, -3.354e-08
10629.0, -3.632e-08
10631.0, -3.623e-08
10633.0, -3.838e-08
10635.0, -3.666e-08
10637.0, -3.305e-08
10639.0, -3.428e-08
10641.0, -3.48e-08
10643.0, -3.535e-08
10645.0, -3.345e-08
10647.0, -3.492e-08
10649.0, -3.322e-08
10651.0, -3.401e-08
10653.0, -3.433e-08
10655.0, -3.324e-08
10657.0, -3.374e-08
10659.0, -3.14e-08
10661.0, -3.232e-08
10663.0, -3.373e-08
10665.0, -3.653e-08
10667.0, -3.612e-08
10669.0, -3.311e-08
10671.0, -3.683e-08
10673.0, -3.499e-08
10675.0, -3.61e-08
10677.0, -3.798e-08
10679.0, -3.864e-08
10681.0, -3.675e-08
10683.0, -3.799e-08
10685.0, -3.344e-08
10687.0, -3.715e-08
10689.0, -3.677e-08
10691.0, -3.507e-08
10693.0, -3.493e-08
10695.0, -3.289e-08
10697.0, -3.407e-08
10699.0, -3.616e-08
10701.0, -3.631e-08
10703.0, -3.508e-08
10705.0, -3.13e-08
10707.0, -3.282e-08
10709.0, -3.409e-08
10711.0, -3.21e-08
10713.0, -3.346e-08
10715.0, -3.563e-08
10717.0, -3.845e-08
10719.0, -3.988e-08
10721.0, -3.556e-08
10723.0, -4.013e-08
10725.0, -3.595e-08
10727.0, -3.711e-08
10729.0, -3.53e-08
10731.0, -3.743e-08
10733.0, -3.563e-08
10735.0, -3.737e-08
10737.0, -3.459e-08
10739.0, -3.815e-08
10741.0, -3.663e-08
10743.0, -3.928e-08
10745.0, -3.727e-08
10747.0, -3.71e-08
10749.0, -3.985e-08
10751.0, -3.9e-08
10753.0, -4.144e-08
10755.0, -3.899e-08
10757.0, -3.499e-08
10759.0, -3.643e-08
10761.0, -4.06e-08
10763.0, -3.525e-08
10765.0, -3.71e-08
10767.0, -3.778e-08
10769.0, -3.675e-08
10771.0, -3.749e-08
10773.0, -3.552e-08
10775.0, -3.3e-08
10777.0, -3.444e-08
10779.0, -3.264e-08
10781.0, -3.179e-08
10783.0, -3.467e-08
10785.0, -3.556e-08
10787.0, -3.867e-08
10789.0, -4.054e-08
10791.0, -4.045e-08
10793.0, -4.071e-08
10795.0, -3.993e-08
10797.0, -3.743e-08
10799.0, -3.348e-08
10801.0, -3.744e-08
10803.0, -3.578e-08
10805.0, -3.832e-08
10807.0, -3.981e-08
10809.0, -4.263e-08
10811.0, -3.92e-08
10813.0, -3.988e-08
10815.0, -4.149e-08
10817.0, -3.95e-08
10819.0, -4.153e-08
10821.0, -4.394e-08
10823.0, -4.25e-08
10825.0, -4.252e-08
10827.0, -3.842e-08
10829.0, -3.713e-08
10831.0, -3.875e-08
10833.0, -4.053e-08
10835.0, -4.032e-08
10837.0, -4.173e-08
10839.0, -4.487e-08
10841.0, -4.224e-08
10843.0, -4.43e-08
10845.0, -4.065e-08
10847.0, -4.032e-08
10849.0, -3.633e-08
10851.0, -3.94e-08
10853.0, -3.987e-08
10855.0, -3.983e-08
10857.0, -4.065e-08
10859.0, -4.037e-08
10861.0, -3.944e-08
10863.0, -3.954e-08
10865.0, -3.878e-08
10867.0, -3.783e-08
10869.0, -3.959e-08
10871.0, -4.156e-08
10873.0, -3.964e-08
10875.0, -3.907e-08
10877.0, -3.306e-08
10879.0, -3.603e-08
10881.0, -4.062e-08
10883.0, -4.139e-08
10885.0, -3.962e-08
10887.0, -3.899e-08
10889.0, -3.688e-08
10891.0, -3.628e-08
10893.0, -3.767e-08
10895.0, -3.615e-08
10897.0, -3.635e-08
10899.0, -3.601e-08
10901.0, -3.839e-08
10903.0, -3.744e-08
10905.0, -3.606e-08
10907.0, -3.824e-08
10909.0, -3.713e-08
10911.0, -3.421e-08
10913.0, -3.718e-08
10915.0, -3.661e-08
10917.0, -3.648e-08
10919.0, -3.833e-08
10921.0, -3.92e-08
10923.0, -3.686e-08
10925.0, -3.841e-08
10927.0, -4.055e-08
10929.0, -3.644e-08
10931.0, -3.832e-08
10933.0, -3.561e-08
10935.0, -3.5e-08
10937.0, -3.918e-08
10939.0, -3.93e-08
10941.0, -3.772e-08
10943.0, -3.973e-08
10945.0, -3.939e-08
10947.0, -4.123e-08
10949.0, -3.838e-08
10951.0, -3.879e-08
10953.0, -3.883e-08
10955.0, -4.257e-08
10957.0, -3.95e-08
10959.0, -4.084e-08
10961.0, -3.87e-08
10963.0, -4.187e-08
10965.0, -4.451e-08
10967.0, -4.106e-08
10969.0, -4.27e-08
10971.0, -4.058e-08
10973.0, -4.104e-08
10975.0, -3.783e-08
10977.0, -3.874e-08
10979.0, -3.959e-08
10981.0, -4.002e-08
10983.0, -3.725e-08
10985.0, -3.999e-08
10987.0, -4.044e-08
10989.0, -3.918e-08
10991.0, -3.922e-08
10993.0, -4.412e-08
10995.0, -3.752e-08
10997.0, -3.808e-08
10999.0, -4.141e-08
11001.0, -4.139e-08
11003.0, -4.121e-08
11005.0, -3.867e-08
11007.0, -3.643e-08
11009.0, -3.655e-08
