Time sep (ms?), Current (A)
0.0, -2.988e-08
2.002, -2.685e-08
4.004, -2.62e-08
6.006, -2.835e-08
8.008, -2.997e-08
10.01, -2.709e-08
12.012, -2.598e-08
14.014, -2.919e-08
16.016, -2.505e-08
18.018, -2.665e-08
20.02, -2.376e-08
22.022, -2.821e-08
24.024, -2.562e-08
26.026, -3.01e-08
28.028, -2.697e-08
30.03, -2.405e-08
32.032, -2.75e-08
34.034, -2.595e-08
36.036, -2.894e-08
38.038, -2.592e-08
40.04, -2.825e-08
42.042, -2.489e-08
44.044, -2.347e-08
46.046, -2.521e-08
48.048, -2.372e-08
50.05, -2.275e-08
52.052, -2.588e-08
54.054, -2.695e-08
56.056, -2.633e-08
58.058, -2.696e-08
60.06, -2.836e-08
62.062, -2.562e-08
64.064, -2.675e-08
66.066, -2.519e-08
68.068, -2.78e-08
70.07, -2.949e-08
72.072, -2.765e-08
74.074, -3.018e-08
76.076, -2.743e-08
78.078, -2.84e-08
80.08, -2.83e-08
82.082, -2.902e-08
84.084, -2.993e-08
86.086, -2.909e-08
88.088, -2.981e-08
90.09, -2.999e-08
92.092, -2.845e-08
94.094, -2.588e-08
96.096, -2.764e-08
98.098, -2.809e-08
100.1, -2.519e-08
102.1, -2.561e-08
104.1, -2.58e-08
106.11, -2.573e-08
108.11, -2.51e-08
110.11, -2.179e-08
112.11, -2.603e-08
114.11, -2.493e-08
116.12, -2.405e-08
118.12, -2.798e-08
120.12, -2.526e-08
122.12, -2.269e-08
124.12, -2.332e-08
126.13, -2.759e-08
128.13, -2.477e-08
130.13, -2.726e-08
132.13, -2.313e-08
134.13, -2.968e-08
136.14, -2.567e-08
138.14, -2.411e-08
140.14, -2.48e-08
142.14, -2.538e-08
144.14, -2.906e-08
146.15, -2.527e-08
148.15, -2.411e-08
150.15, -2.618e-08
152.15, -2.669e-08
154.15, -2.537e-08
156.16, -2.633e-08
158.16, -2.737e-08
160.16, -2.482e-08
162.16, -2.689e-08
164.16, -2.564e-08
166.17, -2.579e-08
168.17, -2.615e-08
170.17, -2.455e-08
172.17, -2.88e-08
174.17, -2.779e-08
176.18, -2.941e-08
178.18, -2.734e-08
180.18, -2.812e-08
182.18, -2.537e-08
184.18, -2.733e-08
186.19, -2.652e-08
188.19, -2.979e-08
190.19, -2.702e-08
192.19, -2.402e-08
194.19, -2.709e-08
196.2, -3.057e-08
198.2, -2.853e-08
200.2, -2.971e-08
202.2, -2.691e-08
204.2, -2.65e-08
206.21, -2.694e-08
208.21, -3.102e-08
210.21, -2.44e-08
212.21, -2.83e-08
214.21, -2.857e-08
216.22, -2.58e-08
218.22, -2.649e-08
220.22, -3.295e-08
222.22, -2.868e-08
224.22, -2.508e-08
226.23, -3.014e-08
228.23, -2.453e-08
230.23, -2.671e-08
232.23, -2.602e-08
234.23, -2.561e-08
236.24, -3.008e-08
238.24, -2.746e-08
240.24, -2.44e-08
242.24, -2.65e-08
244.24, -2.728e-08
246.25, -2.922e-08
248.25, -2.583e-08
250.25, -2.825e-08
252.25, -2.835e-08
254.25, -2.84e-08
256.26, -2.604e-08
258.26, -2.746e-08
260.26, -2.442e-08
262.26, -2.418e-08
264.26, -2.522e-08
266.27, -2.748e-08
268.27, -2.937e-08
270.27, -2.835e-08
272.27, -2.646e-08
274.27, -2.685e-08
276.28, -2.817e-08
278.28, -2.813e-08
280.28, -2.783e-08
282.28, -2.56e-08
284.28, -2.857e-08
286.29, -2.335e-08
288.29, -2.284e-08
290.29, -2.417e-08
292.29, -2.832e-08
294.29, -2.426e-08
296.3, -2.612e-08
298.3, -2.739e-08
300.3, -2.645e-08
302.3, -2.413e-08
304.3, -2.202e-08
306.31, -2.441e-08
308.31, -2.666e-08
310.31, -2.877e-08
312.31, -2.954e-08
314.31, -2.77e-08
316.32, -2.609e-08
318.32, -2.753e-08
320.32, -3.008e-08
322.32, -2.737e-08
324.32, -2.93e-08
326.33, -2.731e-08
328.33, -2.792e-08
330.33, -2.93e-08
332.33, -3.008e-08
334.33, -2.938e-08
336.34, -2.877e-08
338.34, -2.729e-08
340.34, -2.473e-08
342.34, -2.589e-08
344.34, -2.915e-08
346.35, -2.968e-08
348.35, -2.718e-08
350.35, -2.885e-08
352.35, -2.612e-08
354.35, -2.894e-08
356.36, -2.546e-08
358.36, -2.585e-08
360.36, -2.593e-08
362.36, -2.635e-08
364.36, -2.349e-08
366.37, -2.576e-08
368.37, -2.525e-08
370.37, -2.449e-08
372.37, -2.369e-08
374.37, -2.927e-08
376.38, -2.611e-08
378.38, -2.617e-08
380.38, -2.069e-08
382.38, -2.674e-08
384.38, -2.606e-08
386.39, -2.567e-08
388.39, -3.074e-08
390.39, -2.716e-08
392.39, -2.598e-08
394.39, -2.722e-08
396.4, -2.51e-08
398.4, -3.013e-08
400.4, -2.873e-08
402.4, -2.725e-08
404.4, -2.37e-08
406.41, -2.458e-08
408.41, -2.766e-08
410.41, -2.265e-08
412.41, -2.881e-08
414.41, -2.767e-08
416.42, -2.843e-08
418.42, -2.966e-08
420.42, -2.68e-08
422.42, -2.465e-08
424.42, -2.554e-08
426.43, -3.209e-08
428.43, -2.743e-08
430.43, -2.764e-08
432.43, -2.808e-08
434.43, -2.592e-08
436.44, -2.57e-08
438.44, -2.608e-08
440.44, -2.631e-08
442.44, -2.498e-08
444.44, -2.573e-08
446.45, -3.221e-08
448.45, -2.367e-08
450.45, -2.917e-08
452.45, -3.006e-08
454.45, -2.959e-08
456.46, -2.763e-08
458.46, -3.023e-08
460.46, -3.08e-08
462.46, -2.709e-08
464.46, -2.576e-08
466.47, -2.829e-08
468.47, -2.685e-08
470.47, -2.823e-08
472.47, -2.912e-08
474.47, -3.119e-08
476.48, -2.723e-08
478.48, -3.086e-08
480.48, -3.147e-08
482.48, -3.078e-08
484.48, -2.867e-08
486.49, -2.924e-08
488.49, -3.175e-08
490.49, -3.031e-08
492.49, -3.422e-08
494.49, -3.203e-08
496.5, -3.301e-08
498.5, -3.224e-08
500.5, -3.09e-08
502.5, -3.356e-08
504.5, -3.011e-08
506.51, -2.521e-08
508.51, -3.07e-08
510.51, -2.911e-08
512.51, -2.892e-08
514.51, -3.145e-08
516.52, -3.204e-08
518.52, -3.15e-08
520.52, -3.105e-08
522.52, -2.767e-08
524.52, -2.962e-08
526.53, -3.27e-08
528.53, -3.227e-08
530.53, -2.991e-08
532.53, -3.067e-08
534.53, -3.068e-08
536.54, -2.782e-08
538.54, -2.675e-08
540.54, -3.131e-08
542.54, -2.72e-08
544.54, -2.755e-08
546.55, -3.152e-08
548.55, -2.921e-08
550.55, -2.932e-08
552.55, -2.832e-08
554.55, -2.796e-08
556.56, -2.777e-08
558.56, -2.908e-08
560.56, -2.931e-08
562.56, -2.957e-08
564.56, -2.955e-08
566.57, -3.225e-08
568.57, -3.081e-08
570.57, -3.246e-08
572.57, -2.745e-08
574.57, -2.913e-08
576.58, -2.606e-08
578.58, -2.838e-08
580.58, -3.011e-08
582.58, -3.1e-08
584.58, -3.35e-08
586.59, -3.077e-08
588.59, -3.087e-08
590.59, -2.755e-08
592.59, -2.572e-08
594.59, -2.962e-08
596.6, -2.514e-08
598.6, -2.836e-08
600.6, -2.882e-08
602.6, -2.757e-08
604.6, -2.849e-08
606.61, -2.987e-08
608.61, -2.984e-08
610.61, -2.721e-08
612.61, -2.556e-08
614.61, -2.707e-08
616.62, -2.817e-08
618.62, -3.021e-08
620.62, -2.942e-08
622.62, -3.192e-08
624.62, -2.869e-08
626.63, -3.11e-08
628.63, -3.5e-08
630.63, -2.674e-08
632.63, -2.917e-08
634.63, -2.981e-08
636.64, -2.575e-08
638.64, -2.919e-08
640.64, -2.732e-08
642.64, -2.46e-08
644.64, -2.645e-08
646.65, -2.726e-08
648.65, -2.592e-08
650.65, -2.471e-08
652.65, -2.522e-08
654.65, -1.944e-08
656.66, -2.35e-08
658.66, -2.624e-08
660.66, -1.945e-08
662.66, -2.662e-08
664.66, -2.07e-08
666.67, -2.425e-08
668.67, -2.686e-08
670.67, -2.58e-08
672.67, -2.712e-08
674.67, -2.255e-08
676.68, -2.643e-08
678.68, -2.628e-08
680.68, -2.372e-08
682.68, -2.24e-08
684.68, -2.126e-08
686.69, -2.487e-08
688.69, -2.633e-08
690.69, -2.457e-08
692.69, -2.512e-08
694.69, -2.208e-08
696.7, -2.66e-08
698.7, -2.826e-08
700.7, -2.829e-08
702.7, -2.819e-08
704.7, -2.769e-08
706.71, -2.543e-08
708.71, -2.463e-08
710.71, -2.527e-08
712.71, -2.575e-08
714.71, -2.407e-08
716.72, -2.426e-08
718.72, -2.608e-08
720.72, -2.417e-08
722.72, -2.564e-08
724.72, -2.268e-08
726.73, -2.611e-08
728.73, -2.842e-08
730.73, -2.63e-08
732.73, -2.913e-08
734.73, -2.718e-08
736.74, -2.844e-08
738.74, -2.964e-08
740.74, -2.486e-08
742.74, -2.529e-08
744.74, -2.688e-08
746.75, -2.913e-08
748.75, -2.609e-08
750.75, -3.049e-08
752.75, -2.958e-08
754.75, -2.79e-08
756.76, -2.743e-08
758.76, -3.139e-08
760.76, -2.477e-08
762.76, -2.725e-08
764.76, -2.9e-08
766.77, -2.986e-08
768.77, -3.049e-08
770.77, -2.534e-08
772.77, -2.563e-08
774.77, -3.147e-08
776.78, -2.687e-08
778.78, -2.671e-08
780.78, -2.9e-08
782.78, -2.503e-08
784.78, -2.299e-08
786.79, -2.588e-08
788.79, -2.319e-08
790.79, -2.24e-08
792.79, -2.454e-08
794.79, -2.748e-08
796.8, -2.455e-08
798.8, -2.917e-08
800.8, -2.512e-08
802.8, -2.488e-08
804.8, -2.516e-08
806.81, -2.335e-08
808.81, -2.466e-08
810.81, -2.549e-08
812.81, -2.28e-08
814.81, -2.249e-08
816.82, -2.492e-08
818.82, -2.414e-08
820.82, -2.485e-08
822.82, -2.199e-08
824.82, -2.338e-08
826.83, -2.529e-08
828.83, -2.189e-08
830.83, -2.32e-08
832.83, -2.572e-08
834.83, -2.885e-08
836.84, -2.735e-08
838.84, -3.049e-08
840.84, -2.659e-08
842.84, -2.718e-08
844.84, -2.475e-08
846.85, -2.621e-08
848.85, -2.746e-08
850.85, -3.057e-08
852.85, -2.814e-08
854.85, -2.634e-08
856.86, -2.472e-08
858.86, -2.484e-08
860.86, -2.999e-08
862.86, -2.195e-08
864.86, -2.436e-08
866.87, -2.431e-08
868.87, -2.66e-08
870.87, -2.589e-08
872.87, -2.622e-08
874.87, -2.585e-08
876.88, -2.598e-08
878.88, -2.898e-08
880.88, -2.83e-08
882.88, -2.582e-08
884.88, -2.335e-08
886.89, -2.342e-08
888.89, -2.518e-08
890.89, -2.82e-08
892.89, -2.608e-08
894.89, -2.885e-08
896.9, -2.837e-08
898.9, -2.816e-08
900.9, -2.837e-08
902.9, -2.686e-08
904.9, -2.596e-08
906.91, -2.505e-08
908.91, -2.616e-08
910.91, -2.577e-08
912.91, -2.682e-08
914.91, -2.77e-08
916.92, -2.738e-08
918.92, -2.624e-08
920.92, -2.905e-08
922.92, -2.918e-08
924.92, -2.715e-08
926.93, -2.655e-08
928.93, -2.768e-08
930.93, -2.903e-08
932.93, -2.717e-08
934.93, -2.775e-08
936.94, -2.769e-08
938.94, -2.89e-08
940.94, -2.791e-08
942.94, -2.677e-08
944.94, -2.548e-08
946.95, -2.876e-08
948.95, -2.658e-08
950.95, -2.876e-08
952.95, -2.416e-08
954.95, -2.6e-08
956.96, -2.546e-08
958.96, -2.645e-08
960.96, -2.514e-08
962.96, -2.558e-08
964.96, -2.65e-08
966.97, -2.646e-08
968.97, -2.834e-08
970.97, -2.884e-08
972.97, -2.727e-08
974.97, -2.7e-08
976.98, -3.127e-08
978.98, -2.743e-08
980.98, -2.384e-08
982.98, -2.793e-08
984.98, -2.984e-08
986.99, -2.961e-08
988.99, -2.912e-08
990.99, -2.69e-08
992.99, -2.579e-08
994.99, -2.671e-08
997.0, -2.563e-08
999.0, -2.829e-08
1001.0, -2.631e-08
1003.0, -2.407e-08
1005.0, -2.112e-08
1007.0, -2.29e-08
1009.0, -2.555e-08
1011.0, -2.317e-08
1013.0, -2.27e-08
1015.0, -2.21e-08
1017.0, -1.844e-08
1019.0, -2.333e-08
1021.0, -2.686e-08
1023.0, -2.256e-08
1025.0, -2.3e-08
1027.0, -2.223e-08
1029.0, -2.123e-08
1031.0, -2.609e-08
1033.0, -2.241e-08
1035.0, -2.323e-08
1037.0, -2.823e-08
1039.0, -2.541e-08
1041.0, -2.211e-08
1043.0, -2.308e-08
1045.0, -2.71e-08
1047.0, 4.9266e-07
1049.0, 8.882e-07
1051.0, 8.9271e-07
1053.1, 8.6099e-07
1055.1, 7.8154e-07
1057.1, 8.3044e-07
1059.1, 8.2527e-07
1061.1, 8.7414e-07
1063.1, 8.721e-07
1065.1, 1.0013e-06
1067.1, 9.1754e-07
1069.1, 8.1766e-07
1071.1, 8.6034e-07
1073.1, 8.1932e-07
1075.1, 9.2279e-07
1077.1, 8.5643e-07
1079.1, 9.4e-07
1081.1, 9.2548e-07
1083.1, 8.748e-07
1085.1, 8.9306e-07
1087.1, 8.6273e-07
1089.1, 9.5075e-07
1091.1, 9.1976e-07
1093.1, 8.9589e-07
1095.1, 9.1742e-07
1097.1, 8.9152e-07
1099.1, 8.6031e-07
1101.1, 9.6597e-07
1103.1, 8.9534e-07
1105.1, 8.6651e-07
1107.1, 8.5559e-07
1109.1, 9.5036e-07
1111.1, 9.213e-07
1113.1, 1.0187e-06
1115.1, 8.8363e-07
1117.1, 8.8912e-07
1119.1, 9.9102e-07
1121.1, 9.8634e-07
1123.1, 9.1866e-07
1125.1, 9.1408e-07
1127.1, 9.8917e-07
1129.1, 9.7078e-07
1131.1, 9.3808e-07
1133.1, 9.6306e-07
1135.1, 9.6152e-07
1137.1, 9.5607e-07
1139.1, 9.1854e-07
1141.1, 9.4483e-07
1143.1, 9.0406e-07
1145.1, 9.0188e-07
1147.1, 9.2558e-07
1149.1, 8.517e-07
1151.1, 8.8755e-07
1153.2, 8.3414e-07
1155.2, 8.8398e-07
1157.2, 9.454e-07
1159.2, 9.1784e-07
1161.2, 8.3891e-07
1163.2, 9.4089e-07
1165.2, 9.3182e-07
1167.2, 9.0863e-07
1169.2, 9.6875e-07
1171.2, 9.4554e-07
1173.2, 1.059e-06
1175.2, 1.0051e-06
1177.2, 9.2818e-07
1179.2, 9.4304e-07
1181.2, 9.3687e-07
1183.2, 9.337e-07
1185.2, 8.7409e-07
1187.2, 9.0489e-07
1189.2, 9.019e-07
1191.2, 9.3804e-07
1193.2, 8.7217e-07
1195.2, 8.8253e-07
1197.2, 9.8203e-07
1199.2, 9.9553e-07
1201.2, 9.1555e-07
1203.2, 9.9348e-07
1205.2, 9.2843e-07
1207.2, 9.1077e-07
1209.2, 9.0492e-07
1211.2, 8.9218e-07
1213.2, 9.3754e-07
1215.2, 9.4847e-07
1217.2, 9.0147e-07
1219.2, 9.5149e-07
1221.2, 9.9851e-07
1223.2, 9.7037e-07
1225.2, 8.8943e-07
1227.2, 1.032e-06
1229.2, 9.5038e-07
1231.2, 8.811e-07
1233.2, 9.7584e-07
1235.2, 9.754e-07
1237.2, 8.9998e-07
1239.2, 9.5731e-07
1241.2, 8.9245e-07
1243.2, 8.9498e-07
1245.2, 1.009e-06
1247.2, 9.2547e-07
1249.2, 9.881e-07
1251.2, 9.7309e-07
1253.3, 9.8775e-07
1255.3, 9.3695e-07
1257.3, 9.3485e-07
1259.3, 1.0142e-06
1261.3, 9.8904e-07
1263.3, 9.0563e-07
1265.3, 9.5769e-07
1267.3, 9.3071e-07
1269.3, 9.5771e-07
1271.3, 8.666e-07
1273.3, 9.5736e-07
1275.3, 9.8583e-07
1277.3, 9.6847e-07
1279.3, 9.7964e-07
1281.3, 9.8995e-07
1283.3, 9.1894e-07
1285.3, 9.6752e-07
1287.3, 1.0639e-06
1289.3, 9.9383e-07
1291.3, 9.343e-07
1293.3, 9.6605e-07
1295.3, 9.5794e-07
1297.3, 9.4153e-07
1299.3, 9.8298e-07
1301.3, 1.0004e-06
1303.3, 9.7851e-07
1305.3, 9.904e-07
1307.3, 9.933e-07
1309.3, 1.0533e-06
1311.3, 1.0407e-06
1313.3, 9.1796e-07
1315.3, 9.323e-07
1317.3, 9.0352e-07
1319.3, 1.0481e-06
1321.3, 9.5037e-07
1323.3, 9.6341e-07
1325.3, 9.6596e-07
1327.3, 9.9912e-07
1329.3, 9.074e-07
1331.3, 9.8234e-07
1333.3, 9.148e-07
1335.3, 9.9028e-07
1337.3, 9.8765e-07
1339.3, 9.5086e-07
1341.3, 9.286e-07
1343.3, 9.9229e-07
1345.3, 9.3382e-07
1347.3, 1.0001e-06
1349.3, 9.2553e-07
1351.3, 9.403e-07
1353.4, 9.7698e-07
1355.4, 9.5452e-07
1357.4, 9.9942e-07
1359.4, 9.5555e-07
1361.4, 9.2289e-07
1363.4, 1.0878e-06
1365.4, 9.9171e-07
1367.4, 9.7455e-07
1369.4, 9.3939e-07
1371.4, 9.4865e-07
1373.4, 9.9078e-07
1375.4, 9.781e-07
1377.4, 1.0462e-06
1379.4, 9.4815e-07
1381.4, 9.5219e-07
1383.4, 9.8447e-07
1385.4, 9.3126e-07
1387.4, 9.0583e-07
1389.4, 9.7392e-07
1391.4, 9.3324e-07
1393.4, 9.9e-07
1395.4, 9.8512e-07
1397.4, 9.1781e-07
1399.4, 9.2903e-07
1401.4, 9.382e-07
1403.4, 9.771e-07
1405.4, 9.3022e-07
1407.4, 9.4082e-07
1409.4, 9.8747e-07
1411.4, 9.2938e-07
1413.4, 1.0162e-06
1415.4, 9.7531e-07
1417.4, 1.0017e-06
1419.4, 1.0148e-06
1421.4, 8.9697e-07
1423.4, 9.7581e-07
1425.4, 9.8825e-07
1427.4, 9.5894e-07
1429.4, 9.3798e-07
1431.4, 9.0574e-07
1433.4, 9.6213e-07
1435.4, 9.4571e-07
1437.4, 9.1507e-07
1439.4, 9.4931e-07
1441.4, 9.6392e-07
1443.4, 1.0013e-06
1445.4, 1.0121e-06
1447.4, 1.0583e-06
1449.4, 9.4772e-07
1451.4, 1.0715e-06
1453.5, 9.1476e-07
1455.5, 1.0175e-06
1457.5, 9.7971e-07
1459.5, 1.0124e-06
1461.5, 9.4349e-07
1463.5, 9.3318e-07
1465.5, 9.1733e-07
1467.5, 1.027e-06
1469.5, 9.8468e-07
1471.5, 9.1189e-07
1473.5, 1.0397e-06
1475.5, 1.0058e-06
1477.5, 9.6825e-07
1479.5, 1.0077e-06
1481.5, 9.8064e-07
1483.5, 1.0045e-06
1485.5, 9.3305e-07
1487.5, 9.6543e-07
1489.5, 9.5101e-07
1491.5, 1.0745e-06
1493.5, 9.6975e-07
1495.5, 1.0096e-06
1497.5, 1.0109e-06
1499.5, 1.035e-06
1501.5, 1.0392e-06
1503.5, 9.875e-07
1505.5, 9.6985e-07
1507.5, 1.0067e-06
1509.5, 9.6476e-07
1511.5, 9.4772e-07
1513.5, 9.6377e-07
1515.5, 9.592e-07
1517.5, 1.0331e-06
1519.5, 9.3865e-07
1521.5, 9.6139e-07
1523.5, 1.021e-06
1525.5, 1.0263e-06
1527.5, 9.9814e-07
1529.5, 9.8021e-07
1531.5, 9.7127e-07
1533.5, 1.0156e-06
1535.5, 9.5624e-07
1537.5, 9.6709e-07
1539.5, 1.0883e-06
1541.5, 1.0019e-06
1543.5, 9.6981e-07
1545.5, 1.0153e-06
1547.5, 1.0175e-06
1549.5, 1.0054e-06
1551.5, 1.0053e-06
1553.6, 1.0245e-06
1555.6, 9.5204e-07
1557.6, 1.0001e-06
1559.6, 9.8779e-07
1561.6, 1.0245e-06
1563.6, 9.7028e-07
1565.6, 9.3657e-07
1567.6, 9.593e-07
1569.6, 9.8785e-07
1571.6, 9.2835e-07
1573.6, 9.876e-07
1575.6, 9.9199e-07
1577.6, 9.8756e-07
1579.6, 1.0059e-06
1581.6, 9.9247e-07
1583.6, 1.0188e-06
1585.6, 9.5586e-07
1587.6, 8.8921e-07
1589.6, 1.0083e-06
1591.6, 9.58e-07
1593.6, 1.0371e-06
1595.6, 1.0013e-06
1597.6, 1.0579e-06
1599.6, 9.484e-07
1601.6, 9.3879e-07
1603.6, 1.0579e-06
1605.6, 9.4617e-07
1607.6, 1.0065e-06
1609.6, 9.8448e-07
1611.6, 9.8289e-07
1613.6, 9.6473e-07
1615.6, 1.0044e-06
1617.6, 9.5443e-07
1619.6, 1.0111e-06
1621.6, 9.7635e-07
1623.6, 1.1283e-06
1625.6, 9.9565e-07
1627.6, 9.3215e-07
1629.6, 1.0386e-06
1631.6, 9.5843e-07
1633.6, 1.0353e-06
1635.6, 9.3677e-07
1637.6, 9.6294e-07
1639.6, 1.0431e-06
1641.6, 1.0792e-06
1643.6, 1.0479e-06
1645.6, 9.8806e-07
1647.6, 9.6301e-07
1649.6, 9.8338e-07
1651.6, 9.5627e-07
1653.7, 9.9387e-07
1655.7, 1.0147e-06
1657.7, 1.0178e-06
1659.7, 9.9455e-07
1661.7, 9.699e-07
1663.7, 9.5035e-07
1665.7, 9.1309e-07
1667.7, 9.6875e-07
1669.7, 9.8298e-07
1671.7, 1.0374e-06
1673.7, 9.5226e-07
1675.7, 9.8006e-07
1677.7, 9.9863e-07
1679.7, 9.797e-07
1681.7, 9.3658e-07
1683.7, 9.9181e-07
1685.7, 1.0109e-06
1687.7, 1.0151e-06
1689.7, 9.8021e-07
1691.7, 9.4806e-07
1693.7, 9.891e-07
1695.7, 1.0314e-06
1697.7, 9.6253e-07
1699.7, 9.5063e-07
1701.7, 1.0631e-06
1703.7, 1.0792e-06
1705.7, 9.8143e-07
1707.7, 9.4626e-07
1709.7, 9.9475e-07
1711.7, 1.0273e-06
1713.7, 9.1907e-07
1715.7, 1.0311e-06
1717.7, 9.8191e-07
1719.7, 9.7142e-07
1721.7, 9.3016e-07
1723.7, 1.0557e-06
1725.7, 1.0073e-06
1727.7, 1.023e-06
1729.7, 9.7457e-07
1731.7, 8.9695e-07
1733.7, 1.0347e-06
1735.7, 1.0179e-06
1737.7, 9.5037e-07
1739.7, 9.6582e-07
1741.7, 1.0332e-06
1743.7, 9.202e-07
1745.7, 1.0907e-06
1747.7, 9.5494e-07
1749.7, 1.0109e-06
1751.7, 9.6629e-07
1753.8, 9.9517e-07
1755.8, 1.0655e-06
1757.8, 9.4816e-07
1759.8, 9.7285e-07
1761.8, 9.5184e-07
1763.8, 9.3103e-07
1765.8, 9.8418e-07
1767.8, 1.0187e-06
1769.8, 1.0188e-06
1771.8, 9.812e-07
1773.8, 1.0182e-06
1775.8, 9.779e-07
1777.8, 8.9651e-07
1779.8, 9.9755e-07
1781.8, 1.0242e-06
1783.8, 9.5522e-07
1785.8, 9.9938e-07
1787.8, 9.7911e-07
1789.8, 9.3863e-07
1791.8, 9.7226e-07
1793.8, 9.7603e-07
1795.8, 9.4416e-07
1797.8, 9.5266e-07
1799.8, 1.0171e-06
1801.8, 1.0426e-06
1803.8, 9.862e-07
1805.8, 1.04e-06
1807.8, 1.0057e-06
1809.8, 1.0276e-06
1811.8, 9.8264e-07
1813.8, 1.0176e-06
1815.8, 1.0344e-06
1817.8, 9.9953e-07
1819.8, 9.8411e-07
1821.8, 9.7061e-07
1823.8, 9.8944e-07
1825.8, 9.6303e-07
1827.8, 9.7301e-07
1829.8, 9.7976e-07
1831.8, 9.4676e-07
1833.8, 1.0677e-06
1835.8, 1.0267e-06
1837.8, 1.0534e-06
1839.8, 9.7266e-07
1841.8, 9.2251e-07
1843.8, 9.0936e-07
1845.8, 1.1052e-06
1847.8, 9.8906e-07
1849.8, 9.7805e-07
1851.8, 9.5369e-07
1853.9, 9.9978e-07
1855.9, 1.042e-06
1857.9, 1.0167e-06
1859.9, 9.7027e-07
1861.9, 9.1014e-07
1863.9, 1.0355e-06
1865.9, 1.0377e-06
1867.9, 1.0063e-06
1869.9, 9.8398e-07
1871.9, 9.8742e-07
1873.9, 9.6145e-07
1875.9, 1.0742e-06
1877.9, 1.0147e-06
1879.9, 1.0024e-06
1881.9, 1.0149e-06
1883.9, 9.3594e-07
1885.9, 9.5868e-07
1887.9, 9.5968e-07
1889.9, 1.039e-06
1891.9, 1.0113e-06
1893.9, 1.0453e-06
1895.9, 9.7984e-07
1897.9, 1.0088e-06
1899.9, 9.796e-07
1901.9, 9.5223e-07
1903.9, 9.9332e-07
1905.9, 1.022e-06
1907.9, 1.0389e-06
1909.9, 1.1132e-06
1911.9, 9.7073e-07
1913.9, 9.9957e-07
1915.9, 9.5991e-07
1917.9, 1.0256e-06
1919.9, 1.0121e-06
1921.9, 9.012e-07
1923.9, 9.8132e-07
1925.9, 8.9767e-07
1927.9, 1.0146e-06
1929.9, 9.7541e-07
1931.9, 9.9895e-07
1933.9, 9.2476e-07
1935.9, 9.7664e-07
1937.9, 9.7327e-07
1939.9, 9.751e-07
1941.9, 9.9762e-07
1943.9, 9.6464e-07
1945.9, 9.8646e-07
1947.9, 9.8494e-07
1949.9, 9.5825e-07
1951.9, 1.0606e-06
1954.0, 9.2874e-07
1956.0, 9.1952e-07
1958.0, 9.4161e-07
1960.0, 9.7398e-07
1962.0, 9.8894e-07
1964.0, 1.0092e-06
1966.0, 9.6308e-07
1968.0, 1.0159e-06
1970.0, 9.4088e-07
1972.0, 1.0119e-06
1974.0, 9.6394e-07
1976.0, 1.0208e-06
1978.0, 1.0013e-06
1980.0, 1.0268e-06
1982.0, 1.0191e-06
1984.0, 9.5056e-07
1986.0, 9.8793e-07
1988.0, 9.3751e-07
1990.0, 9.6124e-07
1992.0, 1.0202e-06
1994.0, 1.0298e-06
1996.0, 9.4774e-07
1998.0, 1.0022e-06
2000.0, 1.0058e-06
2002.0, 1.0042e-06
2004.0, 1.0152e-06
2006.0, 9.8452e-07
2008.0, 9.9231e-07
2010.0, 1.0074e-06
2012.0, 9.6862e-07
2014.0, 1.0135e-06
2016.0, 1.0419e-06
2018.0, 9.8556e-07
2020.0, 9.699e-07
2022.0, 1.0175e-06
2024.0, 9.7208e-07
2026.0, 9.6042e-07
2028.0, 9.8556e-07
2030.0, 1.0243e-06
2032.0, 1.0532e-06
2034.0, 9.8769e-07
2036.0, 1.0349e-06
2038.0, 1.0329e-06
2040.0, 1.0083e-06
2042.0, 9.8795e-07
2044.0, 1.0564e-06
2046.0, 1.0073e-06
2048.0, 4.5309e-07
2050.0, -2.678e-08
2052.0, -2.702e-08
2054.1, -2.956e-08
2056.1, -3.089e-08
2058.1, -3.322e-08
2060.1, -3.144e-08
2062.1, -3.205e-08
2064.1, -2.58e-08
2066.1, -2.616e-08
2068.1, -2.506e-08
2070.1, -2.703e-08
2072.1, -3.007e-08
2074.1, -3.082e-08
2076.1, -2.437e-08
2078.1, -2.752e-08
2080.1, -2.869e-08
2082.1, -2.617e-08
2084.1, -2.818e-08
2086.1, -2.647e-08
2088.1, -3.014e-08
2090.1, -2.956e-08
2092.1, -2.734e-08
2094.1, -2.685e-08
2096.1, -2.762e-08
2098.1, -2.954e-08
2100.1, -3.015e-08
2102.1, -2.848e-08
2104.1, -2.722e-08
2106.1, -2.464e-08
2108.1, -2.397e-08
2110.1, -1.91e-08
2112.1, -2.175e-08
2114.1, -2.17e-08
2116.1, -2.354e-08
2118.1, -2.517e-08
2120.1, -2.904e-08
2122.1, -2.583e-08
2124.1, -2.607e-08
2126.1, -2.574e-08
2128.1, -2.584e-08
2130.1, -2.463e-08
2132.1, -2.466e-08
2134.1, -2.338e-08
2136.1, -2.422e-08
2138.1, -2.361e-08
2140.1, -2.223e-08
2142.1, -2.254e-08
2144.1, -1.969e-08
2146.1, -2.121e-08
2148.1, -2.186e-08
2150.1, -2.592e-08
2152.1, -2.694e-08
2154.2, -2.493e-08
2156.2, -2.509e-08
2158.2, -2.504e-08
2160.2, -2.525e-08
2162.2, -2.325e-08
2164.2, -2.419e-08
2166.2, -1.817e-08
2168.2, -2.402e-08
2170.2, -2.428e-08
2172.2, -2.488e-08
2174.2, -2.475e-08
2176.2, -2.637e-08
2178.2, -2.131e-08
2180.2, -2.633e-08
2182.2, -2.841e-08
2184.2, -2.29e-08
2186.2, -2.562e-08
2188.2, -2.141e-08
2190.2, -2.537e-08
2192.2, -2.459e-08
2194.2, -2.724e-08
2196.2, -2.506e-08
2198.2, -2.513e-08
2200.2, -2.327e-08
2202.2, -2.478e-08
2204.2, -2.259e-08
2206.2, -2.165e-08
2208.2, -2.255e-08
2210.2, -2.337e-08
2212.2, -2.378e-08
2214.2, -2.245e-08
2216.2, -2.27e-08
2218.2, -2.481e-08
2220.2, -2.198e-08
2222.2, -2.456e-08
2224.2, -2.155e-08
2226.2, -1.994e-08
2228.2, -2.54e-08
2230.2, -2.244e-08
2232.2, -2.151e-08
2234.2, -2.548e-08
2236.2, -2.446e-08
2238.2, -2.597e-08
2240.2, -2.579e-08
2242.2, -2.709e-08
2244.2, -2.507e-08
2246.2, -2.34e-08
2248.2, -2.267e-08
2250.2, -2.326e-08
2252.2, -2.56e-08
2254.3, -2.041e-08
2256.3, -2.646e-08
2258.3, -2.937e-08
2260.3, -2.453e-08
2262.3, -2.48e-08
2264.3, -2.649e-08
2266.3, -2.635e-08
2268.3, -2.471e-08
2270.3, -2.363e-08
2272.3, -2.29e-08
2274.3, -2.237e-08
2276.3, -2.314e-08
2278.3, -2.703e-08
2280.3, -2.71e-08
2282.3, -2.767e-08
2284.3, -2.717e-08
2286.3, -2.641e-08
2288.3, -2.742e-08
2290.3, -2.525e-08
2292.3, -2.816e-08
2294.3, -2.776e-08
2296.3, -2.598e-08
2298.3, -2.346e-08
2300.3, -2.984e-08
2302.3, -2.614e-08
2304.3, -2.621e-08
2306.3, -2.508e-08
2308.3, -2.352e-08
2310.3, -2.87e-08
2312.3, -2.798e-08
2314.3, -2.876e-08
2316.3, -2.828e-08
2318.3, -2.995e-08
2320.3, -2.457e-08
2322.3, -2.873e-08
2324.3, -2.567e-08
2326.3, -2.748e-08
2328.3, -2.479e-08
2330.3, -2.505e-08
2332.3, -2.669e-08
2334.3, -2.568e-08
2336.3, -2.505e-08
2338.3, -2.77e-08
2340.3, -2.998e-08
2342.3, -2.945e-08
2344.3, -2.999e-08
2346.3, -2.935e-08
2348.3, -2.749e-08
2350.3, -2.696e-08
2352.3, -2.836e-08
2354.4, -2.791e-08
2356.4, -2.694e-08
2358.4, -2.969e-08
2360.4, -2.883e-08
2362.4, -3.272e-08
2364.4, -2.963e-08
2366.4, -2.898e-08
2368.4, -2.716e-08
2370.4, -2.818e-08
2372.4, -3.139e-08
2374.4, -2.928e-08
2376.4, -3.182e-08
2378.4, -2.892e-08
2380.4, -3.054e-08
2382.4, -2.624e-08
2384.4, -2.586e-08
2386.4, -2.588e-08
2388.4, -2.62e-08
2390.4, -2.887e-08
2392.4, -2.455e-08
2394.4, -2.676e-08
2396.4, -2.447e-08
2398.4, -3.076e-08
2400.4, -2.751e-08
2402.4, -2.817e-08
2404.4, -2.805e-08
2406.4, -2.866e-08
2408.4, -2.705e-08
2410.4, -2.879e-08
2412.4, -2.599e-08
2414.4, -2.658e-08
2416.4, -2.785e-08
2418.4, -2.737e-08
2420.4, -2.605e-08
2422.4, -2.275e-08
2424.4, -2.17e-08
2426.4, -2.269e-08
2428.4, -2.434e-08
2430.4, -2.728e-08
2432.4, -2.605e-08
2434.4, -1.905e-08
2436.4, -2.209e-08
2438.4, -2.535e-08
2440.4, -2.508e-08
2442.4, -2.333e-08
2444.4, -2.587e-08
2446.4, -2.715e-08
2448.4, -2.759e-08
2450.4, -2.822e-08
2452.4, -2.795e-08
2454.5, -2.579e-08
2456.5, -2.356e-08
2458.5, -2.326e-08
2460.5, -2.004e-08
2462.5, -2.524e-08
2464.5, -2.442e-08
2466.5, -2.554e-08
2468.5, -2.122e-08
2470.5, -2.718e-08
2472.5, -2.752e-08
2474.5, -2.551e-08
2476.5, -2.488e-08
2478.5, -2.45e-08
2480.5, -2.439e-08
2482.5, -2.534e-08
2484.5, -2.458e-08
2486.5, -2.462e-08
2488.5, -2.635e-08
2490.5, -2.615e-08
2492.5, -2.338e-08
2494.5, -2.393e-08
2496.5, -2.263e-08
2498.5, -2.442e-08
2500.5, -2.551e-08
2502.5, -2.408e-08
2504.5, -2.274e-08
2506.5, -2.3e-08
2508.5, -2.883e-08
2510.5, -2.69e-08
2512.5, -2.489e-08
2514.5, -2.853e-08
2516.5, -2.889e-08
2518.5, -2.995e-08
2520.5, -3.19e-08
2522.5, -3.037e-08
2524.5, -2.848e-08
2526.5, -2.638e-08
2528.5, -2.608e-08
2530.5, -2.649e-08
2532.5, -2.296e-08
2534.5, -2.426e-08
2536.5, -2.417e-08
2538.5, -3.02e-08
2540.5, -2.905e-08
2542.5, -2.853e-08
2544.5, -2.621e-08
2546.5, -2.548e-08
2548.5, -2.391e-08
2550.5, -2.499e-08
2552.5, -2.585e-08
2554.6, -2.521e-08
2556.6, -2.699e-08
2558.6, -2.446e-08
2560.6, -2.447e-08
2562.6, -2.846e-08
2564.6, -2.825e-08
2566.6, -2.92e-08
2568.6, -2.662e-08
2570.6, -2.613e-08
2572.6, -2.533e-08
2574.6, -2.735e-08
2576.6, -2.63e-08
2578.6, -2.939e-08
2580.6, -3.309e-08
2582.6, -2.99e-08
2584.6, -2.959e-08
2586.6, -2.527e-08
2588.6, -2.655e-08
2590.6, -2.779e-08
2592.6, -2.787e-08
2594.6, -2.604e-08
2596.6, -3.074e-08
2598.6, -2.402e-08
2600.6, -2.49e-08
2602.6, -2.755e-08
2604.6, -2.66e-08
2606.6, -2.559e-08
2608.6, -2.474e-08
2610.6, -2.656e-08
2612.6, -2.784e-08
2614.6, -2.67e-08
2616.6, -2.962e-08
2618.6, -3.005e-08
2620.6, -3.134e-08
2622.6, -2.686e-08
2624.6, -2.899e-08
2626.6, -2.711e-08
2628.6, -2.66e-08
2630.6, -2.666e-08
2632.6, -2.927e-08
2634.6, -2.955e-08
2636.6, -3.145e-08
2638.6, -2.826e-08
2640.6, -2.758e-08
2642.6, -2.855e-08
2644.6, -2.661e-08
2646.6, -2.861e-08
2648.6, -2.694e-08
2650.6, -3.184e-08
2652.6, -2.859e-08
2654.7, -2.692e-08
2656.7, -2.762e-08
2658.7, -2.674e-08
2660.7, -2.567e-08
2662.7, -2.611e-08
2664.7, -2.877e-08
2666.7, -2.602e-08
2668.7, -2.76e-08
2670.7, -2.649e-08
2672.7, -2.754e-08
2674.7, -3.004e-08
2676.7, -3.001e-08
2678.7, -2.874e-08
2680.7, -2.965e-08
2682.7, -3.177e-08
2684.7, -2.892e-08
2686.7, -2.752e-08
2688.7, -2.906e-08
2690.7, -3.429e-08
2692.7, -3.009e-08
2694.7, -2.862e-08
2696.7, -2.855e-08
2698.7, -2.896e-08
2700.7, -2.895e-08
2702.7, -2.773e-08
2704.7, -2.858e-08
2706.7, -3.205e-08
2708.7, -2.829e-08
2710.7, -2.989e-08
2712.7, -2.795e-08
2714.7, -2.784e-08
2716.7, -2.768e-08
2718.7, -3.07e-08
2720.7, -2.665e-08
2722.7, -2.756e-08
2724.7, -2.666e-08
2726.7, -2.488e-08
2728.7, -2.4e-08
2730.7, -2.589e-08
2732.7, -2.423e-08
2734.7, -2.682e-08
2736.7, -2.651e-08
2738.7, -2.808e-08
2740.7, -2.606e-08
2742.7, -2.392e-08
2744.7, -3e-08
2746.7, -2.749e-08
2748.7, -2.535e-08
2750.7, -2.523e-08
2752.7, -2.535e-08
2754.8, -2.599e-08
2756.8, -2.888e-08
2758.8, -2.884e-08
2760.8, -2.858e-08
2762.8, -2.698e-08
2764.8, -2.452e-08
2766.8, -2.641e-08
2768.8, -2.687e-08
2770.8, -2.611e-08
2772.8, -2.363e-08
2774.8, -2.126e-08
2776.8, -2.294e-08
2778.8, -2.421e-08
2780.8, -2.306e-08
2782.8, -1.985e-08
2784.8, -2.333e-08
2786.8, -2.255e-08
2788.8, -2.098e-08
2790.8, -2.589e-08
2792.8, -2.554e-08
2794.8, -2.406e-08
2796.8, -2.682e-08
2798.8, -2.264e-08
2800.8, -2.434e-08
2802.8, -2.345e-08
2804.8, -2.232e-08
2806.8, -2.106e-08
2808.8, -2.066e-08
2810.8, -2.132e-08
2812.8, -2.375e-08
2814.8, -2.455e-08
2816.8, -2.267e-08
2818.8, -2.426e-08
2820.8, -2.448e-08
2822.8, -2.248e-08
2824.8, -2.55e-08
2826.8, -2.536e-08
2828.8, -2.568e-08
2830.8, -2.753e-08
2832.8, -2.465e-08
2834.8, -2.469e-08
2836.8, -2.42e-08
2838.8, -2.335e-08
2840.8, -2.282e-08
2842.8, -2.456e-08
2844.8, -2.489e-08
2846.8, -2.446e-08
2848.8, -2.646e-08
2850.8, -2.73e-08
2852.8, -2.4e-08
2854.9, -2.429e-08
2856.9, -2.931e-08
2858.9, -2.54e-08
2860.9, -2.722e-08
2862.9, -2.538e-08
2864.9, -2.563e-08
2866.9, -2.717e-08
2868.9, -3.081e-08
2870.9, -2.795e-08
2872.9, -2.624e-08
2874.9, -2.693e-08
2876.9, -2.571e-08
2878.9, -2.337e-08
2880.9, -2.075e-08
2882.9, -2.189e-08
2884.9, -2.278e-08
2886.9, -2.295e-08
2888.9, -2.248e-08
2890.9, -2.52e-08
2892.9, -2.576e-08
2894.9, -2.505e-08
2896.9, -2.043e-08
2898.9, -2.302e-08
2900.9, -2.224e-08
2902.9, -2.338e-08
2904.9, -2.382e-08
2906.9, -2.748e-08
2908.9, -1.892e-08
2910.9, -2.546e-08
2912.9, -1.883e-08
2914.9, -2.114e-08
2916.9, -2.317e-08
2918.9, -2.367e-08
2920.9, -2.625e-08
2922.9, -2.586e-08
2924.9, -2.198e-08
2926.9, -2.072e-08
2928.9, -2.264e-08
2930.9, -2.295e-08
2932.9, -2.682e-08
2934.9, -2.25e-08
2936.9, -2.061e-08
2938.9, -2.455e-08
2940.9, -1.995e-08
2942.9, -2.225e-08
2944.9, -2.23e-08
2946.9, -2.323e-08
2948.9, -2.06e-08
2950.9, -2.218e-08
2952.9, -2.598e-08
2955.0, -2.068e-08
2957.0, -2.206e-08
2959.0, -2.259e-08
2961.0, -2.607e-08
2963.0, -3.047e-08
2965.0, -2.536e-08
2967.0, -2.739e-08
2969.0, -2.515e-08
2971.0, -2.402e-08
2973.0, -2.669e-08
2975.0, -2.516e-08
2977.0, -2.711e-08
2979.0, -2.611e-08
2981.0, -2.764e-08
2983.0, -2.368e-08
2985.0, -2.386e-08
2987.0, -2.402e-08
2989.0, -2.389e-08
2991.0, -2.417e-08
2993.0, -2.254e-08
2995.0, -2.026e-08
2997.0, -2.195e-08
2999.0, -2.268e-08
3001.0, -2.168e-08
3003.0, -2.556e-08
3005.0, -2.404e-08
3007.0, -2.39e-08
3009.0, -2.582e-08
3011.0, -2.221e-08
3013.0, -2.156e-08
3015.0, -2.428e-08
3017.0, -2.389e-08
3019.0, -2.444e-08
3021.0, -2.151e-08
3023.0, -1.983e-08
3025.0, -2.665e-08
3027.0, -2.344e-08
3029.0, -2.333e-08
3031.0, -2.287e-08
3033.0, -2.292e-08
3035.0, -1.976e-08
3037.0, -2.309e-08
3039.0, -2.292e-08
3041.0, -2.481e-08
3043.0, -2.111e-08
3045.0, -2.286e-08
3047.0, -2.135e-08
3049.0, -2.021e-08
3051.0, -2.1e-08
3053.0, -2.316e-08
3055.1, -2.091e-08
3057.1, -2.492e-08
3059.1, -2.323e-08
3061.1, -2.5e-08
3063.1, -2.491e-08
3065.1, -2.608e-08
3067.1, -2.053e-08
3069.1, -2.464e-08
3071.1, -2.632e-08
3073.1, -2.624e-08
3075.1, -2.396e-08
3077.1, -2.501e-08
3079.1, 5.0914e-07
3081.1, 7.6746e-07
3083.1, 8.0561e-07
3085.1, 9.0788e-07
3087.1, 9.1039e-07
3089.1, 8.7637e-07
3091.1, 8.7957e-07
3093.1, 8.4614e-07
3095.1, 8.0871e-07
3097.1, 9.4959e-07
3099.1, 9.0963e-07
3101.1, 9.2162e-07
3103.1, 9.4666e-07
3105.1, 8.6912e-07
3107.1, 8.3097e-07
3109.1, 9.3214e-07
3111.1, 9.5703e-07
3113.1, 8.7214e-07
3115.1, 9.0807e-07
3117.1, 9.4592e-07
3119.1, 8.8188e-07
3121.1, 9.1658e-07
3123.1, 8.8844e-07
3125.1, 8.8724e-07
3127.1, 1.0197e-06
3129.1, 9.7288e-07
3131.1, 9.2901e-07
3133.1, 1.0175e-06
3135.1, 9.3972e-07
3137.1, 9.0848e-07
3139.1, 9.3685e-07
3141.1, 8.8262e-07
3143.1, 8.7076e-07
3145.1, 8.4114e-07
3147.1, 8.9294e-07
3149.1, 9.5083e-07
3151.1, 9.026e-07
3153.1, 9.2156e-07
3155.2, 9.6622e-07
3157.2, 9.1265e-07
3159.2, 1.0138e-06
3161.2, 9.6113e-07
3163.2, 9.7569e-07
3165.2, 8.6998e-07
3167.2, 9.6526e-07
3169.2, 1.0126e-06
3171.2, 9.1695e-07
3173.2, 1.0191e-06
3175.2, 9.1335e-07
3177.2, 9.3471e-07
3179.2, 9.5747e-07
3181.2, 9.0813e-07
3183.2, 8.9106e-07
3185.2, 9.2692e-07
3187.2, 9.2976e-07
3189.2, 9.6107e-07
3191.2, 8.739e-07
3193.2, 9.1612e-07
3195.2, 9.6372e-07
3197.2, 9.5534e-07
3199.2, 9.2831e-07
3201.2, 9.7837e-07
3203.2, 9.8398e-07
3205.2, 9.0642e-07
3207.2, 9.7245e-07
3209.2, 9.21e-07
3211.2, 8.8943e-07
3213.2, 9.7425e-07
3215.2, 9.1214e-07
3217.2, 9.3828e-07
3219.2, 9.3262e-07
3221.2, 9.7505e-07
3223.2, 8.465e-07
3225.2, 1.0159e-06
3227.2, 9.1439e-07
3229.2, 9.6886e-07
3231.2, 9.0668e-07
3233.2, 9.5684e-07
3235.2, 9.142e-07
3237.2, 9.4496e-07
3239.2, 9.4646e-07
3241.2, 9.2729e-07
3243.2, 9.7076e-07
3245.2, 9.1646e-07
3247.2, 9.1647e-07
3249.2, 8.0986e-07
3251.2, 8.8589e-07
3253.2, 9.5154e-07
3255.3, 9.2508e-07
3257.3, 9.1493e-07
3259.3, 1.0177e-06
3261.3, 8.8561e-07
3263.3, 8.9474e-07
3265.3, 9.1045e-07
3267.3, 1.0872e-06
3269.3, 1.0159e-06
3271.3, 8.7002e-07
3273.3, 1.008e-06
3275.3, 9.1234e-07
3277.3, 9.0655e-07
3279.3, 1.0542e-06
3281.3, 9.6555e-07
3283.3, 9.5167e-07
3285.3, 9.3741e-07
3287.3, 9.256e-07
3289.3, 9.6942e-07
3291.3, 8.9199e-07
3293.3, 9.0473e-07
3295.3, 9.1238e-07
3297.3, 8.8929e-07
3299.3, 9.2853e-07
3301.3, 1.0078e-06
3303.3, 1.0112e-06
3305.3, 9.307e-07
3307.3, 1.07e-06
3309.3, 1.0113e-06
3311.3, 9.4653e-07
3313.3, 9.7077e-07
3315.3, 9.0916e-07
3317.3, 9.4559e-07
3319.3, 9.6791e-07
3321.3, 9.7028e-07
3323.3, 9.4748e-07
3325.3, 1.0006e-06
3327.3, 9.3127e-07
3329.3, 9.54e-07
3331.3, 1.0813e-06
3333.3, 1.0303e-06
3335.3, 1.0627e-06
3337.3, 8.7885e-07
3339.3, 9.4671e-07
3341.3, 9.1832e-07
3343.3, 9.5344e-07
3345.3, 9.4589e-07
3347.3, 9.5752e-07
3349.3, 9.8315e-07
3351.3, 9.4034e-07
3353.3, 9.3031e-07
3355.4, 8.7603e-07
3357.4, 9.0127e-07
3359.4, 1.0602e-06
3361.4, 9.7609e-07
3363.4, 1.0161e-06
3365.4, 1.0039e-06
3367.4, 9.9491e-07
3369.4, 1.0331e-06
3371.4, 9.563e-07
3373.4, 9.3897e-07
3375.4, 1.0282e-06
3377.4, 9.834e-07
3379.4, 8.9434e-07
3381.4, 9.3393e-07
3383.4, 8.8457e-07
3385.4, 9.889e-07
3387.4, 9.9717e-07
3389.4, 9.8023e-07
3391.4, 1.0216e-06
3393.4, 1.0372e-06
3395.4, 1.0117e-06
3397.4, 9.5413e-07
3399.4, 1.07e-06
3401.4, 9.8584e-07
3403.4, 9.3316e-07
3405.4, 1.0592e-06
3407.4, 9.7701e-07
3409.4, 1.0686e-06
3411.4, 1.0174e-06
3413.4, 9.886e-07
3415.4, 9.4541e-07
3417.4, 9.8426e-07
3419.4, 9.1018e-07
3421.4, 1.0215e-06
3423.4, 9.809e-07
3425.4, 1.1318e-06
3427.4, 1.009e-06
3429.4, 9.7145e-07
3431.4, 8.8728e-07
3433.4, 1.0364e-06
3435.4, 1.0259e-06
3437.4, 1.0251e-06
3439.4, 9.6726e-07
3441.4, 9.9529e-07
3443.4, 9.9648e-07
3445.4, 9.4121e-07
3447.4, 1.019e-06
3449.4, 1.0146e-06
3451.4, 9.6629e-07
3453.4, 9.7972e-07
3455.5, 9.2248e-07
3457.5, 1.0077e-06
3459.5, 1.061e-06
3461.5, 9.3382e-07
3463.5, 9.5973e-07
3465.5, 9.1296e-07
3467.5, 9.4554e-07
3469.5, 9.6422e-07
3471.5, 9.9756e-07
3473.5, 1.0231e-06
3475.5, 9.6601e-07
3477.5, 1.0551e-06
3479.5, 9.8743e-07
3481.5, 9.9663e-07
3483.5, 9.1126e-07
3485.5, 1.0332e-06
3487.5, 1.0057e-06
3489.5, 1.0924e-06
3491.5, 9.7015e-07
3493.5, 1.0248e-06
3495.5, 9.9433e-07
3497.5, 9.5028e-07
3499.5, 9.5988e-07
3501.5, 9.6064e-07
3503.5, 1.0161e-06
3505.5, 9.8287e-07
3507.5, 9.7151e-07
3509.5, 1.136e-06
3511.5, 9.5035e-07
3513.5, 9.3098e-07
3515.5, 1.0422e-06
3517.5, 1.0018e-06
3519.5, 9.4695e-07
3521.5, 1.0216e-06
3523.5, 9.2437e-07
3525.5, 9.5356e-07
3527.5, 1.0033e-06
3529.5, 1.0591e-06
3531.5, 1.0426e-06
3533.5, 1.0147e-06
3535.5, 1.0839e-06
3537.5, 9.936e-07
3539.5, 9.886e-07
3541.5, 9.7396e-07
3543.5, 9.6079e-07
3545.5, 9.3216e-07
3547.5, 9.4964e-07
3549.5, 9.74e-07
3551.5, 9.6059e-07
3553.5, 9.3346e-07
3555.6, 1.0308e-06
3557.6, 9.8121e-07
3559.6, 9.7767e-07
3561.6, 9.5991e-07
3563.6, 9.3025e-07
3565.6, 9.71e-07
3567.6, 9.4926e-07
3569.6, 9.4739e-07
3571.6, 9.5894e-07
3573.6, 9.8589e-07
3575.6, 1.045e-06
3577.6, 1.0518e-06
3579.6, 1.0291e-06
3581.6, 9.8099e-07
3583.6, 9.6178e-07
3585.6, 1.0036e-06
3587.6, 9.7977e-07
3589.6, 1.0363e-06
3591.6, 9.7654e-07
3593.6, 8.7531e-07
3595.6, 9.9493e-07
3597.6, 9.8923e-07
3599.6, 9.6423e-07
3601.6, 1.0355e-06
3603.6, 9.2989e-07
3605.6, 1.0847e-06
3607.6, 9.7741e-07
3609.6, 9.51e-07
3611.6, 1.0622e-06
3613.6, 1.0023e-06
3615.6, 1.0488e-06
3617.6, 9.4889e-07
3619.6, 9.5338e-07
3621.6, 9.7496e-07
3623.6, 1.0025e-06
3625.6, 9.7958e-07
3627.6, 9.8998e-07
3629.6, 1.0564e-06
3631.6, 1.0076e-06
3633.6, 9.3423e-07
3635.6, 9.8161e-07
3637.6, 1.0408e-06
3639.6, 1.0268e-06
3641.6, 1.0424e-06
3643.6, 9.9508e-07
3645.6, 1.0289e-06
3647.6, 9.8284e-07
3649.6, 9.6803e-07
3651.6, 9.2112e-07
3653.6, 1.0145e-06
3655.7, 9.859e-07
3657.7, 9.8372e-07
3659.7, 9.2358e-07
3661.7, 1.0088e-06
3663.7, 9.9651e-07
3665.7, 1.012e-06
3667.7, 9.9289e-07
3669.7, 1.0657e-06
3671.7, 9.9808e-07
3673.7, 1.0078e-06
3675.7, 9.9795e-07
3677.7, 9.6559e-07
3679.7, 9.8807e-07
3681.7, 1.043e-06
3683.7, 8.5865e-07
3685.7, 9.9984e-07
3687.7, 1.0372e-06
3689.7, 1.0649e-06
3691.7, 1.0056e-06
3693.7, 9.9773e-07
3695.7, 9.7036e-07
3697.7, 1.0277e-06
3699.7, 1.0582e-06
3701.7, 9.8197e-07
3703.7, 9.8858e-07
3705.7, 1.0292e-06
3707.7, 9.9652e-07
3709.7, 9.773e-07
3711.7, 1.0098e-06
3713.7, 9.6256e-07
3715.7, 9.9147e-07
3717.7, 9.4033e-07
3719.7, 1.0089e-06
3721.7, 1.0383e-06
3723.7, 8.8942e-07
3725.7, 9.9328e-07
3727.7, 1.0757e-06
3729.7, 1.0522e-06
3731.7, 9.1927e-07
3733.7, 9.8977e-07
3735.7, 1.0401e-06
3737.7, 1.0071e-06
3739.7, 9.1635e-07
3741.7, 9.2427e-07
3743.7, 1.0197e-06
3745.7, 1.018e-06
3747.7, 1.0154e-06
3749.7, 9.7099e-07
3751.7, 9.0759e-07
3753.7, 1.0691e-06
3755.8, 1.0485e-06
3757.8, 1.0383e-06
3759.8, 9.6983e-07
3761.8, 1.0492e-06
3763.8, 9.9156e-07
3765.8, 1.0644e-06
3767.8, 9.9598e-07
3769.8, 9.8138e-07
3771.8, 1.0545e-06
3773.8, 1.0563e-06
3775.8, 9.6825e-07
3777.8, 1.0052e-06
3779.8, 9.9931e-07
3781.8, 9.6433e-07
3783.8, 9.4914e-07
3785.8, 9.4207e-07
3787.8, 9.7418e-07
3789.8, 1.0285e-06
3791.8, 9.7185e-07
3793.8, 1.0205e-06
3795.8, 9.5719e-07
3797.8, 9.0736e-07
3799.8, 1.0337e-06
3801.8, 9.7758e-07
3803.8, 9.7587e-07
3805.8, 9.6098e-07
3807.8, 9.7557e-07
3809.8, 9.079e-07
3811.8, 1.0247e-06
3813.8, 9.8437e-07
3815.8, 9.5221e-07
3817.8, 9.4727e-07
3819.8, 1.0081e-06
3821.8, 9.5027e-07
3823.8, 9.4979e-07
3825.8, 9.4209e-07
3827.8, 9.6868e-07
3829.8, 1.0327e-06
3831.8, 9.9857e-07
3833.8, 1.0623e-06
3835.8, 1.0128e-06
3837.8, 1.0405e-06
3839.8, 9.3824e-07
3841.8, 1.0498e-06
3843.8, 1.0033e-06
3845.8, 1.0434e-06
3847.8, 1.0142e-06
3849.8, 1.0658e-06
3851.8, 1.0383e-06
3853.8, 1.0366e-06
3855.9, 1.005e-06
3857.9, 1.0264e-06
3859.9, 9.3502e-07
3861.9, 1.0878e-06
3863.9, 9.967e-07
3865.9, 9.6769e-07
3867.9, 9.692e-07
3869.9, 9.5093e-07
3871.9, 9.6878e-07
3873.9, 1.0172e-06
3875.9, 9.9701e-07
3877.9, 9.8408e-07
3879.9, 9.9052e-07
3881.9, 1.0454e-06
3883.9, 9.7991e-07
3885.9, 1.0031e-06
3887.9, 9.1286e-07
3889.9, 1.0225e-06
3891.9, 1.0541e-06
3893.9, 1.0486e-06
3895.9, 1.0354e-06
3897.9, 9.5495e-07
3899.9, 1.0244e-06
3901.9, 9.5555e-07
3903.9, 9.3233e-07
3905.9, 9.7328e-07
3907.9, 1.0182e-06
3909.9, 1.0469e-06
3911.9, 9.2804e-07
3913.9, 1.0678e-06
3915.9, 9.5186e-07
3917.9, 9.6199e-07
3919.9, 9.5909e-07
3921.9, 9.7612e-07
3923.9, 1.0027e-06
3925.9, 9.9433e-07
3927.9, 1.0354e-06
3929.9, 9.6371e-07
3931.9, 1.0158e-06
3933.9, 9.4868e-07
3935.9, 9.9608e-07
3937.9, 9.6154e-07
3939.9, 1.0284e-06
3941.9, 1.0666e-06
3943.9, 9.6923e-07
3945.9, 1.0531e-06
3947.9, 9.53e-07
3949.9, 9.5461e-07
3951.9, 1.0374e-06
3953.9, 9.591e-07
3956.0, 9.7349e-07
3958.0, 1.0154e-06
3960.0, 1.067e-06
3962.0, 9.7968e-07
3964.0, 1e-06
3966.0, 1.0703e-06
3968.0, 9.9887e-07
3970.0, 1.0751e-06
3972.0, 1.0326e-06
3974.0, 9.4589e-07
3976.0, 1.0026e-06
3978.0, 9.6024e-07
3980.0, 9.5766e-07
3982.0, 1.0248e-06
3984.0, 1.0064e-06
3986.0, 9.9461e-07
3988.0, 9.9147e-07
3990.0, 9.5281e-07
3992.0, 1.0575e-06
3994.0, 9.5632e-07
3996.0, 1.0004e-06
3998.0, 9.3902e-07
4000.0, 1.0961e-06
4002.0, 1.0083e-06
4004.0, 9.7968e-07
4006.0, 9.8114e-07
4008.0, 9.5342e-07
4010.0, 9.9622e-07
4012.0, 1.0854e-06
4014.0, 1.0477e-06
4016.0, 9.6086e-07
4018.0, 1.0408e-06
4020.0, 9.8937e-07
4022.0, 9.3681e-07
4024.0, 9.8225e-07
4026.0, 9.2278e-07
4028.0, 1.0854e-06
4030.0, 1.012e-06
4032.0, 1.024e-06
4034.0, 9.5199e-07
4036.0, 9.6377e-07
4038.0, 9.8524e-07
4040.0, 9.6359e-07
4042.0, 9.9044e-07
4044.0, 1.0152e-06
4046.0, 8.932e-07
4048.0, 1.0382e-06
4050.0, 9.9578e-07
4052.0, 1.0366e-06
4054.0, 1.0356e-06
4056.1, 1.0649e-06
4058.1, 1.064e-06
4060.1, 9.9776e-07
4062.1, 1.0227e-06
4064.1, 1.0372e-06
4066.1, 1.072e-06
4068.1, 1.0142e-06
4070.1, 1.0767e-06
4072.1, 9.5607e-07
4074.1, 9.4765e-07
4076.1, 9.7543e-07
4078.1, 9.6649e-07
4080.1, 5.0047e-07
4082.1, -2.423e-08
4084.1, -2.611e-08
4086.1, -2.567e-08
4088.1, -2.278e-08
4090.1, -2.68e-08
4092.1, -2.081e-08
4094.1, -2.258e-08
4096.1, -2.589e-08
4098.1, -2.366e-08
4100.1, -2.008e-08
4102.1, -2.311e-08
4104.1, -2.448e-08
4106.1, -2.265e-08
4108.1, -2.329e-08
4110.1, -2.596e-08
4112.1, -2.905e-08
4114.1, -2.52e-08
4116.1, -2.357e-08
4118.1, -2.659e-08
4120.1, -2.775e-08
4122.1, -2.387e-08
4124.1, -2.448e-08
4126.1, -2.351e-08
4128.1, -2.356e-08
4130.1, -2.351e-08
4132.1, -2.547e-08
4134.1, -2.453e-08
4136.1, -2.505e-08
4138.1, -2.788e-08
4140.1, -3.039e-08
4142.1, -2.83e-08
4144.1, -2.462e-08
4146.1, -2.681e-08
4148.1, -2.229e-08
4150.1, -2.439e-08
4152.1, -2.198e-08
4154.1, -2.417e-08
4156.2, -2.625e-08
4158.2, -2.952e-08
4160.2, -2.673e-08
4162.2, -2.137e-08
4164.2, -2.616e-08
4166.2, -2.573e-08
4168.2, -1.996e-08
4170.2, -2.382e-08
4172.2, -2.415e-08
4174.2, -2.316e-08
4176.2, -2.461e-08
4178.2, -2.083e-08
4180.2, -2.082e-08
4182.2, -2.461e-08
4184.2, -2.745e-08
4186.2, -2.382e-08
4188.2, -2.766e-08
4190.2, -2.434e-08
4192.2, -2.625e-08
4194.2, -2.762e-08
4196.2, -2.368e-08
4198.2, -2.556e-08
4200.2, -2.302e-08
4202.2, -2.171e-08
4204.2, -2.397e-08
4206.2, -2.504e-08
4208.2, -2.323e-08
4210.2, -2.597e-08
4212.2, -2.517e-08
4214.2, -2.885e-08
4216.2, -2.587e-08
4218.2, -2.227e-08
4220.2, -2.757e-08
4222.2, -2.458e-08
4224.2, -2.696e-08
4226.2, -2.477e-08
4228.2, -2.09e-08
4230.2, -2.627e-08
4232.2, -2.339e-08
4234.2, -2.031e-08
4236.2, -2.324e-08
4238.2, -2.409e-08
4240.2, -2.39e-08
4242.2, -2.675e-08
4244.2, -2.482e-08
4246.2, -2.573e-08
4248.2, -2.56e-08
4250.2, -2.259e-08
4252.2, -2.753e-08
4254.2, -2.447e-08
4256.3, -2.288e-08
4258.3, -2.425e-08
4260.3, -2.232e-08
4262.3, -2.303e-08
4264.3, -2.473e-08
4266.3, -2.362e-08
4268.3, -2.469e-08
4270.3, -2.564e-08
4272.3, -2.487e-08
4274.3, -3.055e-08
4276.3, -2.732e-08
4278.3, -2.508e-08
4280.3, -2.493e-08
4282.3, -2.706e-08
4284.3, -2.857e-08
4286.3, -2.315e-08
4288.3, -2.138e-08
4290.3, -2.46e-08
4292.3, -2.349e-08
4294.3, -2.505e-08
4296.3, -2.82e-08
4298.3, -2.817e-08
4300.3, -2.46e-08
4302.3, -2.558e-08
4304.3, -2.888e-08
4306.3, -2.53e-08
4308.3, -2.309e-08
4310.3, -2.45e-08
4312.3, -2.439e-08
4314.3, -2.51e-08
4316.3, -2.211e-08
4318.3, -2.077e-08
4320.3, -2.488e-08
4322.3, -2.415e-08
4324.3, -2.783e-08
4326.3, -2.24e-08
4328.3, -2.245e-08
4330.3, -2.196e-08
4332.3, -2.719e-08
4334.3, -2.566e-08
4336.3, -2.359e-08
4338.3, -2.656e-08
4340.3, -2.217e-08
4342.3, -2.128e-08
4344.3, -2.659e-08
4346.3, -2.681e-08
4348.3, -2.329e-08
4350.3, -2.114e-08
4352.3, -2.258e-08
4354.3, -1.772e-08
4356.4, -2.08e-08
4358.4, -2.123e-08
4360.4, -1.936e-08
4362.4, -2.253e-08
4364.4, -2.476e-08
4366.4, -2.505e-08
4368.4, -2.336e-08
4370.4, -2.449e-08
4372.4, -2.755e-08
4374.4, -2.395e-08
4376.4, -2.58e-08
4378.4, -2.452e-08
4380.4, -2.254e-08
4382.4, -2.453e-08
4384.4, -2.579e-08
4386.4, -2.583e-08
4388.4, -2.309e-08
4390.4, -2.091e-08
4392.4, -2.325e-08
4394.4, -2.503e-08
4396.4, -2.368e-08
4398.4, -2.619e-08
4400.4, -2.483e-08
4402.4, -2.616e-08
4404.4, -2.993e-08
4406.4, -2.533e-08
4408.4, -2.657e-08
4410.4, -2.773e-08
4412.4, -2.885e-08
4414.4, -2.693e-08
4416.4, -2.837e-08
4418.4, -2.867e-08
4420.4, -2.978e-08
4422.4, -2.613e-08
4424.4, -2.423e-08
4426.4, -2.502e-08
4428.4, -3.093e-08
4430.4, -2.818e-08
4432.4, -2.929e-08
4434.4, -2.452e-08
4436.4, -2.215e-08
4438.4, -2.026e-08
4440.4, -2.146e-08
4442.4, -2.441e-08
4444.4, -2.311e-08
4446.4, -2.435e-08
4448.4, -1.858e-08
4450.4, -1.916e-08
4452.4, -2.037e-08
4454.4, -2.011e-08
4456.5, -2.277e-08
4458.5, -2.253e-08
4460.5, -2.508e-08
4462.5, -2.144e-08
4464.5, -2.326e-08
4466.5, -2.082e-08
4468.5, -2.21e-08
4470.5, -2.087e-08
4472.5, -2.299e-08
4474.5, -2.43e-08
4476.5, -2.436e-08
4478.5, -2.42e-08
4480.5, -2.32e-08
4482.5, -2.56e-08
4484.5, -2.187e-08
4486.5, -1.873e-08
4488.5, -1.869e-08
4490.5, -2.321e-08
4492.5, -2.563e-08
4494.5, -1.818e-08
4496.5, -2.008e-08
4498.5, -2.13e-08
4500.5, -1.993e-08
4502.5, -2.281e-08
4504.5, -2.301e-08
4506.5, -2.414e-08
4508.5, -2.267e-08
4510.5, -2.5e-08
4512.5, -2.355e-08
4514.5, -2.235e-08
4516.5, -2.151e-08
4518.5, -2.5e-08
4520.5, -2.418e-08
4522.5, -2.311e-08
4524.5, -2.339e-08
4526.5, -2.364e-08
4528.5, -2.04e-08
4530.5, -2.372e-08
4532.5, -2.291e-08
4534.5, -2.543e-08
4536.5, -2.283e-08
4538.5, -2.428e-08
4540.5, -2.416e-08
4542.5, -2.386e-08
4544.5, -2.709e-08
4546.5, -2.422e-08
4548.5, -2.643e-08
4550.5, -2.178e-08
4552.5, -2.442e-08
4554.5, -2.541e-08
4556.6, -2.392e-08
4558.6, -2.245e-08
4560.6, -2.452e-08
4562.6, -2.225e-08
4564.6, -2.491e-08
4566.6, -2.252e-08
4568.6, -2.408e-08
4570.6, -2.492e-08
4572.6, -2.188e-08
4574.6, -2.247e-08
4576.6, -2.508e-08
4578.6, -2.226e-08
4580.6, -2.217e-08
4582.6, -2.507e-08
4584.6, -2.352e-08
4586.6, -2.313e-08
4588.6, -2.022e-08
4590.6, -2.544e-08
4592.6, -2.211e-08
4594.6, -2.2e-08
4596.6, -2.617e-08
4598.6, -2.204e-08
4600.6, -1.67e-08
4602.6, -1.994e-08
4604.6, -1.826e-08
4606.6, -2.174e-08
4608.6, -2.186e-08
4610.6, -2.58e-08
4612.6, -2.469e-08
4614.6, -2.448e-08
4616.6, -2.408e-08
4618.6, -2.76e-08
4620.6, -2.174e-08
4622.6, -2.432e-08
4624.6, -2.63e-08
4626.6, -2.921e-08
4628.6, -2.621e-08
4630.6, -2.564e-08
4632.6, -2.664e-08
4634.6, -2.096e-08
4636.6, -2.183e-08
4638.6, -2.498e-08
4640.6, -2.371e-08
4642.6, -2.327e-08
4644.6, -2.639e-08
4646.6, -2.492e-08
4648.6, -2.514e-08
4650.6, -2.636e-08
4652.6, -2.54e-08
4654.6, -2.534e-08
4656.7, -2.455e-08
4658.7, -2.923e-08
4660.7, -2.535e-08
4662.7, -2.335e-08
4664.7, -2.629e-08
4666.7, -2.499e-08
4668.7, -2.448e-08
4670.7, -2.05e-08
4672.7, -2.353e-08
4674.7, -2.391e-08
4676.7, -2.271e-08
4678.7, -2.379e-08
4680.7, -2.241e-08
4682.7, -2.575e-08
4684.7, -2.143e-08
4686.7, -2.252e-08
4688.7, -2.331e-08
4690.7, -2.324e-08
4692.7, -2.398e-08
4694.7, -1.981e-08
4696.7, -2.148e-08
4698.7, -2.067e-08
4700.7, -1.917e-08
4702.7, -2.249e-08
4704.7, -2.114e-08
4706.7, -2.197e-08
4708.7, -2.344e-08
4710.7, -2.511e-08
4712.7, -2.238e-08
4714.7, -2.109e-08
4716.7, -2.193e-08
4718.7, -1.984e-08
4720.7, -2.208e-08
4722.7, -2.287e-08
4724.7, -2.362e-08
4726.7, -2.339e-08
4728.7, -1.818e-08
4730.7, -2.025e-08
4732.7, -2.135e-08
4734.7, -1.969e-08
4736.7, -2.049e-08
4738.7, -2.235e-08
4740.7, -2.119e-08
4742.7, -2.038e-08
4744.7, -2.125e-08
4746.7, -2.334e-08
4748.7, -2.241e-08
4750.7, -2.14e-08
4752.7, -1.996e-08
4754.7, -1.944e-08
4756.8, -2.448e-08
4758.8, -2.488e-08
4760.8, -2.521e-08
4762.8, -2.352e-08
4764.8, -2.082e-08
4766.8, -2.411e-08
4768.8, -2.534e-08
4770.8, -2.172e-08
4772.8, -2.332e-08
4774.8, -2.037e-08
4776.8, -2.194e-08
4778.8, -1.985e-08
4780.8, -2.121e-08
4782.8, -1.87e-08
4784.8, -2.071e-08
4786.8, -2.218e-08
4788.8, -2.253e-08
4790.8, -2.147e-08
4792.8, -2.301e-08
4794.8, -1.973e-08
4796.8, -2.439e-08
4798.8, -2.603e-08
4800.8, -2.657e-08
4802.8, -2.465e-08
4804.8, -2.567e-08
4806.8, -2.212e-08
4808.8, -2.548e-08
4810.8, -2.375e-08
4812.8, -2.364e-08
4814.8, -2.366e-08
4816.8, -2.089e-08
4818.8, -2.429e-08
4820.8, -2.777e-08
4822.8, -2.522e-08
4824.8, -2.531e-08
4826.8, -2.542e-08
4828.8, -2.312e-08
4830.8, -2.273e-08
4832.8, -2.731e-08
4834.8, -2.607e-08
4836.8, -2.916e-08
4838.8, -2.65e-08
4840.8, -2.629e-08
4842.8, -2.987e-08
4844.8, -2.787e-08
4846.8, -2.732e-08
4848.8, -2.271e-08
4850.8, -2.422e-08
4852.8, -2.344e-08
4854.8, -2.43e-08
4856.9, -2.601e-08
4858.9, -2.528e-08
4860.9, -2.388e-08
4862.9, -2.426e-08
4864.9, -1.973e-08
4866.9, -2.257e-08
4868.9, -2.511e-08
4870.9, -2.228e-08
4872.9, -2.442e-08
4874.9, -2.377e-08
4876.9, -2.722e-08
4878.9, -2.707e-08
4880.9, -2.515e-08
4882.9, -2.481e-08
4884.9, -2.012e-08
4886.9, -2.835e-08
4888.9, -2.444e-08
4890.9, -2.481e-08
4892.9, -2.211e-08
4894.9, -2.112e-08
4896.9, -2.112e-08
4898.9, -2.333e-08
4900.9, -2.282e-08
4902.9, -2.394e-08
4904.9, -2.486e-08
4906.9, -2.63e-08
4908.9, -2.552e-08
4910.9, -2.377e-08
4912.9, -2.528e-08
4914.9, -2.812e-08
4916.9, -2.291e-08
4918.9, -2.37e-08
4920.9, -2.418e-08
4922.9, -2.338e-08
4924.9, -2.529e-08
4926.9, -2.401e-08
4928.9, -2.637e-08
4930.9, -2.598e-08
4932.9, -2.55e-08
4934.9, -2.246e-08
4936.9, -2.411e-08
4938.9, -2.164e-08
4940.9, -2.305e-08
4942.9, -2.768e-08
4944.9, -2.441e-08
4946.9, -2.586e-08
4948.9, -2.355e-08
4950.9, -2.525e-08
4952.9, -2.922e-08
4954.9, -3.031e-08
4957.0, -2.71e-08
4959.0, -2.426e-08
4961.0, -2.437e-08
4963.0, -2.595e-08
4965.0, -2.475e-08
4967.0, -2.15e-08
4969.0, -2.359e-08
4971.0, -2.754e-08
4973.0, -2.739e-08
4975.0, -2.486e-08
4977.0, -2.344e-08
4979.0, -2.294e-08
4981.0, -2.178e-08
4983.0, -2.293e-08
4985.0, -2.615e-08
4987.0, -2.182e-08
4989.0, -2.238e-08
4991.0, -2.4e-08
4993.0, -2.305e-08
4995.0, -2.389e-08
4997.0, -2.23e-08
4999.0, -2.453e-08
5001.0, -2.307e-08
5003.0, -2.563e-08
5005.0, -2.465e-08
5007.0, -2.25e-08
5009.0, -2.455e-08
5011.0, -2.105e-08
5013.0, -2.306e-08
5015.0, -2.23e-08
5017.0, -1.94e-08
5019.0, -2.44e-08
5021.0, -2.434e-08
5023.0, -2.637e-08
5025.0, -2.844e-08
5027.0, -2.493e-08
5029.0, -2.69e-08
5031.0, -2.546e-08
5033.0, -2.638e-08
5035.0, -2.716e-08
5037.0, -2.485e-08
5039.0, -2.731e-08
5041.0, -2.815e-08
5043.0, -2.531e-08
5045.0, -2.342e-08
5047.0, -2.561e-08
5049.0, -2.249e-08
5051.0, -2.606e-08
5053.0, -2.33e-08
5055.0, -2.474e-08
5057.1, -2.307e-08
5059.1, -2.273e-08
5061.1, -2.265e-08
5063.1, -2.529e-08
5065.1, -2.339e-08
5067.1, -2.199e-08
5069.1, -2.208e-08
5071.1, -2.29e-08
5073.1, -2.423e-08
5075.1, -2.314e-08
5077.1, -2.356e-08
5079.1, -2.727e-08
5081.1, -3.008e-08
5083.1, -2.762e-08
5085.1, -2.957e-08
5087.1, -2.953e-08
5089.1, -2.815e-08
5091.1, -2.903e-08
5093.1, -2.876e-08
5095.1, -3.109e-08
5097.1, -3.054e-08
5099.1, -3.114e-08
5101.1, -2.811e-08
5103.1, -2.901e-08
5105.1, -2.957e-08
5107.1, -2.991e-08
5109.1, -2.402e-08
5111.1, 9.1837e-07
5113.1, 8.9845e-07
5115.1, 9.0528e-07
5117.1, 9.4369e-07
5119.1, 9.1837e-07
5121.1, 8.6924e-07
5123.1, 9.012e-07
5125.1, 8.7932e-07
5127.1, 8.1556e-07
5129.1, 8.5223e-07
5131.1, 8.8467e-07
5133.1, 8.9307e-07
5135.1, 8.8612e-07
5137.1, 8.7594e-07
5139.1, 8.9924e-07
5141.1, 8.9461e-07
5143.1, 9.1781e-07
5145.1, 9.34e-07
5147.1, 9.4447e-07
5149.1, 8.7206e-07
5151.1, 9.28e-07
5153.1, 8.0412e-07
5155.1, 9.0862e-07
5157.2, 9.4691e-07
5159.2, 9.3437e-07
5161.2, 9.6981e-07
5163.2, 9.3447e-07
5165.2, 9.1758e-07
5167.2, 9.1745e-07
5169.2, 8.999e-07
5171.2, 8.5224e-07
5173.2, 8.378e-07
5175.2, 9.2704e-07
5177.2, 9.0209e-07
5179.2, 9.2454e-07
5181.2, 9.0303e-07
5183.2, 9.0174e-07
5185.2, 9.401e-07
5187.2, 9.5776e-07
5189.2, 9.1347e-07
5191.2, 8.991e-07
5193.2, 9.0136e-07
5195.2, 9.8564e-07
5197.2, 8.8872e-07
5199.2, 8.6624e-07
5201.2, 8.7449e-07
5203.2, 9.5945e-07
5205.2, 9.3543e-07
5207.2, 9.6003e-07
5209.2, 9.2476e-07
5211.2, 8.6592e-07
5213.2, 9.0903e-07
5215.2, 8.5223e-07
5217.2, 9.2602e-07
5219.2, 9.1449e-07
5221.2, 8.8356e-07
5223.2, 9.1518e-07
5225.2, 8.8337e-07
5227.2, 9.2176e-07
5229.2, 9.6821e-07
5231.2, 8.775e-07
5233.2, 9.2513e-07
5235.2, 9.4481e-07
5237.2, 9.2215e-07
5239.2, 9.853e-07
5241.2, 9.6373e-07
5243.2, 8.5881e-07
5245.2, 9.0385e-07
5247.2, 9.1383e-07
5249.2, 9.1302e-07
5251.2, 1.0044e-06
5253.2, 8.7257e-07
5255.2, 8.9196e-07
5257.3, 9.3981e-07
5259.3, 9.2084e-07
5261.3, 8.5619e-07
5263.3, 9.7599e-07
5265.3, 9.0302e-07
5267.3, 9.2235e-07
5269.3, 8.395e-07
5271.3, 9.6262e-07
5273.3, 9.4299e-07
5275.3, 9.6885e-07
5277.3, 1.0143e-06
5279.3, 8.8e-07
5281.3, 8.7682e-07
5283.3, 8.5783e-07
5285.3, 9.1537e-07
5287.3, 9.8493e-07
5289.3, 9.3983e-07
5291.3, 9.817e-07
5293.3, 8.8695e-07
5295.3, 9.0621e-07
5297.3, 8.628e-07
5299.3, 9.5863e-07
5301.3, 9.5303e-07
5303.3, 9.0757e-07
5305.3, 9.6005e-07
5307.3, 9.8085e-07
5309.3, 9.1387e-07
5311.3, 9.0018e-07
5313.3, 9.3864e-07
5315.3, 9.1979e-07
5317.3, 9.1746e-07
5319.3, 9.2654e-07
5321.3, 9.2899e-07
5323.3, 1.0067e-06
5325.3, 9.4553e-07
5327.3, 9.0778e-07
5329.3, 9.472e-07
5331.3, 9.3967e-07
5333.3, 9.9935e-07
5335.3, 9.3338e-07
5337.3, 8.6637e-07
5339.3, 9.1446e-07
5341.3, 1.0122e-06
5343.3, 1.0309e-06
5345.3, 9.6012e-07
5347.3, 9.4154e-07
5349.3, 8.4187e-07
5351.3, 1.0505e-06
5353.3, 9.1508e-07
5355.3, 9.7991e-07
5357.4, 9.0391e-07
5359.4, 1.0048e-06
5361.4, 9.3786e-07
5363.4, 1.011e-06
5365.4, 9.5041e-07
5367.4, 1.0111e-06
5369.4, 9.8475e-07
5371.4, 9.6512e-07
5373.4, 9.742e-07
5375.4, 9.0108e-07
5377.4, 9.4691e-07
5379.4, 9.8629e-07
5381.4, 9.4474e-07
5383.4, 9.7988e-07
5385.4, 9.1659e-07
5387.4, 9.2088e-07
5389.4, 9.4121e-07
5391.4, 9.3969e-07
5393.4, 1.0135e-06
5395.4, 1.0486e-06
5397.4, 9.0978e-07
5399.4, 8.77e-07
5401.4, 8.9436e-07
5403.4, 9.4465e-07
5405.4, 1.0589e-06
5407.4, 9.4055e-07
5409.4, 9.6248e-07
5411.4, 9.5387e-07
5413.4, 1.0214e-06
5415.4, 9.4561e-07
5417.4, 9.9293e-07
5419.4, 8.9168e-07
5421.4, 9.2834e-07
5423.4, 9.2739e-07
5425.4, 9.0778e-07
5427.4, 9.1309e-07
5429.4, 9.8384e-07
5431.4, 1.009e-06
5433.4, 1.0275e-06
5435.4, 9.3931e-07
5437.4, 9.4014e-07
5439.4, 9.2025e-07
5441.4, 1.0005e-06
5443.4, 8.9846e-07
5445.4, 9.8487e-07
5447.4, 1.0189e-06
5449.4, 9.7015e-07
5451.4, 1.0345e-06
5453.4, 9.8227e-07
5455.4, 9.5727e-07
5457.5, 1.0305e-06
5459.5, 8.9882e-07
5461.5, 9.2566e-07
5463.5, 9.0523e-07
5465.5, 9.9497e-07
5467.5, 9.8123e-07
5469.5, 1.0062e-06
5471.5, 9.4891e-07
5473.5, 8.7356e-07
5475.5, 9.84e-07
5477.5, 9.5903e-07
5479.5, 9.8937e-07
5481.5, 1.0043e-06
5483.5, 9.5351e-07
5485.5, 9.5099e-07
5487.5, 1.0294e-06
5489.5, 9.4965e-07
5491.5, 9.4218e-07
5493.5, 9.5388e-07
5495.5, 9.6978e-07
5497.5, 1.0026e-06
5499.5, 1.0162e-06
5501.5, 8.985e-07
5503.5, 1.0183e-06
5505.5, 1.0058e-06
5507.5, 8.9928e-07
5509.5, 1.0273e-06
5511.5, 9.911e-07
5513.5, 9.7699e-07
5515.5, 8.959e-07
5517.5, 9.4571e-07
5519.5, 9.491e-07
5521.5, 9.6761e-07
5523.5, 9.5926e-07
5525.5, 9.8877e-07
5527.5, 8.7969e-07
5529.5, 9.3021e-07
5531.5, 1.0196e-06
5533.5, 1.0069e-06
5535.5, 9.6144e-07
5537.5, 9.6312e-07
5539.5, 9.407e-07
5541.5, 9.7114e-07
5543.5, 9.7642e-07
5545.5, 9.1224e-07
5547.5, 9.6849e-07
5549.5, 9.6591e-07
5551.5, 9.9094e-07
5553.5, 9.1091e-07
5555.5, 9.3972e-07
5557.6, 1.0035e-06
5559.6, 9.395e-07
5561.6, 9.2327e-07
5563.6, 9.87e-07
5565.6, 9.8191e-07
5567.6, 9.5989e-07
5569.6, 1.0624e-06
5571.6, 9.4506e-07
5573.6, 9.8312e-07
5575.6, 9.9036e-07
5577.6, 9.2993e-07
5579.6, 9.3075e-07
5581.6, 1.0317e-06
5583.6, 1.0379e-06
5585.6, 9.5854e-07
5587.6, 9.7471e-07
5589.6, 9.4876e-07
5591.6, 9.4088e-07
5593.6, 1.0152e-06
5595.6, 9.8646e-07
5597.6, 8.7998e-07
5599.6, 8.8986e-07
5601.6, 9.3788e-07
5603.6, 9.5895e-07
5605.6, 9.2795e-07
5607.6, 9.5862e-07
5609.6, 9.5505e-07
5611.6, 9.9077e-07
5613.6, 9.6922e-07
5615.6, 9.5733e-07
5617.6, 9.524e-07
5619.6, 9.8424e-07
5621.6, 1.005e-06
5623.6, 8.8999e-07
5625.6, 9.9996e-07
5627.6, 9.7508e-07
5629.6, 9.6613e-07
5631.6, 9.7154e-07
5633.6, 9.8676e-07
5635.6, 9.9225e-07
5637.6, 9.8537e-07
5639.6, 9.6122e-07
5641.6, 9.6715e-07
5643.6, 9.1072e-07
5645.6, 9.769e-07
5647.6, 1.0042e-06
5649.6, 9.9599e-07
5651.6, 9.7373e-07
5653.6, 9.4762e-07
5655.6, 9.4283e-07
5657.7, 9.147e-07
5659.7, 9.7596e-07
5661.7, 9.6286e-07
5663.7, 1.0286e-06
5665.7, 9.7887e-07
5667.7, 9.8854e-07
5669.7, 9.6661e-07
5671.7, 9.6962e-07
5673.7, 9.4613e-07
5675.7, 9.0103e-07
5677.7, 9.8034e-07
5679.7, 9.7023e-07
5681.7, 9.74e-07
5683.7, 9.8696e-07
5685.7, 9.7264e-07
5687.7, 9.7317e-07
5689.7, 8.8356e-07
5691.7, 9.4069e-07
5693.7, 9.4798e-07
5695.7, 9.5397e-07
5697.7, 9.214e-07
5699.7, 9.5629e-07
5701.7, 9.955e-07
5703.7, 9.4664e-07
5705.7, 9.861e-07
5707.7, 8.7993e-07
5709.7, 9.9524e-07
5711.7, 9.5358e-07
5713.7, 9.1043e-07
5715.7, 9.5685e-07
5717.7, 9.2851e-07
5719.7, 9.2762e-07
5721.7, 9.8335e-07
5723.7, 9.5871e-07
5725.7, 9.3315e-07
5727.7, 9.4275e-07
5729.7, 9.5015e-07
5731.7, 9.8292e-07
5733.7, 9.0489e-07
5735.7, 9.2238e-07
5737.7, 9.646e-07
5739.7, 9.4893e-07
5741.7, 9.1855e-07
5743.7, 9.3258e-07
5745.7, 9.1725e-07
5747.7, 8.6791e-07
5749.7, 1.0001e-06
5751.7, 9.6548e-07
5753.7, 1.0377e-06
5755.7, 1.0424e-06
5757.8, 1.0024e-06
5759.8, 9.8599e-07
5761.8, 9.3648e-07
5763.8, 9.8203e-07
5765.8, 9.314e-07
5767.8, 9.5028e-07
5769.8, 1.0167e-06
5771.8, 9.9578e-07
5773.8, 1.0567e-06
5775.8, 1.0222e-06
5777.8, 9.6817e-07
5779.8, 1.0181e-06
5781.8, 9.6911e-07
5783.8, 1.004e-06
5785.8, 9.6877e-07
5787.8, 9.4794e-07
5789.8, 1.0223e-06
5791.8, 8.9222e-07
5793.8, 1.0113e-06
5795.8, 9.4787e-07
5797.8, 1.0219e-06
5799.8, 9.7488e-07
5801.8, 1.0189e-06
5803.8, 9.1767e-07
5805.8, 9.5508e-07
5807.8, 8.9211e-07
5809.8, 9.2773e-07
5811.8, 9.2481e-07
5813.8, 1.0283e-06
5815.8, 9.0935e-07
5817.8, 9.8427e-07
5819.8, 1.0187e-06
5821.8, 9.6913e-07
5823.8, 1.009e-06
5825.8, 9.2994e-07
5827.8, 1.0207e-06
5829.8, 9.6876e-07
5831.8, 1.0315e-06
5833.8, 9.5282e-07
5835.8, 9.4326e-07
5837.8, 9.4567e-07
5839.8, 1.0184e-06
5841.8, 9.359e-07
5843.8, 1.0502e-06
5845.8, 9.5229e-07
5847.8, 9.361e-07
5849.8, 9.2634e-07
5851.8, 9.4788e-07
5853.8, 9.6077e-07
5855.8, 9.8878e-07
5857.9, 9.351e-07
5859.9, 9.4706e-07
5861.9, 9.5886e-07
5863.9, 9.0295e-07
5865.9, 9.3542e-07
5867.9, 9.5812e-07
5869.9, 9.7624e-07
5871.9, 9.8436e-07
5873.9, 9.7535e-07
5875.9, 1.0161e-06
5877.9, 9.2926e-07
5879.9, 9.6142e-07
5881.9, 1.0645e-06
5883.9, 1.027e-06
5885.9, 9.6218e-07
5887.9, 1.0243e-06
5889.9, 9.8569e-07
5891.9, 9.3392e-07
5893.9, 9.9853e-07
5895.9, 8.8982e-07
5897.9, 9.3927e-07
5899.9, 9.7059e-07
5901.9, 9.6788e-07
5903.9, 9.1201e-07
5905.9, 9.6519e-07
5907.9, 1.0481e-06
5909.9, 9.6374e-07
5911.9, 9.5995e-07
5913.9, 9.8857e-07
5915.9, 9.4324e-07
5917.9, 1.0146e-06
5919.9, 9.9799e-07
5921.9, 9.6188e-07
5923.9, 9.5562e-07
5925.9, 9.3581e-07
5927.9, 9.4965e-07
5929.9, 9.6223e-07
5931.9, 9.4788e-07
5933.9, 9.7315e-07
5935.9, 9.4726e-07
5937.9, 9.8122e-07
5939.9, 9.8341e-07
5941.9, 9.7045e-07
5943.9, 1.0049e-06
5945.9, 1.0189e-06
5947.9, 9.8355e-07
5949.9, 9.265e-07
5951.9, 9.5383e-07
5953.9, 1.0021e-06
5955.9, 1.0297e-06
5958.0, 9.8823e-07
5960.0, 9.1067e-07
5962.0, 8.6666e-07
5964.0, 8.9595e-07
5966.0, 1.0247e-06
5968.0, 1.0084e-06
5970.0, 9.8547e-07
5972.0, 9.3769e-07
5974.0, 9.446e-07
5976.0, 9.8493e-07
5978.0, 9.2597e-07
5980.0, 9.4589e-07
5982.0, 9.3896e-07
5984.0, 9.5113e-07
5986.0, 9.4963e-07
5988.0, 9.903e-07
5990.0, 1.005e-06
5992.0, 9.8926e-07
5994.0, 1.018e-06
5996.0, 1.0005e-06
5998.0, 9.9798e-07
6000.0, 9.9966e-07
6002.0, 9.3111e-07
6004.0, 9.8859e-07
6006.0, 9.1879e-07
6008.0, 9.4708e-07
6010.0, 9.6686e-07
6012.0, 1.0093e-06
6014.0, 9.6428e-07
6016.0, 9.9929e-07
6018.0, 9.8697e-07
6020.0, 1.0025e-06
6022.0, 1.0353e-06
6024.0, 9.2222e-07
6026.0, 9.6998e-07
6028.0, 9.5241e-07
6030.0, 9.7944e-07
6032.0, 9.5779e-07
6034.0, 9.8679e-07
6036.0, 9.7636e-07
6038.0, 1.0063e-06
6040.0, 9.3897e-07
6042.0, 9.2308e-07
6044.0, 9.3088e-07
6046.0, 9.6944e-07
6048.0, 9.2925e-07
6050.0, 9.9131e-07
6052.0, 9.9551e-07
6054.0, 9.9851e-07
6056.0, 8.8617e-07
6058.1, 9.6881e-07
6060.1, 9.9339e-07
6062.1, 9.3648e-07
6064.1, 9.6792e-07
6066.1, 9.3786e-07
6068.1, 1.0168e-06
6070.1, 9.864e-07
6072.1, 9.7234e-07
6074.1, 9.7267e-07
6076.1, 9.7356e-07
6078.1, 9.5173e-07
6080.1, 9.8296e-07
6082.1, 9.4927e-07
6084.1, 1.0065e-06
6086.1, 9.591e-07
6088.1, 1.0394e-06
6090.1, 9.6862e-07
6092.1, 1.0112e-06
6094.1, 1.0114e-06
6096.1, 9.5739e-07
6098.1, 1.0367e-06
6100.1, 9.8549e-07
6102.1, 9.836e-07
6104.1, 9.7084e-07
6106.1, 9.645e-07
6108.1, 9.2611e-07
6110.1, 8.1869e-07
6112.1, -2.378e-08
6114.1, -2.362e-08
6116.1, -2.492e-08
6118.1, -2.633e-08
6120.1, -2.368e-08
6122.1, -2.523e-08
6124.1, -2.472e-08
6126.1, -2.392e-08
6128.1, -2.606e-08
6130.1, -2.391e-08
6132.1, -2.569e-08
6134.1, -2.618e-08
6136.1, -3.246e-08
6138.1, -2.796e-08
6140.1, -3.26e-08
6142.1, -3.057e-08
6144.1, -2.982e-08
6146.1, -3.006e-08
6148.1, -3.197e-08
6150.1, -2.69e-08
6152.1, -2.666e-08
6154.1, -3.022e-08
6156.1, -2.854e-08
6158.2, -3.202e-08
6160.2, -3.269e-08
6162.2, -3.137e-08
6164.2, -3.264e-08
6166.2, -3.327e-08
6168.2, -3.081e-08
6170.2, -3.444e-08
6172.2, -3.437e-08
6174.2, -3.102e-08
6176.2, -2.927e-08
6178.2, -2.94e-08
6180.2, -3.13e-08
6182.2, -3.148e-08
6184.2, -2.909e-08
6186.2, -3.399e-08
6188.2, -2.924e-08
6190.2, -2.795e-08
6192.2, -3.097e-08
6194.2, -3.211e-08
6196.2, -3.108e-08
6198.2, -2.815e-08
6200.2, -2.624e-08
6202.2, -2.516e-08
6204.2, -2.833e-08
6206.2, -2.832e-08
6208.2, -3.112e-08
6210.2, -2.526e-08
6212.2, -2.847e-08
6214.2, -2.62e-08
6216.2, -2.492e-08
6218.2, -2.621e-08
6220.2, -2.849e-08
6222.2, -2.703e-08
6224.2, -2.656e-08
6226.2, -2.681e-08
6228.2, -3e-08
6230.2, -2.856e-08
6232.2, -2.996e-08
6234.2, -2.983e-08
6236.2, -3.367e-08
6238.2, -2.799e-08
6240.2, -2.979e-08
6242.2, -3.018e-08
6244.2, -2.865e-08
6246.2, -2.936e-08
6248.2, -2.596e-08
6250.2, -2.795e-08
6252.2, -2.791e-08
6254.2, -2.77e-08
6256.2, -2.795e-08
6258.3, -2.423e-08
6260.3, -2.692e-08
6262.3, -2.684e-08
6264.3, -3.026e-08
6266.3, -2.579e-08
6268.3, -2.408e-08
6270.3, -2.388e-08
6272.3, -2.217e-08
6274.3, -2.039e-08
6276.3, -2.845e-08
6278.3, -2.453e-08
6280.3, -2.182e-08
6282.3, -2.155e-08
6284.3, -2.237e-08
6286.3, -2.178e-08
6288.3, -2.716e-08
6290.3, -2.273e-08
6292.3, -2.446e-08
6294.3, -2.411e-08
6296.3, -2.618e-08
6298.3, -2.408e-08
6300.3, -2.641e-08
6302.3, -2.679e-08
6304.3, -3.07e-08
6306.3, -2.696e-08
6308.3, -3.014e-08
6310.3, -2.626e-08
6312.3, -2.864e-08
6314.3, -2.735e-08
6316.3, -2.676e-08
6318.3, -3.058e-08
6320.3, -2.657e-08
6322.3, -2.736e-08
6324.3, -2.748e-08
6326.3, -2.955e-08
6328.3, -2.76e-08
6330.3, -2.896e-08
6332.3, -2.833e-08
6334.3, -2.77e-08
6336.3, -2.752e-08
6338.3, -2.917e-08
6340.3, -3.036e-08
6342.3, -2.877e-08
6344.3, -3.195e-08
6346.3, -2.743e-08
6348.3, -2.622e-08
6350.3, -2.915e-08
6352.3, -2.895e-08
6354.3, -2.914e-08
6356.3, -2.8e-08
6358.4, -2.815e-08
6360.4, -3.243e-08
6362.4, -3.054e-08
6364.4, -3.049e-08
6366.4, -2.949e-08
6368.4, -2.757e-08
6370.4, -3.16e-08
6372.4, -2.924e-08
6374.4, -2.693e-08
6376.4, -2.908e-08
6378.4, -2.745e-08
6380.4, -2.832e-08
6382.4, -3.015e-08
6384.4, -3.032e-08
6386.4, -3.06e-08
6388.4, -3.044e-08
6390.4, -3.105e-08
6392.4, -3.01e-08
6394.4, -2.964e-08
6396.4, -3.263e-08
6398.4, -3.291e-08
6400.4, -2.986e-08
6402.4, -3.18e-08
6404.4, -3.143e-08
6406.4, -3.047e-08
6408.4, -2.937e-08
6410.4, -2.955e-08
6412.4, -3.151e-08
6414.4, -3.056e-08
6416.4, -2.658e-08
6418.4, -2.655e-08
6420.4, -2.842e-08
6422.4, -2.639e-08
6424.4, -2.536e-08
6426.4, -2.871e-08
6428.4, -2.677e-08
6430.4, -2.69e-08
6432.4, -2.784e-08
6434.4, -2.695e-08
6436.4, -3.236e-08
6438.4, -2.662e-08
6440.4, -2.815e-08
6442.4, -3.273e-08
6444.4, -3.341e-08
6446.4, -2.973e-08
6448.4, -2.722e-08
6450.4, -2.945e-08
6452.4, -2.885e-08
6454.4, -2.994e-08
6456.4, -2.799e-08
6458.5, -3.079e-08
6460.5, -2.616e-08
6462.5, -2.783e-08
6464.5, -3.058e-08
6466.5, -3.067e-08
6468.5, -3.242e-08
6470.5, -2.709e-08
6472.5, -2.935e-08
6474.5, -2.833e-08
6476.5, -2.713e-08
6478.5, -3.016e-08
6480.5, -2.828e-08
6482.5, -2.804e-08
6484.5, -3.339e-08
6486.5, -2.965e-08
6488.5, -2.801e-08
6490.5, -2.58e-08
6492.5, -2.6e-08
6494.5, -2.799e-08
6496.5, -2.973e-08
6498.5, -2.849e-08
6500.5, -2.853e-08
6502.5, -2.687e-08
6504.5, -2.642e-08
6506.5, -2.795e-08
6508.5, -2.742e-08
6510.5, -2.411e-08
6512.5, -2.626e-08
6514.5, -2.591e-08
6516.5, -2.761e-08
6518.5, -2.733e-08
6520.5, -3.06e-08
6522.5, -2.671e-08
6524.5, -3.176e-08
6526.5, -2.806e-08
6528.5, -2.786e-08
6530.5, -2.532e-08
6532.5, -2.787e-08
6534.5, -2.767e-08
6536.5, -2.518e-08
6538.5, -2.494e-08
6540.5, -2.563e-08
6542.5, -2.465e-08
6544.5, -2.542e-08
6546.5, -2.482e-08
6548.5, -2.227e-08
6550.5, -2.513e-08
6552.5, -2.217e-08
6554.5, -2.315e-08
6556.5, -2.032e-08
6558.6, -2.353e-08
6560.6, -2.294e-08
6562.6, -2.588e-08
6564.6, -2.599e-08
6566.6, -2.871e-08
6568.6, -2.606e-08
6570.6, -2.563e-08
6572.6, -2.42e-08
6574.6, -2.627e-08
6576.6, -2.252e-08
6578.6, -2.754e-08
6580.6, -2.223e-08
6582.6, -2.387e-08
6584.6, -2.544e-08
6586.6, -2.403e-08
6588.6, -2.713e-08
6590.6, -2.279e-08
6592.6, -2.584e-08
6594.6, -2.286e-08
6596.6, -2.447e-08
6598.6, -2.899e-08
6600.6, -2.906e-08
6602.6, -2.783e-08
6604.6, -2.834e-08
6606.6, -2.801e-08
6608.6, -2.61e-08
6610.6, -2.839e-08
6612.6, -2.421e-08
6614.6, -2.261e-08
6616.6, -2.855e-08
6618.6, -2.634e-08
6620.6, -2.579e-08
6622.6, -2.623e-08
6624.6, -2.759e-08
6626.6, -2.565e-08
6628.6, -2.675e-08
6630.6, -2.762e-08
6632.6, -2.791e-08
6634.6, -2.888e-08
6636.6, -2.966e-08
6638.6, -2.654e-08
6640.6, -2.744e-08
6642.6, -2.79e-08
6644.6, -2.632e-08
6646.6, -2.893e-08
6648.6, -3.17e-08
6650.6, -2.615e-08
6652.6, -2.89e-08
6654.6, -2.826e-08
6656.6, -3.213e-08
6658.7, -3.075e-08
6660.7, -3.366e-08
6662.7, -3.045e-08
6664.7, -3.041e-08
6666.7, -3.385e-08
6668.7, -2.944e-08
6670.7, -2.881e-08
6672.7, -2.952e-08
6674.7, -3.041e-08
6676.7, -2.675e-08
6678.7, -2.941e-08
6680.7, -3.071e-08
6682.7, -2.815e-08
6684.7, -2.67e-08
6686.7, -2.891e-08
6688.7, -2.841e-08
6690.7, -2.52e-08
6692.7, -2.755e-08
6694.7, -2.645e-08
6696.7, -2.976e-08
6698.7, -2.756e-08
6700.7, -2.498e-08
6702.7, -2.505e-08
6704.7, -2.908e-08
6706.7, -3.072e-08
6708.7, -2.873e-08
6710.7, -2.735e-08
6712.7, -2.725e-08
6714.7, -2.426e-08
6716.7, -3.078e-08
6718.7, -3.078e-08
6720.7, -2.688e-08
6722.7, -3.017e-08
6724.7, -2.569e-08
6726.7, -2.82e-08
6728.7, -2.901e-08
6730.7, -2.81e-08
6732.7, -2.901e-08
6734.7, -2.664e-08
6736.7, -3.042e-08
6738.7, -2.756e-08
6740.7, -3.095e-08
6742.7, -3.03e-08
6744.7, -2.882e-08
6746.7, -3.203e-08
6748.7, -3.234e-08
6750.7, -2.633e-08
6752.7, -2.557e-08
6754.7, -2.745e-08
6756.7, -2.903e-08
6758.8, -3.157e-08
6760.8, -2.688e-08
6762.8, -2.995e-08
6764.8, -3.185e-08
6766.8, -3.234e-08
6768.8, -2.771e-08
6770.8, -2.662e-08
6772.8, -2.586e-08
6774.8, -2.993e-08
6776.8, -2.71e-08
6778.8, -3.101e-08
6780.8, -3.242e-08
6782.8, -3.122e-08
6784.8, -3.21e-08
6786.8, -2.884e-08
6788.8, -3.166e-08
6790.8, -3.073e-08
6792.8, -3.165e-08
6794.8, -2.793e-08
6796.8, -2.862e-08
6798.8, -2.759e-08
6800.8, -2.953e-08
6802.8, -3.123e-08
6804.8, -2.912e-08
6806.8, -3.092e-08
6808.8, -3.055e-08
6810.8, -2.925e-08
6812.8, -2.63e-08
6814.8, -2.821e-08
6816.8, -2.75e-08
6818.8, -2.995e-08
6820.8, -3.059e-08
6822.8, -2.823e-08
6824.8, -2.895e-08
6826.8, -3.178e-08
6828.8, -3.137e-08
6830.8, -3.574e-08
6832.8, -2.875e-08
6834.8, -2.784e-08
6836.8, -2.815e-08
6838.8, -3.145e-08
6840.8, -3.014e-08
6842.8, -2.843e-08
6844.8, -3.165e-08
6846.8, -3.2e-08
6848.8, -2.999e-08
6850.8, -2.967e-08
6852.8, -2.922e-08
6854.8, -2.917e-08
6856.8, -3.074e-08
6858.9, -2.948e-08
6860.9, -2.634e-08
6862.9, -3.185e-08
6864.9, -3.037e-08
6866.9, -2.654e-08
6868.9, -3.387e-08
6870.9, -2.943e-08
6872.9, -3.208e-08
6874.9, -3.405e-08
6876.9, -3.139e-08
6878.9, -3.011e-08
6880.9, -3.15e-08
6882.9, -3.184e-08
6884.9, -3.146e-08
6886.9, -3.518e-08
6888.9, -2.955e-08
6890.9, -2.583e-08
6892.9, -2.818e-08
6894.9, -3.007e-08
6896.9, -3.049e-08
6898.9, -2.822e-08
6900.9, -2.751e-08
6902.9, -2.782e-08
6904.9, -2.774e-08
6906.9, -3.191e-08
6908.9, -3.09e-08
6910.9, -3.175e-08
6912.9, -2.947e-08
6914.9, -3.178e-08
6916.9, -3.462e-08
6918.9, -3.202e-08
6920.9, -2.894e-08
6922.9, -2.719e-08
6924.9, -2.816e-08
6926.9, -3.063e-08
6928.9, -2.723e-08
6930.9, -2.917e-08
6932.9, -2.467e-08
6934.9, -2.622e-08
6936.9, -2.273e-08
6938.9, -2.621e-08
6940.9, -2.826e-08
6942.9, -2.542e-08
6944.9, -2.446e-08
6946.9, -2.717e-08
6948.9, -2.967e-08
6950.9, -2.847e-08
6952.9, -2.969e-08
6954.9, -2.642e-08
6956.9, -2.698e-08
6959.0, -2.58e-08
6961.0, -2.747e-08
6963.0, -2.607e-08
6965.0, -2.759e-08
6967.0, -2.31e-08
6969.0, -2.937e-08
6971.0, -2.547e-08
6973.0, -2.911e-08
6975.0, -2.964e-08
6977.0, -2.745e-08
6979.0, -2.872e-08
6981.0, -2.672e-08
6983.0, -2.697e-08
6985.0, -2.537e-08
6987.0, -2.675e-08
6989.0, -2.701e-08
6991.0, -3.038e-08
6993.0, -2.534e-08
6995.0, -2.757e-08
6997.0, -2.611e-08
6999.0, -3.039e-08
7001.0, -2.83e-08
7003.0, -2.866e-08
7005.0, -2.991e-08
7007.0, -3.085e-08
7009.0, -2.827e-08
7011.0, -2.77e-08
7013.0, -2.87e-08
7015.0, -2.985e-08
7017.0, -3.018e-08
7019.0, -2.507e-08
7021.0, -2.761e-08
7023.0, -2.723e-08
7025.0, -2.775e-08
7027.0, -3.064e-08
7029.0, -2.443e-08
7031.0, -2.757e-08
7033.0, -2.62e-08
7035.0, -2.743e-08
7037.0, -2.765e-08
7039.0, -2.65e-08
7041.0, -2.603e-08
7043.0, -2.403e-08
7045.0, -2.447e-08
7047.0, -3.197e-08
7049.0, -2.707e-08
7051.0, -2.583e-08
7053.0, -2.939e-08
7055.0, -2.678e-08
7057.0, -2.611e-08
7059.1, -2.917e-08
7061.1, -3.171e-08
7063.1, -2.928e-08
7065.1, -3.077e-08
7067.1, -3.046e-08
7069.1, -2.831e-08
7071.1, -2.565e-08
7073.1, -2.896e-08
7075.1, -2.805e-08
7077.1, -2.971e-08
7079.1, -2.919e-08
7081.1, -2.805e-08
7083.1, -2.628e-08
7085.1, -2.567e-08
7087.1, -2.679e-08
7089.1, -3.026e-08
7091.1, -3.063e-08
7093.1, -3.07e-08
7095.1, -3.055e-08
7097.1, -2.722e-08
7099.1, -2.53e-08
7101.1, -2.911e-08
7103.1, -3.21e-08
7105.1, -2.795e-08
7107.1, -2.611e-08
7109.1, -2.91e-08
7111.1, -2.879e-08
7113.1, -3.084e-08
7115.1, -2.778e-08
7117.1, -2.966e-08
7119.1, -2.975e-08
7121.1, -2.855e-08
7123.1, -2.993e-08
7125.1, -3.005e-08
7127.1, -2.868e-08
7129.1, -3.007e-08
7131.1, -3.016e-08
7133.1, 4.2354e-07
7135.1, 8.7537e-07
7137.1, 9.1869e-07
7139.1, 8.8142e-07
7141.1, 9.1232e-07
7143.1, 9.0449e-07
7145.1, 8.6237e-07
7147.1, 9.3593e-07
7149.1, 8.8819e-07
7151.1, 9.6671e-07
7153.1, 9.3218e-07
7155.1, 9.4019e-07
7157.1, 8.053e-07
7159.2, 8.8386e-07
7161.2, 8.9569e-07
7163.2, 9.1225e-07
7165.2, 8.8865e-07
7167.2, 9.7989e-07
7169.2, 8.8032e-07
7171.2, 9.0561e-07
7173.2, 8.5757e-07
7175.2, 9.0416e-07
7177.2, 8.68e-07
7179.2, 9.2728e-07
7181.2, 8.7958e-07
7183.2, 9.1172e-07
7185.2, 9.3651e-07
7187.2, 9.5463e-07
7189.2, 9.8047e-07
7191.2, 9.4169e-07
7193.2, 9.3182e-07
7195.2, 9.0407e-07
7197.2, 8.9373e-07
7199.2, 8.7264e-07
7201.2, 9.035e-07
7203.2, 8.5224e-07
7205.2, 9.1776e-07
7207.2, 9.568e-07
7209.2, 9.2293e-07
7211.2, 1.0179e-06
7213.2, 9.281e-07
7215.2, 9.3829e-07
7217.2, 9.2451e-07
7219.2, 9.3358e-07
7221.2, 9.3726e-07
7223.2, 9.0954e-07
7225.2, 9.2557e-07
7227.2, 8.5113e-07
7229.2, 8.9279e-07
7231.2, 9.9727e-07
7233.2, 9.5012e-07
7235.2, 8.2417e-07
7237.2, 8.8693e-07
7239.2, 9.5116e-07
7241.2, 9.023e-07
7243.2, 9.2857e-07
7245.2, 9.4477e-07
7247.2, 1.0038e-06
7249.2, 9.9918e-07
7251.2, 8.9651e-07
7253.2, 9.6218e-07
7255.2, 9.7845e-07
7257.2, 9.1429e-07
7259.3, 8.813e-07
7261.3, 9.6475e-07
7263.3, 9.3452e-07
7265.3, 9.8308e-07
7267.3, 8.5746e-07
7269.3, 9.4744e-07
7271.3, 9.3011e-07
7273.3, 8.9381e-07
7275.3, 9.8544e-07
7277.3, 8.8105e-07
7279.3, 1.0096e-06
7281.3, 9.3849e-07
7283.3, 9.5992e-07
7285.3, 9.1262e-07
7287.3, 9.9192e-07
7289.3, 9.535e-07
7291.3, 1.0369e-06
7293.3, 9.5299e-07
7295.3, 9.9529e-07
7297.3, 9.1173e-07
7299.3, 9.435e-07
7301.3, 8.8936e-07
7303.3, 9.38e-07
7305.3, 9.4133e-07
7307.3, 9.8508e-07
7309.3, 9.5329e-07
7311.3, 9.3362e-07
7313.3, 9.1738e-07
7315.3, 9.2825e-07
7317.3, 9.106e-07
7319.3, 1.015e-06
7321.3, 9.6902e-07
7323.3, 9.4959e-07
7325.3, 9.0439e-07
7327.3, 1.0045e-06
7329.3, 9.5728e-07
7331.3, 9.4314e-07
7333.3, 9.6775e-07
7335.3, 1.0149e-06
7337.3, 9.1962e-07
7339.3, 8.8152e-07
7341.3, 9.7336e-07
7343.3, 9.3611e-07
7345.3, 9.1314e-07
7347.3, 9.0924e-07
7349.3, 9.8741e-07
7351.3, 8.8843e-07
7353.3, 9.3332e-07
7355.3, 9.2493e-07
7357.3, 9.0099e-07
7359.4, 9.453e-07
7361.4, 9.3993e-07
7363.4, 9.1447e-07
7365.4, 9.9367e-07
7367.4, 9.3956e-07
7369.4, 9.3162e-07
7371.4, 1.0509e-06
7373.4, 9.2213e-07
7375.4, 9.846e-07
7377.4, 9.6608e-07
7379.4, 9.5399e-07
7381.4, 9.2034e-07
7383.4, 1.0161e-06
7385.4, 1.0196e-06
7387.4, 1.0245e-06
7389.4, 1.0054e-06
7391.4, 9.5839e-07
7393.4, 1.0026e-06
7395.4, 8.827e-07
7397.4, 1.005e-06
7399.4, 9.6055e-07
7401.4, 1.0395e-06
7403.4, 9.285e-07
7405.4, 9.8066e-07
7407.4, 9.9875e-07
7409.4, 9.0944e-07
7411.4, 1.0035e-06
7413.4, 9.5254e-07
7415.4, 9.2719e-07
7417.4, 9.2376e-07
7419.4, 9.9953e-07
7421.4, 9.4488e-07
7423.4, 1.0725e-06
7425.4, 9.2636e-07
7427.4, 9.9816e-07
7429.4, 9.6861e-07
7431.4, 9.7232e-07
7433.4, 9.4036e-07
7435.4, 1.0406e-06
7437.4, 1.0898e-06
7439.4, 1.0148e-06
7441.4, 9.6688e-07
7443.4, 1.0007e-06
7445.4, 9.1966e-07
7447.4, 9.3946e-07
7449.4, 9.3683e-07
7451.4, 1.0231e-06
7453.4, 1.0365e-06
7455.4, 9.5461e-07
7457.4, 9.6335e-07
7459.5, 9.8049e-07
7461.5, 9.8611e-07
7463.5, 9.9453e-07
7465.5, 1.0243e-06
7467.5, 1.0541e-06
7469.5, 9.6486e-07
7471.5, 9.6792e-07
7473.5, 9.7734e-07
7475.5, 9.6893e-07
7477.5, 9.6466e-07
7479.5, 9.4126e-07
7481.5, 9.6532e-07
7483.5, 1.0577e-06
7485.5, 1.1459e-06
7487.5, 1.044e-06
7489.5, 9.628e-07
7491.5, 9.9941e-07
7493.5, 1.0605e-06
7495.5, 9.6573e-07
7497.5, 9.5633e-07
7499.5, 9.6033e-07
7501.5, 9.7883e-07
7503.5, 1.0216e-06
7505.5, 1.0753e-06
7507.5, 9.5583e-07
7509.5, 9.7316e-07
7511.5, 1.0216e-06
7513.5, 1.0182e-06
7515.5, 9.2567e-07
7517.5, 1.0228e-06
7519.5, 9.2639e-07
7521.5, 9.4474e-07
7523.5, 1.0314e-06
7525.5, 9.4689e-07
7527.5, 9.9786e-07
7529.5, 9.4148e-07
7531.5, 8.7749e-07
7533.5, 1.0348e-06
7535.5, 9.726e-07
7537.5, 9.8058e-07
7539.5, 1.0336e-06
7541.5, 1.0175e-06
7543.5, 9.8989e-07
7545.5, 9.7729e-07
7547.5, 1.0416e-06
7549.5, 9.5538e-07
7551.5, 9.9655e-07
7553.5, 9.9409e-07
7555.5, 9.8589e-07
7557.5, 9.7836e-07
7559.6, 9.9831e-07
7561.6, 1.0296e-06
7563.6, 9.0086e-07
7565.6, 1.0314e-06
7567.6, 1.0335e-06
7569.6, 1.0003e-06
7571.6, 9.9628e-07
7573.6, 9.7399e-07
7575.6, 1.0545e-06
7577.6, 1.0236e-06
7579.6, 1.0117e-06
7581.6, 1.0305e-06
7583.6, 9.8222e-07
7585.6, 9.9583e-07
7587.6, 1.0126e-06
7589.6, 9.5127e-07
7591.6, 1.0547e-06
7593.6, 9.6241e-07
7595.6, 9.2488e-07
7597.6, 1.0047e-06
7599.6, 1.0709e-06
7601.6, 1.0178e-06
7603.6, 1.0182e-06
7605.6, 1.0077e-06
7607.6, 9.6903e-07
7609.6, 1.044e-06
7611.6, 9.6027e-07
7613.6, 1.0167e-06
7615.6, 9.3047e-07
7617.6, 1.0417e-06
7619.6, 1.0564e-06
7621.6, 9.8428e-07
7623.6, 1.038e-06
7625.6, 9.6491e-07
7627.6, 8.9504e-07
7629.6, 9.4002e-07
7631.6, 1.0418e-06
7633.6, 1.0051e-06
7635.6, 9.3417e-07
7637.6, 9.5874e-07
7639.6, 1.0041e-06
7641.6, 1.0153e-06
7643.6, 1.0378e-06
7645.6, 9.8995e-07
7647.6, 1.0333e-06
7649.6, 9.0572e-07
7651.6, 9.3419e-07
7653.6, 9.9422e-07
7655.6, 1.0058e-06
7657.6, 9.9563e-07
7659.7, 1.0025e-06
7661.7, 9.8863e-07
7663.7, 9.743e-07
7665.7, 1.0488e-06
7667.7, 1.0096e-06
7669.7, 9.8778e-07
7671.7, 9.3136e-07
7673.7, 1.0541e-06
7675.7, 1.0784e-06
7677.7, 9.9999e-07
7679.7, 1.051e-06
7681.7, 8.8168e-07
7683.7, 1.0419e-06
7685.7, 9.5828e-07
7687.7, 9.9189e-07
7689.7, 9.6846e-07
7691.7, 8.5759e-07
7693.7, 1.0393e-06
7695.7, 9.9619e-07
7697.7, 9.9945e-07
7699.7, 9.7905e-07
7701.7, 1.0416e-06
7703.7, 1.0362e-06
7705.7, 9.9413e-07
7707.7, 9.6893e-07
7709.7, 1.1023e-06
7711.7, 1.0129e-06
7713.7, 9.717e-07
7715.7, 1.0173e-06
7717.7, 1.1143e-06
7719.7, 1.0196e-06
7721.7, 1.0235e-06
7723.7, 9.8921e-07
7725.7, 9.9454e-07
7727.7, 9.2194e-07
7729.7, 1.0366e-06
7731.7, 9.4209e-07
7733.7, 8.9694e-07
7735.7, 1.0032e-06
7737.7, 1.004e-06
7739.7, 9.8828e-07
7741.7, 9.8556e-07
7743.7, 1.0324e-06
7745.7, 1.0232e-06
7747.7, 1.054e-06
7749.7, 1.0053e-06
7751.7, 9.2268e-07
7753.7, 1.0449e-06
7755.7, 1.0177e-06
7757.7, 1.0157e-06
7759.8, 1.0499e-06
7761.8, 1.1057e-06
7763.8, 9.547e-07
7765.8, 1.0488e-06
7767.8, 1.0175e-06
7769.8, 9.8878e-07
7771.8, 9.5078e-07
7773.8, 9.3271e-07
7775.8, 9.4158e-07
7777.8, 9.8177e-07
7779.8, 1.0399e-06
7781.8, 9.5344e-07
7783.8, 9.6749e-07
7785.8, 1.0215e-06
7787.8, 1.016e-06
7789.8, 1.0079e-06
7791.8, 1.0827e-06
7793.8, 1.0227e-06
7795.8, 9.6976e-07
7797.8, 1.0003e-06
7799.8, 1.0243e-06
7801.8, 1.0144e-06
7803.8, 1.0488e-06
7805.8, 1.0257e-06
7807.8, 1.0013e-06
7809.8, 9.9285e-07
7811.8, 1.0108e-06
7813.8, 9.7843e-07
7815.8, 9.9643e-07
7817.8, 1.0522e-06
7819.8, 9.6966e-07
7821.8, 1.0828e-06
7823.8, 9.5336e-07
7825.8, 9.9209e-07
7827.8, 9.8004e-07
7829.8, 1.0078e-06
7831.8, 9.9469e-07
7833.8, 1.0739e-06
7835.8, 1.111e-06
7837.8, 1.0485e-06
7839.8, 1.0427e-06
7841.8, 9.1358e-07
7843.8, 9.7324e-07
7845.8, 1.0453e-06
7847.8, 9.2802e-07
7849.8, 1.0231e-06
7851.8, 1.0625e-06
7853.8, 1.0335e-06
7855.8, 1.0825e-06
7857.8, 9.9394e-07
7859.9, 1.0375e-06
7861.9, 1.0697e-06
7863.9, 1.0598e-06
7865.9, 1.022e-06
7867.9, 9.9665e-07
7869.9, 1.0922e-06
7871.9, 1.0578e-06
7873.9, 9.5967e-07
7875.9, 9.9411e-07
7877.9, 9.9245e-07
7879.9, 1.0058e-06
7881.9, 9.8117e-07
7883.9, 9.3497e-07
7885.9, 1.0694e-06
7887.9, 1.0483e-06
7889.9, 1.0284e-06
7891.9, 9.714e-07
7893.9, 1.0347e-06
7895.9, 1.0363e-06
7897.9, 9.4516e-07
7899.9, 1.1131e-06
7901.9, 1.0023e-06
7903.9, 1.0727e-06
7905.9, 1.0482e-06
7907.9, 1.0202e-06
7909.9, 9.7519e-07
7911.9, 9.2883e-07
7913.9, 1.0548e-06
7915.9, 9.5502e-07
7917.9, 9.8229e-07
7919.9, 1.011e-06
7921.9, 9.7778e-07
7923.9, 1.0493e-06
7925.9, 1.0571e-06
7927.9, 1.058e-06
7929.9, 9.4374e-07
7931.9, 1.0277e-06
7933.9, 9.3479e-07
7935.9, 1.0016e-06
7937.9, 9.7187e-07
7939.9, 1.0422e-06
7941.9, 9.88e-07
7943.9, 9.5019e-07
7945.9, 1.046e-06
7947.9, 9.9597e-07
7949.9, 9.9958e-07
7951.9, 9.077e-07
7953.9, 9.6826e-07
7955.9, 1.1082e-06
7957.9, 9.8506e-07
7960.0, 1.0114e-06
7962.0, 9.9609e-07
7964.0, 9.6299e-07
7966.0, 1.0192e-06
7968.0, 1.0497e-06
7970.0, 1.0526e-06
7972.0, 9.8693e-07
7974.0, 9.4616e-07
7976.0, 9.4457e-07
7978.0, 9.7486e-07
7980.0, 8.9802e-07
7982.0, 1.0892e-06
7984.0, 9.4484e-07
7986.0, 1.0182e-06
7988.0, 1.1192e-06
7990.0, 9.587e-07
7992.0, 1.0262e-06
7994.0, 1.0623e-06
7996.0, 1.0352e-06
7998.0, 9.9097e-07
8000.0, 9.7816e-07
8002.0, 1.0414e-06
8004.0, 1.0164e-06
8006.0, 1.0242e-06
8008.0, 1.0381e-06
8010.0, 1.0849e-06
8012.0, 1.0403e-06
8014.0, 1.0733e-06
8016.0, 1.027e-06
8018.0, 9.7437e-07
8020.0, 9.566e-07
8022.0, 9.2373e-07
8024.0, 1.0487e-06
8026.0, 9.6146e-07
8028.0, 1.0137e-06
8030.0, 1.0501e-06
8032.0, 1.007e-06
8034.0, 9.8976e-07
8036.0, 1.0155e-06
8038.0, 1.0593e-06
8040.0, 9.7249e-07
8042.0, 1.0343e-06
8044.0, 1.0405e-06
8046.0, 1.0052e-06
8048.0, 9.8148e-07
8050.0, 1.0699e-06
8052.0, 9.8595e-07
8054.0, 1.0219e-06
8056.0, 9.0744e-07
8058.0, 9.7577e-07
8060.1, 1.0185e-06
8062.1, 1.0649e-06
8064.1, 9.8332e-07
8066.1, 1.0954e-06
8068.1, 9.7798e-07
8070.1, 1.0063e-06
8072.1, 1.0024e-06
8074.1, 9.818e-07
8076.1, 9.563e-07
8078.1, 1.1164e-06
8080.1, 9.5795e-07
8082.1, 1.0546e-06
8084.1, 9.6719e-07
8086.1, 9.2488e-07
8088.1, 9.8725e-07
8090.1, 1.0121e-06
8092.1, 1.055e-06
8094.1, 9.9231e-07
8096.1, 9.6709e-07
8098.1, 1.0389e-06
8100.1, 9.909e-07
8102.1, 9.8536e-07
8104.1, 9.8268e-07
8106.1, 9.5766e-07
8108.1, 1.0083e-06
8110.1, 1.1303e-06
8112.1, 1.0953e-06
8114.1, 1.0793e-06
8116.1, 1.0929e-06
8118.1, 9.9463e-07
8120.1, 1.0026e-06
8122.1, 1.043e-06
8124.1, 9.6969e-07
8126.1, 1.0058e-06
8128.1, 9.9583e-07
8130.1, 9.6778e-07
8132.1, 1.0046e-06
8134.1, 4.8855e-07
8136.1, -3.001e-08
8138.1, -3.223e-08
8140.1, -3.136e-08
8142.1, -3.272e-08
8144.1, -3.088e-08
8146.1, -3.129e-08
8148.1, -3.121e-08
8150.1, -3.145e-08
8152.1, -2.977e-08
8154.1, -3.022e-08
8156.1, -2.724e-08
8158.1, -3.068e-08
8160.2, -3.033e-08
8162.2, -2.709e-08
8164.2, -2.733e-08
8166.2, -2.936e-08
8168.2, -2.949e-08
8170.2, -2.714e-08
8172.2, -2.915e-08
8174.2, -2.083e-08
8176.2, -3.073e-08
8178.2, -2.61e-08
8180.2, -3.014e-08
8182.2, -2.878e-08
8184.2, -3.156e-08
8186.2, -2.834e-08
8188.2, -2.751e-08
8190.2, -3.141e-08
8192.2, -3.363e-08
8194.2, -2.897e-08
8196.2, -3.111e-08
8198.2, -2.93e-08
8200.2, -2.769e-08
8202.2, -2.885e-08
8204.2, -2.925e-08
8206.2, -3.212e-08
8208.2, -2.986e-08
8210.2, -2.977e-08
8212.2, -3.075e-08
8214.2, -2.742e-08
8216.2, -2.621e-08
8218.2, -2.818e-08
8220.2, -3.06e-08
8222.2, -2.932e-08
8224.2, -2.923e-08
8226.2, -2.913e-08
8228.2, -3.062e-08
8230.2, -2.852e-08
8232.2, -2.833e-08
8234.2, -2.966e-08
8236.2, -3.211e-08
8238.2, -3.258e-08
8240.2, -3.04e-08
8242.2, -3.311e-08
8244.2, -3.366e-08
8246.2, -3.062e-08
8248.2, -2.956e-08
8250.2, -3.399e-08
8252.2, -3.274e-08
8254.2, -3.302e-08
8256.2, -2.781e-08
8258.2, -2.549e-08
8260.3, -2.607e-08
8262.3, -2.809e-08
8264.3, -3.121e-08
8266.3, -2.872e-08
8268.3, -2.812e-08
8270.3, -2.82e-08
8272.3, -2.576e-08
8274.3, -2.713e-08
8276.3, -2.655e-08
8278.3, -2.377e-08
8280.3, -2.89e-08
8282.3, -2.388e-08
8284.3, -2.721e-08
8286.3, -2.954e-08
8288.3, -2.882e-08
8290.3, -2.94e-08
8292.3, -2.65e-08
8294.3, -2.517e-08
8296.3, -2.957e-08
8298.3, -2.675e-08
8300.3, -2.707e-08
8302.3, -3.072e-08
8304.3, -2.995e-08
8306.3, -2.456e-08
8308.3, -2.458e-08
8310.3, -2.753e-08
8312.3, -2.913e-08
8314.3, -3.022e-08
8316.3, -2.854e-08
8318.3, -3.018e-08
8320.3, -2.615e-08
8322.3, -2.532e-08
8324.3, -3.051e-08
8326.3, -2.992e-08
8328.3, -2.723e-08
8330.3, -3.043e-08
8332.3, -2.732e-08
8334.3, -2.627e-08
8336.3, -2.954e-08
8338.3, -3.096e-08
8340.3, -3.13e-08
8342.3, -2.884e-08
8344.3, -2.957e-08
8346.3, -2.958e-08
8348.3, -2.812e-08
8350.3, -2.708e-08
8352.3, -2.698e-08
8354.3, -2.688e-08
8356.3, -2.537e-08
8358.3, -2.846e-08
8360.4, -2.557e-08
8362.4, -2.639e-08
8364.4, -3.017e-08
8366.4, -2.734e-08
8368.4, -2.608e-08
8370.4, -2.79e-08
8372.4, -2.862e-08
8374.4, -2.81e-08
8376.4, -2.885e-08
8378.4, -3.026e-08
8380.4, -2.945e-08
8382.4, -3.009e-08
8384.4, -2.908e-08
8386.4, -2.654e-08
8388.4, -2.561e-08
8390.4, -2.808e-08
8392.4, -2.899e-08
8394.4, -2.674e-08
8396.4, -2.645e-08
8398.4, -2.773e-08
8400.4, -2.729e-08
8402.4, -2.871e-08
8404.4, -2.671e-08
8406.4, -2.556e-08
8408.4, -2.8e-08
8410.4, -2.898e-08
8412.4, -3.118e-08
8414.4, -2.941e-08
8416.4, -3e-08
8418.4, -3.288e-08
8420.4, -3.386e-08
8422.4, -2.657e-08
8424.4, -3.094e-08
8426.4, -3.095e-08
8428.4, -3e-08
8430.4, -2.875e-08
8432.4, -2.725e-08
8434.4, -2.757e-08
8436.4, -3.006e-08
8438.4, -2.951e-08
8440.4, -2.654e-08
8442.4, -2.651e-08
8444.4, -2.842e-08
8446.4, -2.871e-08
8448.4, -2.905e-08
8450.4, -3.113e-08
8452.4, -2.946e-08
8454.4, -3.151e-08
8456.4, -2.708e-08
8458.4, -2.904e-08
8460.5, -2.926e-08
8462.5, -3.129e-08
8464.5, -3.075e-08
8466.5, -3.148e-08
8468.5, -3.338e-08
8470.5, -3.062e-08
8472.5, -3.027e-08
8474.5, -3.128e-08
8476.5, -3.093e-08
8478.5, -3.028e-08
8480.5, -2.822e-08
8482.5, -2.539e-08
8484.5, -3.297e-08
8486.5, -2.913e-08
8488.5, -3.035e-08
8490.5, -2.953e-08
8492.5, -2.838e-08
8494.5, -2.703e-08
8496.5, -2.863e-08
8498.5, -2.819e-08
8500.5, -3.306e-08
8502.5, -3.414e-08
8504.5, -2.941e-08
8506.5, -3.492e-08
8508.5, -3.217e-08
8510.5, -3.067e-08
8512.5, -2.888e-08
8514.5, -3.122e-08
8516.5, -3.204e-08
8518.5, -3.196e-08
8520.5, -2.944e-08
8522.5, -2.897e-08
8524.5, -2.677e-08
8526.5, -2.863e-08
8528.5, -2.77e-08
8530.5, -2.911e-08
8532.5, -2.992e-08
8534.5, -3.29e-08
8536.5, -3.048e-08
8538.5, -3.045e-08
8540.5, -3.332e-08
8542.5, -2.97e-08
8544.5, -2.872e-08
8546.5, -3.107e-08
8548.5, -3.371e-08
8550.5, -3.461e-08
8552.5, -3.162e-08
8554.5, -3.025e-08
8556.5, -3.252e-08
8558.5, -2.793e-08
8560.6, -3.027e-08
8562.6, -3.209e-08
8564.6, -3.243e-08
8566.6, -3.185e-08
8568.6, -2.912e-08
8570.6, -3.293e-08
8572.6, -3.078e-08
8574.6, -2.634e-08
8576.6, -3.093e-08
8578.6, -3.026e-08
8580.6, -3.203e-08
8582.6, -3.007e-08
8584.6, -3.324e-08
8586.6, -3.144e-08
8588.6, -3.288e-08
8590.6, -3.515e-08
8592.6, -3.142e-08
8594.6, -3.297e-08
8596.6, -3.401e-08
8598.6, -3.225e-08
8600.6, -3.234e-08
8602.6, -3.083e-08
8604.6, -3.476e-08
8606.6, -2.957e-08
8608.6, -3.26e-08
8610.6, -3.013e-08
8612.6, -3.129e-08
8614.6, -3.384e-08
8616.6, -3.259e-08
8618.6, -3.281e-08
8620.6, -3.413e-08
8622.6, -3.382e-08
8624.6, -2.881e-08
8626.6, -2.896e-08
8628.6, -3.11e-08
8630.6, -3.297e-08
8632.6, -3.072e-08
8634.6, -2.721e-08
8636.6, -2.833e-08
8638.6, -2.869e-08
8640.6, -2.896e-08
8642.6, -2.938e-08
8644.6, -3.241e-08
8646.6, -3.38e-08
8648.6, -3.36e-08
8650.6, -3.42e-08
8652.6, -3.411e-08
8654.6, -3.216e-08
8656.6, -3.004e-08
8658.6, -3.523e-08
8660.7, -3.294e-08
8662.7, -2.91e-08
8664.7, -2.943e-08
8666.7, -3.022e-08
8668.7, -3.09e-08
8670.7, -3.128e-08
8672.7, -2.837e-08
8674.7, -3.148e-08
8676.7, -3.164e-08
8678.7, -3.275e-08
8680.7, -3.454e-08
8682.7, -3.343e-08
8684.7, -3.46e-08
8686.7, -3.52e-08
8688.7, -3.234e-08
8690.7, -3.335e-08
8692.7, -3.477e-08
8694.7, -3.773e-08
8696.7, -3.676e-08
8698.7, -3.6e-08
8700.7, -3.354e-08
8702.7, -3.5e-08
8704.7, -3.098e-08
8706.7, -3.152e-08
8708.7, -3.418e-08
8710.7, -3.362e-08
8712.7, -3.36e-08
8714.7, -3.084e-08
8716.7, -3.295e-08
8718.7, -3.624e-08
8720.7, -3.338e-08
8722.7, -3.14e-08
8724.7, -3.248e-08
8726.7, -2.831e-08
8728.7, -2.896e-08
8730.7, -3.046e-08
8732.7, -2.841e-08
8734.7, -2.673e-08
8736.7, -2.991e-08
8738.7, -2.707e-08
8740.7, -3.147e-08
8742.7, -2.94e-08
8744.7, -2.997e-08
8746.7, -2.888e-08
8748.7, -3.34e-08
8750.7, -3.308e-08
8752.7, -3.4e-08
8754.7, -3.219e-08
8756.7, -3.15e-08
8758.7, -3.422e-08
8760.8, -3.196e-08
8762.8, -2.915e-08
8764.8, -3.433e-08
8766.8, -3.366e-08
8768.8, -3.326e-08
8770.8, -3.439e-08
8772.8, -3.055e-08
8774.8, -3.332e-08
8776.8, -2.948e-08
8778.8, -3.368e-08
8780.8, -3.173e-08
8782.8, -3.045e-08
8784.8, -3.05e-08
8786.8, -3.318e-08
8788.8, -3.018e-08
8790.8, -3.504e-08
8792.8, -3.147e-08
8794.8, -3.202e-08
8796.8, -2.711e-08
8798.8, -3.228e-08
8800.8, -3.357e-08
8802.8, -3.152e-08
8804.8, -3.217e-08
8806.8, -3.323e-08
8808.8, -3.25e-08
8810.8, -3.351e-08
8812.8, -3.166e-08
8814.8, -3.241e-08
8816.8, -3.338e-08
8818.8, -3.639e-08
8820.8, -3.481e-08
8822.8, -3.478e-08
8824.8, -3.234e-08
8826.8, -3.196e-08
8828.8, -3.256e-08
8830.8, -3.064e-08
8832.8, -3.201e-08
8834.8, -3.289e-08
8836.8, -3.091e-08
8838.8, -3.273e-08
8840.8, -3.249e-08
8842.8, -3.487e-08
8844.8, -3.082e-08
8846.8, -3.253e-08
8848.8, -3.358e-08
8850.8, -3.109e-08
8852.8, -3.533e-08
8854.8, -3.23e-08
8856.8, -3.084e-08
8858.8, -3.137e-08
8860.9, -3.137e-08
8862.9, -2.934e-08
8864.9, -3.169e-08
8866.9, -2.916e-08
8868.9, -3.158e-08
8870.9, -3.207e-08
8872.9, -3.17e-08
8874.9, -3.213e-08
8876.9, -2.936e-08
8878.9, -3.169e-08
8880.9, -3.032e-08
8882.9, -3.016e-08
8884.9, -3.46e-08
8886.9, -3.363e-08
8888.9, -3.341e-08
8890.9, -3.409e-08
8892.9, -3.487e-08
8894.9, -3.479e-08
8896.9, -3.304e-08
8898.9, -2.887e-08
8900.9, -3.267e-08
8902.9, -3.086e-08
8904.9, -2.883e-08
8906.9, -3.342e-08
8908.9, -3.157e-08
8910.9, -2.987e-08
8912.9, -3.11e-08
8914.9, -3.258e-08
8916.9, -2.972e-08
8918.9, -3.13e-08
8920.9, -2.772e-08
8922.9, -2.847e-08
8924.9, -2.925e-08
8926.9, -2.925e-08
8928.9, -3.435e-08
8930.9, -3.505e-08
8932.9, -3.413e-08
8934.9, -3.537e-08
8936.9, -3.004e-08
8938.9, -3.129e-08
8940.9, -3.197e-08
8942.9, -3.099e-08
8944.9, -3.187e-08
8946.9, -3.414e-08
8948.9, -3.634e-08
8950.9, -3.739e-08
8952.9, -3.644e-08
8954.9, -3.639e-08
8956.9, -3.627e-08
8958.9, -3.522e-08
8961.0, -3.857e-08
8963.0, -3.482e-08
8965.0, -3.277e-08
8967.0, -3.299e-08
8969.0, -3.258e-08
8971.0, -3.407e-08
8973.0, -3.663e-08
8975.0, -3.228e-08
8977.0, -3.405e-08
8979.0, -3.496e-08
8981.0, -3.714e-08
8983.0, -3.325e-08
8985.0, -3.476e-08
8987.0, -3.279e-08
8989.0, -3.512e-08
8991.0, -3.456e-08
8993.0, -3.084e-08
8995.0, -3.547e-08
8997.0, -3.438e-08
8999.0, -3.412e-08
9001.0, -3.224e-08
9003.0, -3.49e-08
9005.0, -3.218e-08
9007.0, -3.27e-08
9009.0, -3.371e-08
9011.0, -2.953e-08
9013.0, -3.155e-08
9015.0, -3.196e-08
9017.0, -2.682e-08
9019.0, -3.222e-08
9021.0, -2.983e-08
9023.0, -3.318e-08
9025.0, -3.313e-08
9027.0, -3.127e-08
9029.0, -2.867e-08
9031.0, -2.84e-08
9033.0, -2.966e-08
9035.0, -3.008e-08
9037.0, -3.371e-08
9039.0, -2.919e-08
9041.0, -3.106e-08
9043.0, -2.778e-08
9045.0, -2.816e-08
9047.0, -2.882e-08
9049.0, -2.871e-08
9051.0, -3.246e-08
9053.0, -3.113e-08
9055.0, -3.138e-08
9057.0, -2.951e-08
9059.0, -2.935e-08
9061.1, -2.809e-08
9063.1, -3.179e-08
9065.1, -2.701e-08
9067.1, -2.929e-08
9069.1, -3.064e-08
9071.1, -3.307e-08
9073.1, -3.063e-08
9075.1, -3.064e-08
9077.1, -3.266e-08
9079.1, -2.865e-08
9081.1, -3.006e-08
9083.1, -2.827e-08
9085.1, -2.999e-08
9087.1, -2.891e-08
9089.1, -2.701e-08
9091.1, -2.679e-08
9093.1, -2.666e-08
9095.1, -2.879e-08
9097.1, -2.753e-08
9099.1, -3.366e-08
9101.1, -2.541e-08
9103.1, -2.562e-08
9105.1, -2.664e-08
9107.1, -2.356e-08
9109.1, -3.045e-08
9111.1, -3.302e-08
9113.1, -3.091e-08
9115.1, -3.086e-08
9117.1, -2.978e-08
9119.1, -2.747e-08
9121.1, -2.988e-08
9123.1, -3.049e-08
9125.1, -2.911e-08
9127.1, -3.151e-08
9129.1, -2.838e-08
9131.1, -2.864e-08
9133.1, -3.01e-08
9135.1, -2.755e-08
9137.1, -3.064e-08
9139.1, -3.202e-08
9141.1, -2.988e-08
9143.1, -3.094e-08
9145.1, -2.978e-08
9147.1, -2.794e-08
9149.1, -2.988e-08
9151.1, -3.131e-08
9153.1, -3.007e-08
9155.1, -2.637e-08
9157.1, 9.7396e-07
9159.1, 8.7133e-07
9161.2, 8.9186e-07
9163.2, 9.2399e-07
9165.2, 9.674e-07
9167.2, 9.0799e-07
9169.2, 8.1397e-07
9171.2, 9.3466e-07
9173.2, 8.4072e-07
9175.2, 8.9125e-07
9177.2, 8.7615e-07
9179.2, 9.8154e-07
9181.2, 9.0699e-07
9183.2, 8.753e-07
9185.2, 9.4974e-07
9187.2, 8.9765e-07
9189.2, 9.1688e-07
9191.2, 9.4979e-07
9193.2, 9.4781e-07
9195.2, 9.8243e-07
9197.2, 9.575e-07
9199.2, 9.177e-07
9201.2, 8.601e-07
9203.2, 9.3762e-07
9205.2, 8.6675e-07
9207.2, 9.2632e-07
9209.2, 9.2355e-07
9211.2, 9.5237e-07
9213.2, 8.5067e-07
9215.2, 9.3137e-07
9217.2, 1.0079e-06
9219.2, 9.6576e-07
9221.2, 8.7391e-07
9223.2, 8.9263e-07
9225.2, 9.357e-07
9227.2, 9.5091e-07
9229.2, 9.4093e-07
9231.2, 9.022e-07
9233.2, 8.8615e-07
9235.2, 9.8356e-07
9237.2, 1.015e-06
9239.2, 9.4981e-07
9241.2, 1.0222e-06
9243.2, 9.7852e-07
9245.2, 9.665e-07
9247.2, 8.7813e-07
9249.2, 9.3682e-07
9251.2, 9.5832e-07
9253.2, 9.2433e-07
9255.2, 9.2902e-07
9257.2, 8.9424e-07
9259.2, 9.3734e-07
9261.3, 9.3823e-07
9263.3, 9.9455e-07
9265.3, 9.9857e-07
9267.3, 9.0757e-07
9269.3, 1.0002e-06
9271.3, 9.9823e-07
9273.3, 1.0624e-06
9275.3, 9.4551e-07
9277.3, 9.397e-07
9279.3, 8.8472e-07
9281.3, 9.0998e-07
9283.3, 9.6582e-07
9285.3, 8.9763e-07
9287.3, 9.7229e-07
9289.3, 8.903e-07
9291.3, 9.8138e-07
9293.3, 9.0678e-07
9295.3, 9.0024e-07
9297.3, 9.3148e-07
9299.3, 9.062e-07
9301.3, 1.0097e-06
9303.3, 8.8071e-07
9305.3, 9.4996e-07
9307.3, 8.5178e-07
9309.3, 1.0209e-06
9311.3, 9.729e-07
9313.3, 1.0074e-06
9315.3, 1.0702e-06
9317.3, 9.3886e-07
9319.3, 1.0509e-06
9321.3, 1.0443e-06
9323.3, 1.0243e-06
9325.3, 9.623e-07
9327.3, 9.8769e-07
9329.3, 9.3964e-07
9331.3, 9.7129e-07
9333.3, 9.6519e-07
9335.3, 9.5982e-07
9337.3, 9.8255e-07
9339.3, 9.7718e-07
9341.3, 9.1986e-07
9343.3, 9.4709e-07
9345.3, 9.9211e-07
9347.3, 8.7488e-07
9349.3, 9.4697e-07
9351.3, 9.7612e-07
9353.3, 9.5019e-07
9355.3, 1.0368e-06
9357.3, 9.5215e-07
9359.3, 9.6437e-07
9361.4, 9.3036e-07
9363.4, 1.1128e-06
9365.4, 9.8115e-07
9367.4, 9.7819e-07
9369.4, 9.987e-07
9371.4, 9.105e-07
9373.4, 9.5725e-07
9375.4, 1.0216e-06
9377.4, 9.9011e-07
9379.4, 1.0844e-06
9381.4, 9.8185e-07
9383.4, 9.648e-07
9385.4, 8.9704e-07
9387.4, 9.3382e-07
9389.4, 1.0182e-06
9391.4, 9.8431e-07
9393.4, 1.027e-06
9395.4, 9.1516e-07
9397.4, 9.5128e-07
9399.4, 1.0098e-06
9401.4, 9.6133e-07
9403.4, 9.7433e-07
9405.4, 9.8457e-07
9407.4, 9.9204e-07
9409.4, 9.8286e-07
9411.4, 9.7932e-07
9413.4, 9.7572e-07
9415.4, 9.9357e-07
9417.4, 9.6595e-07
9419.4, 1.0063e-06
9421.4, 1.0151e-06
9423.4, 1.0032e-06
9425.4, 1.0588e-06
9427.4, 1.0647e-06
9429.4, 9.4461e-07
9431.4, 9.8601e-07
9433.4, 9.3623e-07
9435.4, 9.7872e-07
9437.4, 9.4469e-07
9439.4, 9.7963e-07
9441.4, 9.8611e-07
9443.4, 1.0302e-06
9445.4, 1.0316e-06
9447.4, 9.7778e-07
9449.4, 9.4675e-07
9451.4, 1.0151e-06
9453.4, 1.0047e-06
9455.4, 9.5057e-07
9457.4, 9.3677e-07
9459.4, 1.0031e-06
9461.5, 9.4867e-07
9463.5, 1.0552e-06
9465.5, 1.0622e-06
9467.5, 9.998e-07
9469.5, 9.8268e-07
9471.5, 9.5765e-07
9473.5, 9.6585e-07
9475.5, 9.5972e-07
9477.5, 9.2859e-07
9479.5, 9.7062e-07
9481.5, 9.7446e-07
9483.5, 1.045e-06
9485.5, 1.0296e-06
9487.5, 1.0158e-06
9489.5, 1.0452e-06
9491.5, 9.7653e-07
9493.5, 1.0126e-06
9495.5, 9.9522e-07
9497.5, 9.746e-07
9499.5, 9.1886e-07
9501.5, 9.5994e-07
9503.5, 1.0161e-06
9505.5, 1.0791e-06
9507.5, 1.0151e-06
9509.5, 9.4544e-07
9511.5, 9.5599e-07
9513.5, 9.7938e-07
9515.5, 1.0008e-06
9517.5, 1.0466e-06
9519.5, 9.6933e-07
9521.5, 8.9399e-07
9523.5, 9.9731e-07
9525.5, 1.0089e-06
9527.5, 1.0194e-06
9529.5, 1.0654e-06
9531.5, 1.0619e-06
9533.5, 1.0445e-06
9535.5, 9.5556e-07
9537.5, 1.0048e-06
9539.5, 9.7106e-07
9541.5, 1.0276e-06
9543.5, 9.5659e-07
9545.5, 1.0205e-06
9547.5, 9.8529e-07
9549.5, 9.7344e-07
9551.5, 1.0574e-06
9553.5, 1.0757e-06
9555.5, 9.6903e-07
9557.5, 9.9064e-07
9559.5, 1.0646e-06
9561.6, 1.0878e-06
9563.6, 9.9243e-07
9565.6, 9.9291e-07
9567.6, 1.0446e-06
9569.6, 9.6604e-07
9571.6, 9.9216e-07
9573.6, 9.174e-07
9575.6, 9.8585e-07
9577.6, 1.0102e-06
9579.6, 1.0252e-06
9581.6, 9.8536e-07
9583.6, 9.5257e-07
9585.6, 1.0141e-06
9587.6, 1.0219e-06
9589.6, 1.104e-06
9591.6, 9.0926e-07
9593.6, 9.3129e-07
9595.6, 9.911e-07
9597.6, 9.8378e-07
9599.6, 1.01e-06
9601.6, 9.3466e-07
9603.6, 9.9857e-07
9605.6, 1.1174e-06
9607.6, 9.0236e-07
9609.6, 9.8056e-07
9611.6, 1.0402e-06
9613.6, 1.0521e-06
9615.6, 9.2951e-07
9617.6, 1.0402e-06
9619.6, 1.0368e-06
9621.6, 1.0275e-06
9623.6, 1.0478e-06
9625.6, 1.0167e-06
9627.6, 1.0949e-06
9629.6, 1.049e-06
9631.6, 9.6351e-07
9633.6, 9.782e-07
9635.6, 1.0356e-06
9637.6, 1.0836e-06
9639.6, 9.718e-07
9641.6, 9.9363e-07
9643.6, 9.7771e-07
9645.6, 9.5073e-07
9647.6, 9.458e-07
9649.6, 9.5283e-07
9651.6, 1.0399e-06
9653.6, 1.012e-06
9655.6, 9.8381e-07
9657.6, 9.4396e-07
9659.6, 1.0101e-06
9661.7, 1.0758e-06
9663.7, 1.0687e-06
9665.7, 9.8926e-07
9667.7, 1.0143e-06
9669.7, 9.9019e-07
9671.7, 1.0068e-06
9673.7, 1.0082e-06
9675.7, 1.0592e-06
9677.7, 1.0161e-06
9679.7, 1.0633e-06
9681.7, 9.536e-07
9683.7, 1.0301e-06
9685.7, 9.6225e-07
9687.7, 9.9655e-07
9689.7, 1.0553e-06
9691.7, 9.8717e-07
9693.7, 1.0529e-06
9695.7, 1.0233e-06
9697.7, 1.051e-06
9699.7, 9.7533e-07
9701.7, 9.8137e-07
9703.7, 1.0265e-06
9705.7, 1.0704e-06
9707.7, 1.0939e-06
9709.7, 9.5012e-07
9711.7, 1.0374e-06
9713.7, 1.0023e-06
9715.7, 1.0787e-06
9717.7, 9.6055e-07
9719.7, 9.779e-07
9721.7, 1.0082e-06
9723.7, 9.3096e-07
9725.7, 9.9121e-07
9727.7, 1.019e-06
9729.7, 1.02e-06
9731.7, 1.045e-06
9733.7, 9.6367e-07
9735.7, 1.0264e-06
9737.7, 1.0706e-06
9739.7, 9.4739e-07
9741.7, 9.9625e-07
9743.7, 9.6815e-07
9745.7, 1.0618e-06
9747.7, 1.107e-06
9749.7, 9.9908e-07
9751.7, 9.8422e-07
9753.7, 1.0496e-06
9755.7, 9.8625e-07
9757.7, 9.6412e-07
9759.7, 1.0674e-06
9761.8, 1.0869e-06
9763.8, 1.0111e-06
9765.8, 9.2687e-07
9767.8, 1.0141e-06
9769.8, 1.0356e-06
9771.8, 1.0673e-06
9773.8, 8.7295e-07
9775.8, 1.0723e-06
9777.8, 1.0152e-06
9779.8, 1.0221e-06
9781.8, 1.0116e-06
9783.8, 9.5371e-07
9785.8, 1.0652e-06
9787.8, 1.0349e-06
9789.8, 1.0678e-06
9791.8, 9.9048e-07
9793.8, 1.0372e-06
9795.8, 1.0123e-06
9797.8, 1.0195e-06
9799.8, 9.8988e-07
9801.8, 9.3172e-07
9803.8, 1.0557e-06
9805.8, 9.9593e-07
9807.8, 1.0372e-06
9809.8, 1.0702e-06
9811.8, 9.7676e-07
9813.8, 1.0418e-06
9815.8, 1.0223e-06
9817.8, 9.8586e-07
9819.8, 1.0522e-06
9821.8, 9.9041e-07
9823.8, 1.0427e-06
9825.8, 1.0291e-06
9827.8, 9.9081e-07
9829.8, 9.5282e-07
9831.8, 9.9442e-07
9833.8, 1.0215e-06
9835.8, 9.4355e-07
9837.8, 1.0471e-06
9839.8, 1.0298e-06
9841.8, 1.0216e-06
9843.8, 1.0399e-06
9845.8, 1.0731e-06
9847.8, 1.0823e-06
9849.8, 1.0131e-06
9851.8, 9.9032e-07
9853.8, 1.0547e-06
9855.8, 9.799e-07
9857.8, 9.7561e-07
9859.8, 1.0418e-06
9861.9, 1.0452e-06
9863.9, 9.2264e-07
9865.9, 1.0353e-06
9867.9, 1.0493e-06
9869.9, 1.0906e-06
9871.9, 1.0287e-06
9873.9, 1.0693e-06
9875.9, 9.4722e-07
9877.9, 1.0345e-06
9879.9, 9.8482e-07
9881.9, 9.8583e-07
9883.9, 1.0524e-06
9885.9, 1.039e-06
9887.9, 9.9798e-07
9889.9, 9.3774e-07
9891.9, 9.8687e-07
9893.9, 9.7979e-07
9895.9, 9.1252e-07
9897.9, 1.0849e-06
9899.9, 1.0146e-06
9901.9, 9.8858e-07
9903.9, 9.8233e-07
9905.9, 9.8038e-07
9907.9, 9.9013e-07
9909.9, 1.0816e-06
9911.9, 9.0686e-07
9913.9, 1.0947e-06
9915.9, 1.0096e-06
9917.9, 1.0277e-06
9919.9, 9.6323e-07
9921.9, 1.0268e-06
9923.9, 1.0859e-06
9925.9, 1.0598e-06
9927.9, 1.0141e-06
9929.9, 1.0034e-06
9931.9, 1.0458e-06
9933.9, 1.0144e-06
9935.9, 9.9009e-07
9937.9, 1.0368e-06
9939.9, 1.0665e-06
9941.9, 1.0154e-06
9943.9, 1.0054e-06
9945.9, 1.0053e-06
9947.9, 1.0089e-06
9949.9, 9.9135e-07
9951.9, 9.181e-07
9953.9, 9.9627e-07
9955.9, 1.0176e-06
9957.9, 9.5981e-07
9959.9, 1.0503e-06
9962.0, 9.8525e-07
9964.0, 9.4902e-07
9966.0, 9.6822e-07
9968.0, 1.1141e-06
9970.0, 1.0494e-06
9972.0, 9.7502e-07
9974.0, 1.045e-06
9976.0, 1.0253e-06
9978.0, 9.3806e-07
9980.0, 9.908e-07
9982.0, 1.0129e-06
9984.0, 1.0376e-06
9986.0, 8.8452e-07
9988.0, 1.0478e-06
9990.0, 9.8868e-07
9992.0, 9.5987e-07
9994.0, 1.0881e-06
9996.0, 1.1151e-06
9998.0, 1.015e-06
10000.0, 1.0423e-06
10002.0, 1.0893e-06
10004.0, 1.0647e-06
10006.0, 1.0846e-06
10008.0, 1.0108e-06
10010.0, 1.0124e-06
10012.0, 9.9761e-07
10014.0, 1.0574e-06
10016.0, 1.0472e-06
10018.0, 9.6846e-07
10020.0, 1.0647e-06
10022.0, 9.7117e-07
10024.0, 9.8359e-07
10026.0, 1.0245e-06
10028.0, 1.0824e-06
10030.0, 1.0171e-06
10032.0, 1.0629e-06
10034.0, 1.0168e-06
10036.0, 1.0254e-06
10038.0, 1.0245e-06
10040.0, 1.0176e-06
10042.0, 9.9498e-07
10044.0, 1.0329e-06
10046.0, 9.5611e-07
10048.0, 9.2933e-07
10050.0, 9.835e-07
10052.0, 1.1124e-06
10054.0, 9.8e-07
10056.0, 9.7662e-07
10058.0, 1.0068e-06
10060.0, 9.7725e-07
10062.0, 9.5343e-07
10064.0, 1.0209e-06
10066.0, 9.809e-07
10068.0, 9.8322e-07
10070.0, 9.1813e-07
10072.0, 1.0398e-06
10074.0, 9.8106e-07
10076.0, 9.8841e-07
10078.0, 1.0547e-06
10080.0, 1.0889e-06
10082.0, 1.0011e-06
10084.0, 1.0187e-06
10086.0, 9.3748e-07
10088.0, 9.558e-07
10090.0, 1.0256e-06
10092.0, 9.9467e-07
10094.0, 1.038e-06
10096.0, 1.0736e-06
10098.0, 1.0209e-06
10100.0, 1.0943e-06
10102.0, 1.08e-06
10104.0, 9.4082e-07
10106.0, 9.6432e-07
10108.0, 1.0271e-06
10110.0, 1.0174e-06
10112.0, 9.3164e-07
10114.0, 1.0111e-06
10116.0, 9.8332e-07
10118.0, 9.9393e-07
10120.0, 1.0764e-06
10122.0, 9.4744e-07
10124.0, 1.0019e-06
10126.0, 9.9436e-07
10128.0, 1.0247e-06
10130.0, 1.0283e-06
10132.0, 1.0265e-06
10134.0, 9.6475e-07
10136.0, 1.0413e-06
10138.0, 1.0132e-06
10140.0, 9.1565e-07
10142.0, 9.9873e-07
10144.0, 1.014e-06
10146.0, 9.8426e-07
10148.0, 1.1131e-06
10150.0, 1.0202e-06
10152.0, 9.4707e-07
10154.0, 1.0654e-06
10156.0, 1.0019e-06
10158.0, -2.699e-08
10160.0, -3.051e-08
10162.0, -2.831e-08
10164.0, -2.593e-08
10166.0, -2.68e-08
10168.0, -2.753e-08
10170.0, -2.993e-08
10172.0, -3.051e-08
10174.0, -2.857e-08
10176.0, -2.852e-08
10178.0, -3.19e-08
10180.0, -2.983e-08
10182.0, -3.213e-08
10184.0, -2.972e-08
10186.0, -3.162e-08
10188.0, -2.868e-08
10190.0, -2.941e-08
10192.0, -2.974e-08
10194.0, -2.752e-08
10196.0, -2.731e-08
10198.0, -2.707e-08
10200.0, -3.052e-08
10202.0, -2.755e-08
10204.0, -2.828e-08
10206.0, -3.002e-08
10208.0, -2.824e-08
10210.0, -2.805e-08
10212.0, -3.166e-08
10214.0, -3e-08
10216.0, -3.309e-08
10218.0, -3.113e-08
10220.0, -3.055e-08
10222.0, -3.181e-08
10224.0, -3.275e-08
10226.0, -2.953e-08
10228.0, -2.988e-08
10230.0, -3.288e-08
10232.0, -3.209e-08
10234.0, -3.192e-08
10236.0, -3.264e-08
10238.0, -2.814e-08
10240.0, -3.109e-08
10242.0, -3.158e-08
10244.0, -3.106e-08
10246.0, -2.754e-08
10248.0, -3.026e-08
10250.0, -3.088e-08
10252.0, -2.733e-08
10254.0, -2.886e-08
10256.0, -3.01e-08
10258.0, -3.281e-08
10260.0, -3.187e-08
10262.0, -2.941e-08
10264.0, -3.353e-08
10266.0, -3.443e-08
10268.0, -3.367e-08
10270.0, -3.262e-08
10272.0, -3.4e-08
10274.0, -3.309e-08
10276.0, -3.247e-08
10278.0, -3.082e-08
10280.0, -2.914e-08
10282.0, -3.364e-08
10284.0, -3.319e-08
10286.0, -3.058e-08
10288.0, -2.861e-08
10290.0, -2.941e-08
10292.0, -3.127e-08
10294.0, -2.88e-08
10296.0, -2.83e-08
10298.0, -3.028e-08
10300.0, -2.955e-08
10302.0, -2.726e-08
10304.0, -2.851e-08
10306.0, -2.881e-08
10308.0, -2.685e-08
10310.0, -2.97e-08
10312.0, -2.976e-08
10314.0, -3.185e-08
10316.0, -2.803e-08
10318.0, -3.022e-08
10320.0, -3.042e-08
10322.0, -2.819e-08
10324.0, -3.08e-08
10326.0, -3.212e-08
10328.0, -3.036e-08
10330.0, -3.409e-08
10332.0, -3.102e-08
10334.0, -3.052e-08
10336.0, -3.288e-08
10338.0, -3.095e-08
10340.0, -3.253e-08
10342.0, -3.639e-08
10344.0, -3.629e-08
10346.0, -3.535e-08
10348.0, -3.111e-08
10350.0, -3.281e-08
10352.0, -3.784e-08
10354.0, -2.988e-08
10356.0, -3.228e-08
10358.0, -3.003e-08
10360.0, -3.272e-08
10362.0, -2.818e-08
10364.0, -2.948e-08
10366.0, -2.838e-08
10368.0, -2.819e-08
10370.0, -2.782e-08
10372.0, -3.047e-08
10374.0, -3.054e-08
10376.0, -2.989e-08
10378.0, -3.187e-08
10380.0, -3.208e-08
10382.0, -3.108e-08
10384.0, -3.005e-08
10386.0, -2.81e-08
10388.0, -2.941e-08
10390.0, -3.201e-08
10392.0, -3.054e-08
10394.0, -2.914e-08
10396.0, -2.826e-08
10398.0, -2.944e-08
10400.0, -2.872e-08
10402.0, -2.687e-08
10404.0, -2.72e-08
10406.0, -2.474e-08
10408.0, -2.789e-08
10410.0, -2.764e-08
10412.0, -2.956e-08
10414.0, -2.867e-08
10416.0, -2.98e-08
10418.0, -2.953e-08
10420.0, -3.065e-08
10422.0, -2.907e-08
10424.0, -2.742e-08
10426.0, -2.612e-08
10428.0, -2.669e-08
10430.0, -2.779e-08
10432.0, -2.578e-08
10434.0, -2.869e-08
10436.0, -2.536e-08
10438.0, -2.876e-08
10440.0, -2.599e-08
10442.0, -2.859e-08
10444.0, -2.965e-08
10446.0, -3.081e-08
10448.0, -2.602e-08
10450.0, -2.835e-08
10452.0, -2.929e-08
10454.0, -2.595e-08
10456.0, -2.69e-08
10458.0, -2.969e-08
10460.0, -2.826e-08
10462.0, -3.008e-08
10464.0, -2.928e-08
10466.0, -3.081e-08
10468.0, -2.897e-08
10470.0, -3.099e-08
10472.0, -2.925e-08
10474.0, -2.731e-08
10476.0, -3.023e-08
10478.0, -3.104e-08
10480.0, -2.274e-08
10482.0, -2.71e-08
10484.0, -2.708e-08
10486.0, -2.526e-08
10488.0, -2.757e-08
10490.0, -2.525e-08
10492.0, -2.773e-08
10494.0, -2.934e-08
10496.0, -2.693e-08
10498.0, -2.451e-08
10500.0, -2.737e-08
10502.0, -2.946e-08
10504.0, -2.766e-08
10506.0, -2.727e-08
10508.0, -2.866e-08
10510.0, -2.881e-08
10513.0, -2.65e-08
10515.0, -2.182e-08
10517.0, -2.379e-08
10519.0, -2.532e-08
10521.0, -2.711e-08
10523.0, -2.748e-08
10525.0, -2.708e-08
10527.0, -2.778e-08
10529.0, -2.559e-08
10531.0, -2.795e-08
10533.0, -2.456e-08
10535.0, -2.74e-08
10537.0, -3.173e-08
10539.0, -2.692e-08
10541.0, -3.068e-08
10543.0, -3.126e-08
10545.0, -2.88e-08
10547.0, -2.857e-08
10549.0, -2.847e-08
10551.0, -2.733e-08
10553.0, -2.864e-08
10555.0, -2.799e-08
10557.0, -2.578e-08
10559.0, -2.833e-08
10561.0, -2.9e-08
10563.0, -3.093e-08
10565.0, -2.966e-08
10567.0, -2.838e-08
10569.0, -2.754e-08
10571.0, -2.535e-08
10573.0, -3.148e-08
10575.0, -3.098e-08
10577.0, -2.822e-08
10579.0, -2.945e-08
10581.0, -2.963e-08
10583.0, -3.217e-08
10585.0, -2.986e-08
10587.0, -2.791e-08
10589.0, -2.482e-08
10591.0, -2.452e-08
10593.0, -2.675e-08
10595.0, -2.337e-08
10597.0, -2.516e-08
10599.0, -2.638e-08
10601.0, -2.737e-08
10603.0, -2.905e-08
10605.0, -2.833e-08
10607.0, -3.118e-08
10609.0, -2.537e-08
10611.0, -2.702e-08
10613.0, -3.012e-08
10615.0, -3.135e-08
10617.0, -3.482e-08
10619.0, -2.86e-08
10621.0, -2.892e-08
10623.0, -2.925e-08
10625.0, -2.87e-08
10627.0, -2.841e-08
10629.0, -2.767e-08
10631.0, -2.922e-08
10633.0, -2.767e-08
10635.0, -2.875e-08
10637.0, -2.597e-08
10639.0, -3.016e-08
10641.0, -2.607e-08
10643.0, -2.774e-08
10645.0, -3.071e-08
10647.0, -3.001e-08
10649.0, -2.862e-08
10651.0, -2.874e-08
10653.0, -2.974e-08
10655.0, -3.114e-08
10657.0, -2.721e-08
10659.0, -2.927e-08
10661.0, -3.053e-08
10663.0, -2.802e-08
10665.0, -2.994e-08
10667.0, -2.897e-08
10669.0, -2.725e-08
10671.0, -2.698e-08
10673.0, -2.58e-08
10675.0, -2.76e-08
10677.0, -3.043e-08
10679.0, -2.089e-08
10681.0, -2.777e-08
10683.0, -2.799e-08
10685.0, -2.828e-08
10687.0, -2.975e-08
10689.0, -2.937e-08
10691.0, -3.01e-08
10693.0, -2.781e-08
10695.0, -2.623e-08
10697.0, -2.952e-08
10699.0, -2.844e-08
10701.0, -2.909e-08
10703.0, -3.128e-08
10705.0, -2.788e-08
10707.0, -2.63e-08
10709.0, -2.748e-08
10711.0, -3.012e-08
10713.0, -3.073e-08
10715.0, -3.417e-08
10717.0, -2.788e-08
10719.0, -2.937e-08
10721.0, -3.345e-08
10723.0, -2.784e-08
10725.0, -3.444e-08
10727.0, -2.769e-08
10729.0, -2.812e-08
10731.0, -2.903e-08
10733.0, -2.785e-08
10735.0, -2.546e-08
10737.0, -2.907e-08
10739.0, -3.092e-08
10741.0, -2.972e-08
10743.0, -2.621e-08
10745.0, -2.802e-08
10747.0, -2.775e-08
10749.0, -2.909e-08
10751.0, -2.72e-08
10753.0, -3.146e-08
10755.0, -3.315e-08
10757.0, -3.19e-08
10759.0, -3.173e-08
10761.0, -3.116e-08
10763.0, -3.04e-08
10765.0, -2.999e-08
10767.0, -2.871e-08
10769.0, -2.948e-08
10771.0, -3.144e-08
10773.0, -2.779e-08
10775.0, -3.094e-08
10777.0, -2.956e-08
10779.0, -2.802e-08
10781.0, -3.16e-08
10783.0, -3.325e-08
10785.0, -3.18e-08
10787.0, -3.319e-08
10789.0, -3.214e-08
10791.0, -3.17e-08
10793.0, -3.018e-08
10795.0, -3.258e-08
10797.0, -2.854e-08
10799.0, -3.222e-08
10801.0, -3.134e-08
10803.0, -2.902e-08
10805.0, -3.262e-08
10807.0, -2.935e-08
10809.0, -3.481e-08
10811.0, -3.216e-08
10813.0, -3.291e-08
10815.0, -3.31e-08
10817.0, -2.981e-08
10819.0, -3.11e-08
10821.0, -2.901e-08
10823.0, -2.929e-08
10825.0, -2.836e-08
10827.0, -3.176e-08
10829.0, -3.278e-08
10831.0, -3.324e-08
10833.0, -3.119e-08
10835.0, -3.257e-08
10837.0, -2.985e-08
10839.0, -3.42e-08
10841.0, -3.372e-08
10843.0, -3.391e-08
10845.0, -2.958e-08
10847.0, -3.361e-08
10849.0, -3.358e-08
10851.0, -3.227e-08
10853.0, -3.448e-08
10855.0, -3.252e-08
10857.0, -3.119e-08
10859.0, -3.192e-08
10861.0, -3.313e-08
10863.0, -3.271e-08
10865.0, -3.171e-08
10867.0, -3.049e-08
10869.0, -3.247e-08
10871.0, -2.897e-08
10873.0, -2.982e-08
10875.0, -2.977e-08
10877.0, -2.914e-08
10879.0, -3.213e-08
10881.0, -3.049e-08
10883.0, -3.134e-08
10885.0, -3.564e-08
10887.0, -3.477e-08
10889.0, -3.298e-08
10891.0, -3.404e-08
10893.0, -3.175e-08
10895.0, -3.157e-08
10897.0, -3.426e-08
10899.0, -3.071e-08
10901.0, -3.14e-08
10903.0, -3.44e-08
10905.0, -3.183e-08
10907.0, -3.072e-08
10909.0, -3.076e-08
10911.0, -2.85e-08
10913.0, -3.169e-08
10915.0, -2.924e-08
10917.0, -2.762e-08
10919.0, -2.766e-08
10921.0, -2.631e-08
10923.0, -2.885e-08
10925.0, -2.927e-08
10927.0, -3.171e-08
10929.0, -3.102e-08
10931.0, -2.713e-08
10933.0, -2.86e-08
10935.0, -3.031e-08
10937.0, -3.217e-08
10939.0, -2.902e-08
10941.0, -2.535e-08
10943.0, -2.592e-08
10945.0, -2.599e-08
10947.0, -2.735e-08
10949.0, -2.567e-08
10951.0, -2.775e-08
10953.0, -3.196e-08
10955.0, -2.892e-08
10957.0, -3.26e-08
10959.0, -3.034e-08
10961.0, -2.93e-08
10963.0, -2.943e-08
10965.0, -2.782e-08
10967.0, -2.948e-08
10969.0, -2.682e-08
10971.0, -3.145e-08
10973.0, -2.549e-08
10975.0, -2.989e-08
10977.0, -2.884e-08
10979.0, -3.122e-08
10981.0, -2.733e-08
10983.0, -3.035e-08
10985.0, -3.05e-08
10987.0, -2.745e-08
10989.0, -2.658e-08
10991.0, -3.172e-08
10993.0, -3.209e-08
10995.0, -3.489e-08
10997.0, -3.074e-08
10999.0, -2.757e-08
11001.0, -2.726e-08
11003.0, -2.533e-08
11005.0, -2.639e-08
11007.0, -2.83e-08
11009.0, -3.071e-08
