Time sep (ms?), Current (A)
0.0, -2.496e-08
2.002, -2.408e-08
4.004, -2.586e-08
6.006, -2.385e-08
8.008, -2.727e-08
10.01, -2.7e-08
12.012, -2.442e-08
14.014, -2.435e-08
16.016, -2.438e-08
18.018, -2.432e-08
20.02, -2.399e-08
22.022, -2.504e-08
24.024, -2.478e-08
26.026, -2.188e-08
28.028, -2.505e-08
30.03, -2.73e-08
32.032, -2.371e-08
34.034, -2.143e-08
36.036, -2.411e-08
38.038, -2.418e-08
40.04, -2.443e-08
42.042, -2.23e-08
44.044, -2.415e-08
46.046, -2.145e-08
48.048, -2.289e-08
50.05, -2.401e-08
52.052, -2.265e-08
54.054, -2.478e-08
56.056, -2.382e-08
58.058, -2.522e-08
60.06, -2.203e-08
62.062, -2.525e-08
64.064, -2.02e-08
66.066, -2.054e-08
68.068, -2.038e-08
70.07, -2.28e-08
72.072, -2.291e-08
74.074, -2.128e-08
76.076, -2.199e-08
78.078, -2.106e-08
80.08, -1.855e-08
82.082, -1.957e-08
84.084, -2.384e-08
86.086, -2.11e-08
88.088, -2.197e-08
90.09, -2.324e-08
92.092, -2.573e-08
94.094, -2.113e-08
96.096, -2.239e-08
98.098, -2.239e-08
100.1, -2.562e-08
102.1, -2.219e-08
104.1, -2.375e-08
106.11, -2.342e-08
108.11, -2.037e-08
110.11, -2.318e-08
112.11, -2.03e-08
114.11, -2.147e-08
116.12, -2.066e-08
118.12, -2.168e-08
120.12, -1.975e-08
122.12, -1.965e-08
124.12, -2.17e-08
126.13, -2.502e-08
128.13, -2.434e-08
130.13, -2.615e-08
132.13, -2.256e-08
134.13, -2.189e-08
136.14, -2.176e-08
138.14, -2.336e-08
140.14, -2.445e-08
142.14, -2.568e-08
144.14, -2.309e-08
146.15, -2.034e-08
148.15, -2.586e-08
150.15, -2.283e-08
152.15, -2.226e-08
154.15, -2.073e-08
156.16, -2.176e-08
158.16, -2.338e-08
160.16, -2.558e-08
162.16, -2.329e-08
164.16, -2.336e-08
166.17, -2.102e-08
168.17, -2.377e-08
170.17, -2.455e-08
172.17, -2.413e-08
174.17, -2.269e-08
176.18, -2.176e-08
178.18, -2.74e-08
180.18, -2.443e-08
182.18, -2.532e-08
184.18, -2.091e-08
186.19, -2.398e-08
188.19, -2.454e-08
190.19, -2.308e-08
192.19, -2.276e-08
194.19, -2.13e-08
196.2, -2.392e-08
198.2, -2.428e-08
200.2, -2.382e-08
202.2, -2.549e-08
204.2, -2.199e-08
206.21, -2.171e-08
208.21, -2.464e-08
210.21, -2.354e-08
212.21, -2.538e-08
214.21, -2.365e-08
216.22, -2.363e-08
218.22, -2.465e-08
220.22, -2.532e-08
222.22, -2.111e-08
224.22, -1.9e-08
226.23, -2.271e-08
228.23, -2.787e-08
230.23, -2.517e-08
232.23, -2.35e-08
234.23, -2.979e-08
236.24, -2.515e-08
238.24, -2.832e-08
240.24, -2.965e-08
242.24, -2.65e-08
244.24, -2.999e-08
246.25, -2.897e-08
248.25, -2.614e-08
250.25, -2.535e-08
252.25, -2.662e-08
254.25, -2.364e-08
256.26, -2.459e-08
258.26, -2.667e-08
260.26, -2.858e-08
262.26, -2.484e-08
264.26, -2.402e-08
266.27, -2.81e-08
268.27, -2.621e-08
270.27, -3.107e-08
272.27, -2.737e-08
274.27, -2.239e-08
276.28, -2.356e-08
278.28, -2.596e-08
280.28, -2.817e-08
282.28, -2.791e-08
284.28, -2.267e-08
286.29, -2.159e-08
288.29, -2.787e-08
290.29, -2.358e-08
292.29, -2.692e-08
294.29, -2.485e-08
296.3, -2.495e-08
298.3, -2.713e-08
300.3, -2.684e-08
302.3, -2.76e-08
304.3, -2.63e-08
306.31, -2.852e-08
308.31, -2.783e-08
310.31, -2.79e-08
312.31, -2.867e-08
314.31, -2.652e-08
316.32, -2.431e-08
318.32, -2.232e-08
320.32, -2.594e-08
322.32, -2.602e-08
324.32, -2.413e-08
326.33, -2.432e-08
328.33, -2.607e-08
330.33, -2.557e-08
332.33, -2.809e-08
334.33, -2.738e-08
336.34, -2.488e-08
338.34, -2.568e-08
340.34, -2.723e-08
342.34, -2.898e-08
344.34, -2.69e-08
346.35, -2.42e-08
348.35, -2.864e-08
350.35, -2.899e-08
352.35, -2.837e-08
354.35, -2.936e-08
356.36, -2.587e-08
358.36, -2.649e-08
360.36, -3.171e-08
362.36, -2.581e-08
364.36, -2.713e-08
366.37, -2.648e-08
368.37, -2.427e-08
370.37, -2.606e-08
372.37, -2.328e-08
374.37, -2.217e-08
376.38, -2.128e-08
378.38, -2.16e-08
380.38, -2.517e-08
382.38, -2.602e-08
384.38, -2.406e-08
386.39, -2.356e-08
388.39, -2.729e-08
390.39, -2.878e-08
392.39, -2.546e-08
394.39, -2.346e-08
396.4, -2.365e-08
398.4, -2.398e-08
400.4, -2.502e-08
402.4, -2.323e-08
404.4, -2.548e-08
406.41, -2.235e-08
408.41, -2.72e-08
410.41, -2.639e-08
412.41, -2.767e-08
414.41, -2.705e-08
416.42, -2.582e-08
418.42, -2.24e-08
420.42, -2.321e-08
422.42, -2.286e-08
424.42, -2.332e-08
426.43, -2.412e-08
428.43, -2.39e-08
430.43, -2.327e-08
432.43, -2.404e-08
434.43, -2.536e-08
436.44, -2.578e-08
438.44, -2.747e-08
440.44, -2.818e-08
442.44, -2.787e-08
444.44, -2.502e-08
446.45, -2.471e-08
448.45, -2.414e-08
450.45, -2.598e-08
452.45, -2.589e-08
454.45, -2.43e-08
456.46, -2.413e-08
458.46, -2.286e-08
460.46, -2.544e-08
462.46, -2.101e-08
464.46, -2.718e-08
466.47, -2.484e-08
468.47, -2.365e-08
470.47, -2.366e-08
472.47, -2.202e-08
474.47, -2.232e-08
476.48, -2.614e-08
478.48, -2.517e-08
480.48, -2.266e-08
482.48, -2.811e-08
484.48, -2.858e-08
486.49, -2.889e-08
488.49, -2.655e-08
490.49, -3.055e-08
492.49, -2.925e-08
494.49, -3.101e-08
496.5, -2.388e-08
498.5, -2.601e-08
500.5, -2.486e-08
502.5, -2.493e-08
504.5, -2.144e-08
506.51, -2.489e-08
508.51, -2.579e-08
510.51, -2.737e-08
512.51, -2.694e-08
514.51, -2.963e-08
516.52, -2.611e-08
518.52, -2.604e-08
520.52, -2.755e-08
522.52, -2.85e-08
524.52, -2.895e-08
526.53, -2.656e-08
528.53, -2.946e-08
530.53, -2.827e-08
532.53, -2.392e-08
534.53, -2.436e-08
536.54, -2.658e-08
538.54, -2.875e-08
540.54, -2.931e-08
542.54, -2.854e-08
544.54, -2.689e-08
546.55, -2.703e-08
548.55, -2.669e-08
550.55, -2.621e-08
552.55, -2.37e-08
554.55, -2.482e-08
556.56, -2.826e-08
558.56, -2.822e-08
560.56, -2.968e-08
562.56, -2.749e-08
564.56, -2.829e-08
566.57, -2.691e-08
568.57, -3.016e-08
570.57, -3.375e-08
572.57, -3.165e-08
574.57, -2.866e-08
576.58, -2.877e-08
578.58, -3.209e-08
580.58, -3.22e-08
582.58, -2.977e-08
584.58, -2.879e-08
586.59, -2.655e-08
588.59, -2.86e-08
590.59, -2.661e-08
592.59, -2.875e-08
594.59, -2.626e-08
596.6, -2.68e-08
598.6, -2.868e-08
600.6, -3.104e-08
602.6, -2.73e-08
604.6, -2.633e-08
606.61, -2.833e-08
608.61, -3.161e-08
610.61, -2.849e-08
612.61, -2.902e-08
614.61, -2.942e-08
616.62, -2.675e-08
618.62, -3.025e-08
620.62, -2.967e-08
622.62, -3.149e-08
624.62, -3.165e-08
626.63, -2.693e-08
628.63, -2.949e-08
630.63, -2.645e-08
632.63, -2.608e-08
634.63, -2.57e-08
636.64, -2.95e-08
638.64, -3.024e-08
640.64, -2.992e-08
642.64, -3.335e-08
644.64, -3.162e-08
646.65, -3.143e-08
648.65, -3.046e-08
650.65, -3.145e-08
652.65, -3.258e-08
654.65, -3.111e-08
656.66, -3.09e-08
658.66, -2.73e-08
660.66, -2.849e-08
662.66, -2.768e-08
664.66, -2.618e-08
666.67, -3.087e-08
668.67, -2.426e-08
670.67, -2.376e-08
672.67, -2.535e-08
674.67, -2.628e-08
676.68, -2.49e-08
678.68, -2.241e-08
680.68, -2.422e-08
682.68, -2.679e-08
684.68, -2.698e-08
686.69, -2.644e-08
688.69, -2.531e-08
690.69, -2.653e-08
692.69, -2.499e-08
694.69, -2.351e-08
696.7, -2.693e-08
698.7, -2.825e-08
700.7, -2.811e-08
702.7, -2.958e-08
704.7, -2.986e-08
706.71, -2.693e-08
708.71, -2.994e-08
710.71, -2.543e-08
712.71, -2.747e-08
714.71, -2.613e-08
716.72, -2.483e-08
718.72, -2.732e-08
720.72, -2.584e-08
722.72, -2.407e-08
724.72, -2.731e-08
726.73, -2.769e-08
728.73, -2.689e-08
730.73, -2.651e-08
732.73, -2.855e-08
734.73, -2.945e-08
736.74, -2.659e-08
738.74, -2.541e-08
740.74, -2.779e-08
742.74, -2.679e-08
744.74, -2.641e-08
746.75, -2.518e-08
748.75, -2.805e-08
750.75, -2.136e-08
752.75, -2.277e-08
754.75, -2.195e-08
756.76, -2.196e-08
758.76, -2.533e-08
760.76, -2.338e-08
762.76, -2.469e-08
764.76, -2.667e-08
766.77, -2.47e-08
768.77, -2.616e-08
770.77, -2.395e-08
772.77, -2.576e-08
774.77, -2.544e-08
776.78, -2.575e-08
778.78, -2.688e-08
780.78, -2.859e-08
782.78, -2.462e-08
784.78, -2.645e-08
786.79, -2.486e-08
788.79, -2.529e-08
790.79, -2.488e-08
792.79, -2.347e-08
794.79, -2.367e-08
796.8, -2.56e-08
798.8, -2.601e-08
800.8, -2.48e-08
802.8, -2.545e-08
804.8, -2.653e-08
806.81, -2.052e-08
808.81, -2.08e-08
810.81, -2.362e-08
812.81, -2.196e-08
814.81, -1.887e-08
816.82, -2.48e-08
818.82, -2.118e-08
820.82, -2.338e-08
822.82, -2.334e-08
824.82, -2.594e-08
826.83, -2.312e-08
828.83, -2.416e-08
830.83, -2.381e-08
832.83, -2.305e-08
834.83, -2.091e-08
836.84, -2.351e-08
838.84, -2.359e-08
840.84, -2.432e-08
842.84, -2.542e-08
844.84, -2.553e-08
846.85, -2.416e-08
848.85, -2.66e-08
850.85, -2.379e-08
852.85, -2.46e-08
854.85, -2.325e-08
856.86, -2.487e-08
858.86, -2.611e-08
860.86, -2.581e-08
862.86, -2.628e-08
864.86, -2.48e-08
866.87, -2.42e-08
868.87, -2.721e-08
870.87, -2.632e-08
872.87, -2.539e-08
874.87, -2.355e-08
876.88, -2.517e-08
878.88, -2.405e-08
880.88, -2.818e-08
882.88, -2.992e-08
884.88, -2.833e-08
886.89, -2.47e-08
888.89, -2.172e-08
890.89, -2.426e-08
892.89, -2.219e-08
894.89, -2.734e-08
896.9, -2.646e-08
898.9, -2.59e-08
900.9, -2.796e-08
902.9, -2.046e-08
904.9, -2.384e-08
906.91, -2.425e-08
908.91, -2.804e-08
910.91, -2.684e-08
912.91, -2.718e-08
914.91, -2.641e-08
916.92, -2.95e-08
918.92, -2.783e-08
920.92, -2.521e-08
922.92, -2.729e-08
924.92, -2.723e-08
926.93, -2.885e-08
928.93, -2.739e-08
930.93, -2.841e-08
932.93, -2.912e-08
934.93, -2.869e-08
936.94, -2.689e-08
938.94, -2.769e-08
940.94, -2.932e-08
942.94, -2.779e-08
944.94, -2.622e-08
946.95, -2.919e-08
948.95, -2.926e-08
950.95, -2.742e-08
952.95, -2.597e-08
954.95, -2.698e-08
956.96, -3.065e-08
958.96, -2.578e-08
960.96, -2.874e-08
962.96, -2.563e-08
964.96, -2.42e-08
966.97, -2.69e-08
968.97, -2.652e-08
970.97, -2.979e-08
972.97, -2.481e-08
974.97, -2.511e-08
976.98, -2.71e-08
978.98, -2.531e-08
980.98, -2.67e-08
982.98, -2.679e-08
984.98, -2.389e-08
986.99, -2.455e-08
988.99, -2.751e-08
990.99, -2.762e-08
992.99, -2.692e-08
994.99, -2.688e-08
997.0, -2.501e-08
999.0, -2.467e-08
1001.0, -2.891e-08
1003.0, -2.898e-08
1005.0, -2.656e-08
1007.0, -3.095e-08
1009.0, -2.945e-08
1011.0, -2.615e-08
1013.0, -2.855e-08
1015.0, -2.665e-08
1017.0, -3.008e-08
1019.0, -2.883e-08
1021.0, -3.168e-08
1023.0, -2.939e-08
1025.0, -2.87e-08
1027.0, -2.703e-08
1029.0, -2.431e-08
1031.0, -2.879e-08
1033.0, -2.755e-08
1035.0, -2.733e-08
1037.0, -2.868e-08
1039.0, -2.324e-08
1041.0, -2.432e-08
1043.0, -2.507e-08
1045.0, -2.458e-08
1047.0, -1.459e-08
1049.0, -5.04e-09
1051.0, 3.07e-09
1053.1, 7.25e-09
1055.1, 2.12e-09
1057.1, 5.81e-09
1059.1, 1.65e-09
1061.1, 3.24e-09
1063.1, 2.83e-09
1065.1, 8.82e-09
1067.1, -7.7e-10
1069.1, -9.9e-10
1071.1, -2.35e-09
1073.1, 1.9e-09
1075.1, 3.09e-09
1077.1, 2.66e-09
1079.1, -1.68e-09
1081.1, -5e-10
1083.1, 2e-09
1085.1, 4.74e-09
1087.1, 3.4e-09
1089.1, -2.34e-09
1091.1, 4.19e-09
1093.1, 6.76e-09
1095.1, 1.041e-08
1097.1, 2.49e-09
1099.1, 3.01e-09
1101.1, 3.8e-09
1103.1, -6.3e-10
1105.1, 4.45e-09
1107.1, 6.09e-09
1109.1, -1.57e-09
1111.1, 3.72e-09
1113.1, 2.2e-10
1115.1, 2.66e-09
1117.1, 5.09e-09
1119.1, 2.33e-09
1121.1, 6.2e-09
1123.1, 4.4e-09
1125.1, 1.104e-08
1127.1, 8.8e-09
1129.1, 3.53e-09
1131.1, 2.38e-09
1133.1, 2.5e-10
1135.1, 9.35e-09
1137.1, 6.78e-09
1139.1, 8.82e-09
1141.1, 7.14e-09
1143.1, 9.84e-09
1145.1, 7.77e-09
1147.1, 8.52e-09
1149.1, 9.5e-09
1151.1, 8.95e-09
1153.2, 8.1e-10
1155.2, 3e-09
1157.2, 1.98e-09
1159.2, 8.52e-09
1161.2, 5.38e-09
1163.2, 1.18e-09
1165.2, 5.82e-09
1167.2, 1.001e-08
1169.2, 2.34e-09
1171.2, 3.98e-09
1173.2, 3.44e-09
1175.2, 5.58e-09
1177.2, 3.41e-09
1179.2, 5.67e-09
1181.2, 5.84e-09
1183.2, 1.94e-09
1185.2, 4.45e-09
1187.2, 7.95e-09
1189.2, 6.62e-09
1191.2, 3.91e-09
1193.2, 7.58e-09
1195.2, 5.6e-09
1197.2, 3.01e-09
1199.2, 4.81e-09
1201.2, 1.359e-08
1203.2, 1.214e-08
1205.2, 2.4e-09
1207.2, 4.15e-09
1209.2, 9.85e-09
1211.2, 1.31e-08
1213.2, 2.41e-09
1215.2, 6.65e-09
1217.2, 1.094e-08
1219.2, 1.85e-09
1221.2, -2.32e-09
1223.2, 1.45e-09
1225.2, -3.29e-09
1227.2, 7.8e-10
1229.2, 3.54e-09
1231.2, 1.03e-09
1233.2, 5.17e-09
1235.2, 4.86e-09
1237.2, 4.9e-09
1239.2, 8.2e-10
1241.2, 3.21e-09
1243.2, 2.4e-09
1245.2, 6.91e-09
1247.2, 9.81e-09
1249.2, 7.25e-09
1251.2, 1.59e-09
1253.3, 4.52e-09
1255.3, 7.97e-09
1257.3, 1.016e-08
1259.3, 3.82e-09
1261.3, 7.09e-09
1263.3, 8.86e-09
1265.3, 2.74e-09
1267.3, -1.68e-09
1269.3, 6.46e-09
1271.3, 5.91e-09
1273.3, 5.95e-09
1275.3, 1e-08
1277.3, -2.8e-10
1279.3, 8.99e-09
1281.3, 4.78e-09
1283.3, 6.89e-09
1285.3, 7.28e-09
1287.3, -4.4e-10
1289.3, 1.24e-09
1291.3, 3.37e-09
1293.3, 2.76e-09
1295.3, 5.27e-09
1297.3, 4.62e-09
1299.3, 7.03e-09
1301.3, -1.5e-10
1303.3, 2.27e-09
1305.3, 3.16e-09
1307.3, 8.52e-09
1309.3, -9.8e-10
1311.3, 1.58e-09
1313.3, 6.17e-09
1315.3, 7.71e-09
1317.3, 6.46e-09
1319.3, -1.8e-09
1321.3, 4.74e-09
1323.3, 9e-09
1325.3, -3.24e-09
1327.3, 5.53e-09
1329.3, 1.02e-09
1331.3, -3.06e-09
1333.3, -1.69e-09
1335.3, -1.18e-09
1337.3, -1.11e-09
1339.3, 6.3e-10
1341.3, -4.24e-09
1343.3, -2.55e-09
1345.3, -7.8e-10
1347.3, 6.92e-09
1349.3, 1.25e-09
1351.3, 1.52e-09
1353.4, -3.35e-09
1355.4, 2.04e-09
1357.4, 2.46e-09
1359.4, 6.64e-09
1361.4, 3.62e-09
1363.4, 3.39e-09
1365.4, 5.65e-09
1367.4, 9.29e-09
1369.4, -3.12e-09
1371.4, -1.09e-09
1373.4, 6.4e-09
1375.4, 1e-11
1377.4, 4.84e-09
1379.4, 8.9e-10
1381.4, -1.61e-09
1383.4, 2.15e-09
1385.4, -4.4e-10
1387.4, 3.62e-09
1389.4, -2.4e-09
1391.4, 5.11e-09
1393.4, -7e-10
1395.4, 5.95e-09
1397.4, 6.77e-09
1399.4, 2.82e-09
1401.4, 5.08e-09
1403.4, 4.25e-09
1405.4, -7e-10
1407.4, 3.27e-09
1409.4, 1.77e-09
1411.4, 1.77e-09
1413.4, 5.77e-09
1415.4, 6.02e-09
1417.4, 8.48e-09
1419.4, 3.39e-09
1421.4, -3.63e-09
1423.4, 6.82e-09
1425.4, 3.37e-09
1427.4, 6.13e-09
1429.4, 6.2e-10
1431.4, 9.06e-09
1433.4, 9.49e-09
1435.4, 3.01e-09
1437.4, 3.38e-09
1439.4, 4.98e-09
1441.4, 5.87e-09
1443.4, 2.96e-09
1445.4, 6.91e-09
1447.4, 1.92e-09
1449.4, 5.38e-09
1451.4, -3.1e-10
1453.5, 1.163e-08
1455.5, 5.75e-09
1457.5, 4e-09
1459.5, 6.75e-09
1461.5, 1.565e-08
1463.5, 4.26e-09
1465.5, -3.65e-09
1467.5, 6.9e-10
1469.5, 9.55e-09
1471.5, -1.1e-09
1473.5, 3.85e-09
1475.5, 1.42e-09
1477.5, 8.32e-09
1479.5, 4.24e-09
1481.5, -2.62e-09
1483.5, 2.54e-09
1485.5, 2.63e-09
1487.5, 1.43e-09
1489.5, -6.3e-10
1491.5, 5.79e-09
1493.5, 8.19e-09
1495.5, 8.53e-09
1497.5, 4.04e-09
1499.5, 4.3e-10
1501.5, 2e-09
1503.5, 7.99e-09
1505.5, 6.42e-09
1507.5, 7.64e-09
1509.5, 2.32e-09
1511.5, 5.42e-09
1513.5, 5.89e-09
1515.5, -8.6e-10
1517.5, 7.44e-09
1519.5, 2.38e-09
1521.5, 1.449e-08
1523.5, 8.29e-09
1525.5, 9.03e-09
1527.5, -1.92e-09
1529.5, 1.68e-09
1531.5, 5.71e-09
1533.5, -2.5e-10
1535.5, 2.09e-09
1537.5, 6.7e-10
1539.5, 1.99e-09
1541.5, 2.65e-09
1543.5, 2.47e-09
1545.5, 1.56e-09
1547.5, 5.5e-09
1549.5, 9.22e-09
1551.5, 1.055e-08
1553.6, -3.19e-09
1555.6, 1.6e-10
1557.6, -5.9e-09
1559.6, 4.3e-09
1561.6, -2.3e-10
1563.6, 5.74e-09
1565.6, -7.17e-09
1567.6, 3.3e-09
1569.6, 7.3e-10
1571.6, -3.9e-10
1573.6, -7e-11
1575.6, -7.03e-09
1577.6, 5.6e-09
1579.6, 3.42e-09
1581.6, 9.48e-09
1583.6, 3.14e-09
1585.6, 3.9e-09
1587.6, 3.82e-09
1589.6, 6.14e-09
1591.6, 1.233e-08
1593.6, 9.07e-09
1595.6, 7.86e-09
1597.6, 2.37e-09
1599.6, -9.2e-10
1601.6, -8.4e-10
1603.6, 8.47e-09
1605.6, 2.29e-09
1607.6, 2.03e-09
1609.6, 4.21e-09
1611.6, 4.93e-09
1613.6, 8.13e-09
1615.6, 1.108e-08
1617.6, 2.01e-09
1619.6, 8.78e-09
1621.6, 1.17e-09
1623.6, 9.41e-09
1625.6, 3.06e-09
1627.6, 8.7e-10
1629.6, 5.69e-09
1631.6, 3.96e-09
1633.6, 7.39e-09
1635.6, 1.44e-09
1637.6, 5.9e-09
1639.6, 3.95e-09
1641.6, 2.66e-09
1643.6, 8.23e-09
1645.6, 9.01e-09
1647.6, 2.42e-09
1649.6, 5.95e-09
1651.6, 3.24e-09
1653.7, 8.08e-09
1655.7, 5.79e-09
1657.7, 7.29e-09
1659.7, 1.418e-08
1661.7, 1.31e-09
1663.7, 3.77e-09
1665.7, 1.202e-08
1667.7, 5.52e-09
1669.7, 2.9e-10
1671.7, 1.028e-08
1673.7, 2.112e-08
1675.7, 3.6e-10
1677.7, 3.91e-09
1679.7, 1.444e-08
1681.7, 1.286e-08
1683.7, 6.2e-09
1685.7, 5.4e-09
1687.7, 3.78e-09
1689.7, 6.4e-09
1691.7, 4.02e-09
1693.7, 5.13e-09
1695.7, 8.27e-09
1697.7, 3.57e-09
1699.7, 1.036e-08
1701.7, 1.416e-08
1703.7, 5.8e-09
1705.7, 1.047e-08
1707.7, 7.21e-09
1709.7, 1.044e-08
1711.7, 1.418e-08
1713.7, 4.49e-09
1715.7, 5.1e-09
1717.7, 1.171e-08
1719.7, 5.44e-09
1721.7, 5.3e-10
1723.7, 9.36e-09
1725.7, 5.95e-09
1727.7, 6.08e-09
1729.7, 3.72e-09
1731.7, 1.67e-09
1733.7, 5.72e-09
1735.7, 6.46e-09
1737.7, 2e-09
1739.7, 1.62e-09
1741.7, 2.18e-09
1743.7, 1.41e-09
1745.7, 4.71e-09
1747.7, 7.34e-09
1749.7, 5.63e-09
1751.7, 4.55e-09
1753.8, 2.2e-09
1755.8, 6.46e-09
1757.8, 8.88e-09
1759.8, 4.91e-09
1761.8, 1.64e-09
1763.8, 1.244e-08
1765.8, 7.86e-09
1767.8, 1e-09
1769.8, 9.84e-09
1771.8, 4.15e-09
1773.8, 2.03e-09
1775.8, 5.91e-09
1777.8, 5.68e-09
1779.8, 3.53e-09
1781.8, 8.6e-10
1783.8, 1.413e-08
1785.8, 4.53e-09
1787.8, 5.25e-09
1789.8, 3.94e-09
1791.8, -1.93e-09
1793.8, -1.37e-09
1795.8, 8.47e-09
1797.8, 3.65e-09
1799.8, 7.85e-09
1801.8, -4.6e-10
1803.8, 2.1e-10
1805.8, 2.7e-09
1807.8, 1.65e-09
1809.8, 1.344e-08
1811.8, 1.124e-08
1813.8, 1.69e-09
1815.8, 5.23e-09
1817.8, 1.019e-08
1819.8, 4.13e-09
1821.8, 5.42e-09
1823.8, 4.46e-09
1825.8, 5.87e-09
1827.8, 5.96e-09
1829.8, 7.43e-09
1831.8, 3.43e-09
1833.8, 1.485e-08
1835.8, 1.089e-08
1837.8, 1.506e-08
1839.8, 7.97e-09
1841.8, 8.32e-09
1843.8, 5.25e-09
1845.8, 8.26e-09
1847.8, 4.73e-09
1849.8, 1.315e-08
1851.8, 1.357e-08
1853.9, 4.67e-09
1855.9, 8.94e-09
1857.9, 5.23e-09
1859.9, 9.9e-09
1861.9, 6.14e-09
1863.9, 1.329e-08
1865.9, 1.082e-08
1867.9, 8.11e-09
1869.9, 6.04e-09
1871.9, 3.26e-09
1873.9, 8.02e-09
1875.9, 7.51e-09
1877.9, 8.07e-09
1879.9, 7.39e-09
1881.9, 4.18e-09
1883.9, 1.48e-09
1885.9, 4.62e-09
1887.9, 1.42e-09
1889.9, 7.25e-09
1891.9, 5.55e-09
1893.9, 2.46e-09
1895.9, 9.83e-09
1897.9, 6.72e-09
1899.9, 5.03e-09
1901.9, 7.14e-09
1903.9, 3.14e-09
1905.9, 4.25e-09
1907.9, -4.14e-09
1909.9, 5.71e-09
1911.9, 6.91e-09
1913.9, 7.02e-09
1915.9, 1.292e-08
1917.9, 6.14e-09
1919.9, 5.21e-09
1921.9, 7.08e-09
1923.9, 1.341e-08
1925.9, 4.79e-09
1927.9, 2.18e-09
1929.9, 7.24e-09
1931.9, 3.36e-09
1933.9, 3.78e-09
1935.9, 6.73e-09
1937.9, 1.213e-08
1939.9, 9.52e-09
1941.9, 7.42e-09
1943.9, 1.87e-09
1945.9, 6.63e-09
1947.9, 3.12e-09
1949.9, 9.99e-09
1951.9, 1.011e-08
1954.0, 4.51e-09
1956.0, 7.42e-09
1958.0, 2.33e-09
1960.0, -7e-11
1962.0, 4.41e-09
1964.0, 6.24e-09
1966.0, 9.69e-09
1968.0, 1.057e-08
1970.0, 4.78e-09
1972.0, 3.23e-09
1974.0, 8.7e-10
1976.0, 6.67e-09
1978.0, 2.69e-09
1980.0, 5.18e-09
1982.0, 3.29e-09
1984.0, 1.078e-08
1986.0, 7.22e-09
1988.0, 7.9e-10
1990.0, 4.73e-09
1992.0, 7.9e-09
1994.0, 4.43e-09
1996.0, 1.043e-08
1998.0, 2.44e-09
2000.0, 7.75e-09
2002.0, 8.57e-09
2004.0, 5.81e-09
2006.0, -1.8e-10
2008.0, 8.36e-09
2010.0, -2.54e-09
2012.0, 9.4e-10
2014.0, -2.13e-09
2016.0, 7.26e-09
2018.0, 4.12e-09
2020.0, 2.62e-09
2022.0, 2.3e-09
2024.0, 5.76e-09
2026.0, 6.96e-09
2028.0, 2.84e-09
2030.0, 3.23e-09
2032.0, 2.62e-09
2034.0, 3.39e-09
2036.0, 4.54e-09
2038.0, 2.06e-09
2040.0, 5.01e-09
2042.0, 2.98e-09
2044.0, 4.08e-09
2046.0, 1.479e-08
2048.0, -1.117e-08
2050.0, -2.837e-08
2052.0, -2.937e-08
2054.1, -2.491e-08
2056.1, -2.459e-08
2058.1, -2.753e-08
2060.1, -2.554e-08
2062.1, -2.828e-08
2064.1, -2.935e-08
2066.1, -3.038e-08
2068.1, -2.531e-08
2070.1, -2.824e-08
2072.1, -2.707e-08
2074.1, -2.808e-08
2076.1, -2.527e-08
2078.1, -2.859e-08
2080.1, -2.603e-08
2082.1, -2.713e-08
2084.1, -2.495e-08
2086.1, -2.692e-08
2088.1, -2.901e-08
2090.1, -3.121e-08
2092.1, -2.73e-08
2094.1, -2.954e-08
2096.1, -2.9e-08
2098.1, -3.114e-08
2100.1, -3.147e-08
2102.1, -2.934e-08
2104.1, -3.147e-08
2106.1, -3.015e-08
2108.1, -3.052e-08
2110.1, -3.04e-08
2112.1, -2.815e-08
2114.1, -2.832e-08
2116.1, -2.605e-08
2118.1, -2.863e-08
2120.1, -2.896e-08
2122.1, -2.733e-08
2124.1, -2.786e-08
2126.1, -3.264e-08
2128.1, -3.065e-08
2130.1, -3.02e-08
2132.1, -3.25e-08
2134.1, -3.263e-08
2136.1, -3.013e-08
2138.1, -2.996e-08
2140.1, -2.973e-08
2142.1, -3.121e-08
2144.1, -2.953e-08
2146.1, -3.092e-08
2148.1, -3.078e-08
2150.1, -3.075e-08
2152.1, -2.864e-08
2154.2, -2.819e-08
2156.2, -2.621e-08
2158.2, -2.547e-08
2160.2, -2.764e-08
2162.2, -2.822e-08
2164.2, -2.699e-08
2166.2, -2.637e-08
2168.2, -2.664e-08
2170.2, -2.818e-08
2172.2, -2.512e-08
2174.2, -2.906e-08
2176.2, -2.38e-08
2178.2, -2.709e-08
2180.2, -2.516e-08
2182.2, -2.821e-08
2184.2, -3.372e-08
2186.2, -2.891e-08
2188.2, -2.839e-08
2190.2, -2.446e-08
2192.2, -2.496e-08
2194.2, -3.122e-08
2196.2, -2.388e-08
2198.2, -2.431e-08
2200.2, -2.452e-08
2202.2, -2.473e-08
2204.2, -2.713e-08
2206.2, -2.305e-08
2208.2, -2.649e-08
2210.2, -2.72e-08
2212.2, -2.557e-08
2214.2, -2.616e-08
2216.2, -2.427e-08
2218.2, -2.67e-08
2220.2, -2.167e-08
2222.2, -2.478e-08
2224.2, -3.077e-08
2226.2, -2.754e-08
2228.2, -2.884e-08
2230.2, -2.874e-08
2232.2, -2.882e-08
2234.2, -2.802e-08
2236.2, -2.741e-08
2238.2, -3.244e-08
2240.2, -2.985e-08
2242.2, -2.94e-08
2244.2, -3.128e-08
2246.2, -3.183e-08
2248.2, -3.162e-08
2250.2, -2.983e-08
2252.2, -2.881e-08
2254.3, -2.805e-08
2256.3, -3.204e-08
2258.3, -2.829e-08
2260.3, -2.87e-08
2262.3, -3.033e-08
2264.3, -3.03e-08
2266.3, -2.993e-08
2268.3, -3.077e-08
2270.3, -2.872e-08
2272.3, -2.865e-08
2274.3, -3.057e-08
2276.3, -2.669e-08
2278.3, -2.651e-08
2280.3, -3.023e-08
2282.3, -2.918e-08
2284.3, -3.117e-08
2286.3, -2.771e-08
2288.3, -2.738e-08
2290.3, -2.841e-08
2292.3, -2.734e-08
2294.3, -2.589e-08
2296.3, -2.42e-08
2298.3, -2.357e-08
2300.3, -2.95e-08
2302.3, -2.62e-08
2304.3, -2.712e-08
2306.3, -2.739e-08
2308.3, -2.906e-08
2310.3, -2.773e-08
2312.3, -2.842e-08
2314.3, -2.69e-08
2316.3, -2.826e-08
2318.3, -2.812e-08
2320.3, -2.693e-08
2322.3, -2.816e-08
2324.3, -2.914e-08
2326.3, -2.743e-08
2328.3, -2.951e-08
2330.3, -2.813e-08
2332.3, -2.918e-08
2334.3, -2.758e-08
2336.3, -2.811e-08
2338.3, -2.688e-08
2340.3, -2.918e-08
2342.3, -2.924e-08
2344.3, -2.921e-08
2346.3, -2.901e-08
2348.3, -2.772e-08
2350.3, -3.108e-08
2352.3, -3.148e-08
2354.4, -2.677e-08
2356.4, -2.499e-08
2358.4, -2.767e-08
2360.4, -2.687e-08
2362.4, -2.99e-08
2364.4, -3.022e-08
2366.4, -2.915e-08
2368.4, -3.074e-08
2370.4, -2.694e-08
2372.4, -2.9e-08
2374.4, -3.231e-08
2376.4, -3.244e-08
2378.4, -3.004e-08
2380.4, -3.107e-08
2382.4, -3.266e-08
2384.4, -2.836e-08
2386.4, -3.091e-08
2388.4, -2.481e-08
2390.4, -3.467e-08
2392.4, -3.076e-08
2394.4, -3.112e-08
2396.4, -3.058e-08
2398.4, -2.857e-08
2400.4, -2.681e-08
2402.4, -2.999e-08
2404.4, -2.786e-08
2406.4, -3.084e-08
2408.4, -2.685e-08
2410.4, -2.878e-08
2412.4, -2.916e-08
2414.4, -2.715e-08
2416.4, -3.087e-08
2418.4, -2.764e-08
2420.4, -2.782e-08
2422.4, -3.134e-08
2424.4, -3.334e-08
2426.4, -3.293e-08
2428.4, -2.94e-08
2430.4, -3.088e-08
2432.4, -3.239e-08
2434.4, -3.311e-08
2436.4, -3.193e-08
2438.4, -3.016e-08
2440.4, -2.827e-08
2442.4, -3.423e-08
2444.4, -3.279e-08
2446.4, -2.858e-08
2448.4, -3.006e-08
2450.4, -3.004e-08
2452.4, -3.576e-08
2454.5, -2.926e-08
2456.5, -3.198e-08
2458.5, -2.834e-08
2460.5, -2.99e-08
2462.5, -3.084e-08
2464.5, -2.869e-08
2466.5, -2.985e-08
2468.5, -2.665e-08
2470.5, -2.925e-08
2472.5, -2.986e-08
2474.5, -2.889e-08
2476.5, -2.832e-08
2478.5, -2.809e-08
2480.5, -2.726e-08
2482.5, -2.961e-08
2484.5, -2.886e-08
2486.5, -2.692e-08
2488.5, -2.791e-08
2490.5, -2.891e-08
2492.5, -2.837e-08
2494.5, -3.161e-08
2496.5, -3.259e-08
2498.5, -2.747e-08
2500.5, -2.668e-08
2502.5, -2.209e-08
2504.5, -2.335e-08
2506.5, -2.512e-08
2508.5, -2.979e-08
2510.5, -2.839e-08
2512.5, -2.633e-08
2514.5, -2.413e-08
2516.5, -2.56e-08
2518.5, -2.873e-08
2520.5, -2.73e-08
2522.5, -2.808e-08
2524.5, -2.86e-08
2526.5, -2.351e-08
2528.5, -2.582e-08
2530.5, -2.595e-08
2532.5, -2.884e-08
2534.5, -2.575e-08
2536.5, -2.862e-08
2538.5, -2.802e-08
2540.5, -2.442e-08
2542.5, -2.798e-08
2544.5, -2.599e-08
2546.5, -2.671e-08
2548.5, -3.044e-08
2550.5, -3.104e-08
2552.5, -2.865e-08
2554.6, -2.889e-08
2556.6, -2.522e-08
2558.6, -2.984e-08
2560.6, -2.554e-08
2562.6, -2.431e-08
2564.6, -2.896e-08
2566.6, -2.893e-08
2568.6, -2.664e-08
2570.6, -2.759e-08
2572.6, -2.783e-08
2574.6, -2.732e-08
2576.6, -2.728e-08
2578.6, -2.875e-08
2580.6, -2.646e-08
2582.6, -2.937e-08
2584.6, -2.488e-08
2586.6, -2.667e-08
2588.6, -2.287e-08
2590.6, -2.442e-08
2592.6, -2.652e-08
2594.6, -2.375e-08
2596.6, -2.173e-08
2598.6, -2.399e-08
2600.6, -2.715e-08
2602.6, -2.426e-08
2604.6, -2.595e-08
2606.6, -2.676e-08
2608.6, -2.66e-08
2610.6, -3.112e-08
2612.6, -2.916e-08
2614.6, -2.719e-08
2616.6, -2.587e-08
2618.6, -2.883e-08
2620.6, -2.56e-08
2622.6, -2.923e-08
2624.6, -2.763e-08
2626.6, -3.083e-08
2628.6, -2.617e-08
2630.6, -2.375e-08
2632.6, -2.589e-08
2634.6, -2.504e-08
2636.6, -2.261e-08
2638.6, -2.506e-08
2640.6, -2.3e-08
2642.6, -2.466e-08
2644.6, -2.762e-08
2646.6, -2.55e-08
2648.6, -2.783e-08
2650.6, -2.636e-08
2652.6, -2.844e-08
2654.7, -2.626e-08
2656.7, -2.744e-08
2658.7, -2.598e-08
2660.7, -2.633e-08
2662.7, -2.585e-08
2664.7, -2.629e-08
2666.7, -2.699e-08
2668.7, -2.889e-08
2670.7, -2.408e-08
2672.7, -2.745e-08
2674.7, -2.655e-08
2676.7, -2.602e-08
2678.7, -2.684e-08
2680.7, -2.619e-08
2682.7, -3.047e-08
2684.7, -2.843e-08
2686.7, -2.762e-08
2688.7, -2.662e-08
2690.7, -2.571e-08
2692.7, -2.81e-08
2694.7, -2.981e-08
2696.7, -2.409e-08
2698.7, -2.536e-08
2700.7, -2.292e-08
2702.7, -2.786e-08
2704.7, -2.607e-08
2706.7, -2.616e-08
2708.7, -2.735e-08
2710.7, -2.862e-08
2712.7, -3.029e-08
2714.7, -2.98e-08
2716.7, -2.858e-08
2718.7, -3.059e-08
2720.7, -2.881e-08
2722.7, -3.061e-08
2724.7, -3.024e-08
2726.7, -2.852e-08
2728.7, -2.69e-08
2730.7, -3.01e-08
2732.7, -2.664e-08
2734.7, -2.711e-08
2736.7, -2.918e-08
2738.7, -2.821e-08
2740.7, -2.954e-08
2742.7, -2.892e-08
2744.7, -2.885e-08
2746.7, -2.673e-08
2748.7, -2.908e-08
2750.7, -2.932e-08
2752.7, -2.796e-08
2754.8, -2.789e-08
2756.8, -2.704e-08
2758.8, -2.813e-08
2760.8, -2.783e-08
2762.8, -2.692e-08
2764.8, -3.081e-08
2766.8, -2.967e-08
2768.8, -2.583e-08
2770.8, -2.826e-08
2772.8, -2.728e-08
2774.8, -2.596e-08
2776.8, -2.667e-08
2778.8, -3.026e-08
2780.8, -2.47e-08
2782.8, -2.447e-08
2784.8, -2.787e-08
2786.8, -2.393e-08
2788.8, -2.686e-08
2790.8, -2.843e-08
2792.8, -3.009e-08
2794.8, -2.936e-08
2796.8, -2.799e-08
2798.8, -3.018e-08
2800.8, -2.551e-08
2802.8, -2.565e-08
2804.8, -2.901e-08
2806.8, -2.731e-08
2808.8, -2.733e-08
2810.8, -2.913e-08
2812.8, -2.926e-08
2814.8, -2.79e-08
2816.8, -2.716e-08
2818.8, -2.605e-08
2820.8, -2.79e-08
2822.8, -2.871e-08
2824.8, -2.876e-08
2826.8, -2.602e-08
2828.8, -2.557e-08
2830.8, -2.589e-08
2832.8, -2.544e-08
2834.8, -2.808e-08
2836.8, -2.72e-08
2838.8, -2.76e-08
2840.8, -2.8e-08
2842.8, -3.071e-08
2844.8, -2.815e-08
2846.8, -2.655e-08
2848.8, -2.939e-08
2850.8, -3.055e-08
2852.8, -3.193e-08
2854.9, -3.023e-08
2856.9, -2.994e-08
2858.9, -3.101e-08
2860.9, -2.792e-08
2862.9, -2.787e-08
2864.9, -2.628e-08
2866.9, -2.657e-08
2868.9, -2.802e-08
2870.9, -2.842e-08
2872.9, -2.673e-08
2874.9, -2.38e-08
2876.9, -2.656e-08
2878.9, -2.601e-08
2880.9, -2.849e-08
2882.9, -2.839e-08
2884.9, -2.811e-08
2886.9, -2.553e-08
2888.9, -2.846e-08
2890.9, -2.783e-08
2892.9, -2.809e-08
2894.9, -2.697e-08
2896.9, -2.798e-08
2898.9, -2.726e-08
2900.9, -2.98e-08
2902.9, -2.887e-08
2904.9, -2.52e-08
2906.9, -2.516e-08
2908.9, -2.61e-08
2910.9, -2.76e-08
2912.9, -2.697e-08
2914.9, -3.189e-08
2916.9, -2.978e-08
2918.9, -3.142e-08
2920.9, -3.233e-08
2922.9, -3.409e-08
2924.9, -3.232e-08
2926.9, -3.106e-08
2928.9, -3.083e-08
2930.9, -3.143e-08
2932.9, -3.232e-08
2934.9, -3.058e-08
2936.9, -3.305e-08
2938.9, -3.466e-08
2940.9, -3.481e-08
2942.9, -3.269e-08
2944.9, -3.226e-08
2946.9, -3.053e-08
2948.9, -2.965e-08
2950.9, -3.474e-08
2952.9, -3.56e-08
2955.0, -2.881e-08
2957.0, -2.839e-08
2959.0, -3.074e-08
2961.0, -3.309e-08
2963.0, -3.184e-08
2965.0, -3.211e-08
2967.0, -3.232e-08
2969.0, -3.311e-08
2971.0, -3.133e-08
2973.0, -2.968e-08
2975.0, -3.317e-08
2977.0, -3.249e-08
2979.0, -3.346e-08
2981.0, -3.141e-08
2983.0, -3.002e-08
2985.0, -3.186e-08
2987.0, -3.283e-08
2989.0, -3.367e-08
2991.0, -3.176e-08
2993.0, -3.012e-08
2995.0, -3.177e-08
2997.0, -3.203e-08
2999.0, -3.237e-08
3001.0, -3.552e-08
3003.0, -3.462e-08
3005.0, -3.266e-08
3007.0, -3.115e-08
3009.0, -3.291e-08
3011.0, -3.326e-08
3013.0, -3.283e-08
3015.0, -3.262e-08
3017.0, -3.472e-08
3019.0, -3.47e-08
3021.0, -3.201e-08
3023.0, -3.233e-08
3025.0, -3.08e-08
3027.0, -3.141e-08
3029.0, -3.072e-08
3031.0, -2.896e-08
3033.0, -3.655e-08
3035.0, -3.19e-08
3037.0, -3.039e-08
3039.0, -3.029e-08
3041.0, -2.925e-08
3043.0, -3.078e-08
3045.0, -3.205e-08
3047.0, -2.901e-08
3049.0, -3.123e-08
3051.0, -2.963e-08
3053.0, -3.169e-08
3055.1, -3.133e-08
3057.1, -3.002e-08
3059.1, -3.393e-08
3061.1, -3.072e-08
3063.1, -2.676e-08
3065.1, -3.038e-08
3067.1, -2.869e-08
3069.1, -3.072e-08
3071.1, -2.363e-08
3073.1, -2.797e-08
3075.1, -2.855e-08
3077.1, -2.87e-08
3079.1, -2.443e-08
3081.1, -2.27e-09
3083.1, -3.48e-09
3085.1, -3.46e-09
3087.1, 1.19e-09
3089.1, -4.52e-09
3091.1, -6.15e-09
3093.1, 1.41e-09
3095.1, -1.56e-09
3097.1, 1.67e-09
3099.1, -3.17e-09
3101.1, -6.74e-09
3103.1, -7.34e-09
3105.1, -3e-09
3107.1, -5.77e-09
3109.1, 5.8e-10
3111.1, 1.04e-09
3113.1, -1.39e-09
3115.1, -4.5e-09
3117.1, -3.2e-09
3119.1, -8.3e-09
3121.1, -5.35e-09
3123.1, -1.094e-08
3125.1, -7.76e-09
3127.1, -6.23e-09
3129.1, -5.42e-09
3131.1, -5.28e-09
3133.1, -3.19e-09
3135.1, -7.21e-09
3137.1, -2.6e-10
3139.1, -5.03e-09
3141.1, -6.29e-09
3143.1, -6.54e-09
3145.1, -1.02e-09
3147.1, -3.92e-09
3149.1, -1.79e-09
3151.1, -8.13e-09
3153.1, -7.24e-09
3155.2, -8.8e-10
3157.2, -4.86e-09
3159.2, -4.6e-10
3161.2, 2.81e-09
3163.2, -4.1e-10
3165.2, -2.72e-09
3167.2, 7e-11
3169.2, 4.2e-10
3171.2, 3.82e-09
3173.2, 1.4e-10
3175.2, -3.2e-09
3177.2, 5.7e-10
3179.2, -1.85e-09
3181.2, -1.4e-09
3183.2, -5.6e-09
3185.2, -2.41e-09
3187.2, -3.18e-09
3189.2, -1.21e-09
3191.2, -1.79e-09
3193.2, -4.92e-09
3195.2, -1.87e-09
3197.2, -1.84e-09
3199.2, 5e-11
3201.2, -2.44e-09
3203.2, 2.9e-10
3205.2, -1.06e-09
3207.2, -3.55e-09
3209.2, -2.32e-09
3211.2, -3.51e-09
3213.2, 2.48e-09
3215.2, 5.63e-09
3217.2, 2.07e-09
3219.2, 4.5e-09
3221.2, -1.01e-09
3223.2, -3.79e-09
3225.2, -2.72e-09
3227.2, -8.5e-10
3229.2, -4.11e-09
3231.2, -2.66e-09
3233.2, 1.7e-10
3235.2, 6e-10
3237.2, 3.7e-10
3239.2, 9.8e-10
3241.2, -1.69e-09
3243.2, -4.6e-09
3245.2, 2.12e-09
3247.2, -1.19e-09
3249.2, -3.12e-09
3251.2, 3.09e-09
3253.2, -2.73e-09
3255.3, 1.05e-09
3257.3, 3.72e-09
3259.3, 8.56e-09
3261.3, 2.08e-09
3263.3, -4e-11
3265.3, -1.54e-09
3267.3, -1.21e-09
3269.3, 5.67e-09
3271.3, 1.75e-09
3273.3, 2.19e-09
3275.3, -3.79e-09
3277.3, 1.38e-09
3279.3, -6.19e-09
3281.3, -1.48e-09
3283.3, -5.76e-09
3285.3, -1.7e-09
3287.3, -5.6e-10
3289.3, 6.66e-09
3291.3, 1.19e-09
3293.3, -4.44e-09
3295.3, 1.12e-09
3297.3, 3.18e-09
3299.3, 6.1e-10
3301.3, -1.12e-09
3303.3, -8e-11
3305.3, 2.33e-09
3307.3, -2.04e-09
3309.3, -2.25e-09
3311.3, -2.57e-09
3313.3, -5.09e-09
3315.3, 8e-10
3317.3, -2.74e-09
3319.3, 2.8e-10
3321.3, -2.75e-09
3323.3, 1.05e-09
3325.3, -3.27e-09
3327.3, -2.65e-09
3329.3, -4.57e-09
3331.3, 1.09e-09
3333.3, -4.64e-09
3335.3, -6.08e-09
3337.3, -1.1e-09
3339.3, -1.52e-09
3341.3, -4.33e-09
3343.3, -5.99e-09
3345.3, -1.01e-09
3347.3, -3.57e-09
3349.3, 8.2e-10
3351.3, 7.76e-09
3353.3, 3.92e-09
3355.4, -2.57e-09
3357.4, 4.03e-09
3359.4, 1.29e-09
3361.4, -9e-11
3363.4, -9.5e-10
3365.4, 4.17e-09
3367.4, -1.74e-09
3369.4, 2.86e-09
3371.4, -1.55e-09
3373.4, 3.2e-10
3375.4, 2e-11
3377.4, 1.41e-09
3379.4, -1.1e-09
3381.4, 4.43e-09
3383.4, -7.5e-10
3385.4, -7.48e-09
3387.4, -2.19e-09
3389.4, 5.4e-10
3391.4, -8.7e-10
3393.4, -2.06e-09
3395.4, -4.95e-09
3397.4, 3.68e-09
3399.4, 7.01e-09
3401.4, 3.33e-09
3403.4, 4.9e-10
3405.4, 3.03e-09
3407.4, 5.85e-09
3409.4, 6.13e-09
3411.4, 2.56e-09
3413.4, 1.63e-09
3415.4, -3.4e-10
3417.4, -4.8e-10
3419.4, -5.38e-09
3421.4, 1.2e-09
3423.4, 7.58e-09
3425.4, 4.6e-10
3427.4, -3.03e-09
3429.4, 4.09e-09
3431.4, -4e-11
3433.4, 1.38e-09
3435.4, -8.2e-10
3437.4, 2.51e-09
3439.4, 3.3e-10
3441.4, 7.51e-09
3443.4, 4.32e-09
3445.4, -2.11e-09
3447.4, 1.47e-09
3449.4, 2.76e-09
3451.4, 3.9e-10
3453.4, 3.4e-09
3455.5, -3.31e-09
3457.5, 3.65e-09
3459.5, 9.19e-09
3461.5, 1.65e-09
3463.5, 3.22e-09
3465.5, 8.29e-09
3467.5, 5.83e-09
3469.5, 9.9e-10
3471.5, 3.38e-09
3473.5, -2.01e-09
3475.5, -3.12e-09
3477.5, 3.01e-09
3479.5, -2.12e-09
3481.5, 3.56e-09
3483.5, 1.6e-10
3485.5, -1.62e-09
3487.5, 1.99e-09
3489.5, 3.86e-09
3491.5, 2.9e-10
3493.5, -2.14e-09
3495.5, -4.01e-09
3497.5, -2.36e-09
3499.5, 2.5e-09
3501.5, 4.6e-10
3503.5, 5.22e-09
3505.5, 3.6e-09
3507.5, 4.7e-10
3509.5, 4.13e-09
3511.5, 2.3e-10
3513.5, -1.22e-09
3515.5, -8.8e-10
3517.5, 5.2e-10
3519.5, 1.67e-09
3521.5, 1.21e-09
3523.5, 2.4e-09
3525.5, -2.62e-09
3527.5, 8.19e-09
3529.5, 6.59e-09
3531.5, -1.85e-09
3533.5, 3.21e-09
3535.5, -2.45e-09
3537.5, 2.05e-09
3539.5, 1.29e-09
3541.5, -1.17e-09
3543.5, -2.23e-09
3545.5, -3.82e-09
3547.5, -5.45e-09
3549.5, 2.4e-09
3551.5, -4.23e-09
3553.5, 4.35e-09
3555.6, 3.92e-09
3557.6, -1.009e-08
3559.6, -5.87e-09
3561.6, -2.71e-09
3563.6, 5.3e-10
3565.6, 2.31e-09
3567.6, -2.6e-10
3569.6, -2.23e-09
3571.6, -7.7e-10
3573.6, -2.96e-09
3575.6, 2.15e-09
3577.6, 7.39e-09
3579.6, 8.06e-09
3581.6, -2.38e-09
3583.6, -3.78e-09
3585.6, 6.7e-10
3587.6, 1.81e-09
3589.6, -2.97e-09
3591.6, -3.23e-09
3593.6, -3.2e-09
3595.6, -1.16e-09
3597.6, 2.32e-09
3599.6, 1.61e-09
3601.6, -1.75e-09
3603.6, -3.8e-10
3605.6, -9.7e-10
3607.6, -5.61e-09
3609.6, -1.72e-09
3611.6, -9.8e-10
3613.6, 1.96e-09
3615.6, -5.23e-09
3617.6, -2.75e-09
3619.6, 2.89e-09
3621.6, 4.37e-09
3623.6, 4.37e-09
3625.6, 2.04e-09
3627.6, 1.36e-09
3629.6, -4.47e-09
3631.6, -2.57e-09
3633.6, 5.95e-09
3635.6, -2.13e-09
3637.6, -4.21e-09
3639.6, 1.02e-09
3641.6, -5.51e-09
3643.6, -5.17e-09
3645.6, -7.31e-09
3647.6, -2.46e-09
3649.6, 2e-10
3651.6, 1.23e-09
3653.6, -9.6e-10
3655.7, -2.13e-09
3657.7, -7.5e-10
3659.7, -9.1e-10
3661.7, 3.2e-09
3663.7, 1.153e-08
3665.7, 1.01e-09
3667.7, -6.11e-09
3669.7, 3.66e-09
3671.7, 1.34e-09
3673.7, -7.22e-09
3675.7, 1.96e-09
3677.7, 2.03e-09
3679.7, -4.8e-09
3681.7, -3.92e-09
3683.7, -4.84e-09
3685.7, -2.56e-09
3687.7, -3.26e-09
3689.7, 2.98e-09
3691.7, -6.5e-10
3693.7, -4.8e-10
3695.7, -1.88e-09
3697.7, 3.43e-09
3699.7, 6.1e-10
3701.7, -1.9e-09
3703.7, 1.8e-10
3705.7, 1.63e-09
3707.7, -2.35e-09
3709.7, -2.27e-09
3711.7, -4.81e-09
3713.7, -5.86e-09
3715.7, -2.73e-09
3717.7, -2.94e-09
3719.7, -8.3e-10
3721.7, -5.01e-09
3723.7, -4.94e-09
3725.7, -5.36e-09
3727.7, -1.71e-09
3729.7, 4.41e-09
3731.7, -3.5e-09
3733.7, -7.98e-09
3735.7, -2.77e-09
3737.7, -9.96e-09
3739.7, -1.037e-08
3741.7, -8e-10
3743.7, -6.79e-09
3745.7, -8.2e-10
3747.7, -7.39e-09
3749.7, -9e-11
3751.7, -5.33e-09
3753.7, -7.3e-09
3755.8, -3.43e-09
3757.8, -1.222e-08
3759.8, -7.25e-09
3761.8, -1.02e-09
3763.8, -6.42e-09
3765.8, 3.7e-10
3767.8, 1.133e-08
3769.8, -1.67e-09
3771.8, 4.49e-09
3773.8, -1.44e-09
3775.8, 7.22e-09
3777.8, 2.87e-09
3779.8, 1.43e-09
3781.8, -2.83e-09
3783.8, -5.6e-10
3785.8, 1.07e-09
3787.8, -2.45e-09
3789.8, 5.97e-09
3791.8, 4.06e-09
3793.8, 2.03e-09
3795.8, 1.55e-09
3797.8, 7.8e-10
3799.8, -2.8e-10
3801.8, 3.02e-09
3803.8, 9.6e-10
3805.8, -4.1e-10
3807.8, -6.56e-09
3809.8, -4.1e-09
3811.8, 5.33e-09
3813.8, -1.3e-09
3815.8, -4.04e-09
3817.8, -1.19e-09
3819.8, 1.38e-09
3821.8, -6.47e-09
3823.8, -9.6e-10
3825.8, -5.18e-09
3827.8, -3.59e-09
3829.8, -6.7e-09
3831.8, -6.36e-09
3833.8, -1.8e-09
3835.8, 9e-11
3837.8, 2.1e-09
3839.8, -3.08e-09
3841.8, -2.44e-09
3843.8, -4.04e-09
3845.8, -3.06e-09
3847.8, -2.61e-09
3849.8, -1.25e-09
3851.8, 1.18e-09
3853.8, -6.57e-09
3855.9, -4.14e-09
3857.9, 6.4e-10
3859.9, 9.7e-10
3861.9, -1.84e-09
3863.9, -1.24e-09
3865.9, -6.64e-09
3867.9, -3.4e-09
3869.9, 1.96e-09
3871.9, -1.93e-09
3873.9, 1.11e-09
3875.9, -4.06e-09
3877.9, -2.21e-09
3879.9, 2.94e-09
3881.9, -2.2e-10
3883.9, 1.64e-09
3885.9, -4.25e-09
3887.9, -1.069e-08
3889.9, -4.97e-09
3891.9, 5.5e-10
3893.9, -1.7e-09
3895.9, 9.8e-10
3897.9, 3.9e-10
3899.9, 2.99e-09
3901.9, -1.89e-09
3903.9, -1.34e-09
3905.9, 3.68e-09
3907.9, 2.17e-09
3909.9, -2.25e-09
3911.9, -2.7e-10
3913.9, 9.01e-09
3915.9, -2e-11
3917.9, 1.45e-09
3919.9, 1.84e-09
3921.9, -1e-10
3923.9, 5.9e-10
3925.9, -9.7e-10
3927.9, 2.64e-09
3929.9, -4.35e-09
3931.9, 2.6e-10
3933.9, -1.35e-09
3935.9, 5.89e-09
3937.9, 3.7e-09
3939.9, 7.9e-09
3941.9, 4.74e-09
3943.9, 6.79e-09
3945.9, 1.55e-09
3947.9, 2.24e-09
3949.9, 2.9e-09
3951.9, -1.86e-09
3953.9, 2.12e-09
3956.0, -2.99e-09
3958.0, -3e-11
3960.0, 6e-11
3962.0, -1.32e-09
3964.0, -2.94e-09
3966.0, -2.2e-10
3968.0, 8.53e-09
3970.0, 8.49e-09
3972.0, 2.86e-09
3974.0, -3.49e-09
3976.0, -5.98e-09
3978.0, -1.78e-09
3980.0, 5.1e-09
3982.0, 2.6e-10
3984.0, 5.3e-10
3986.0, -1.66e-09
3988.0, 3.32e-09
3990.0, 2.28e-09
3992.0, 6.72e-09
3994.0, -1.74e-09
3996.0, -1.2e-10
3998.0, 1.61e-09
4000.0, 5.91e-09
4002.0, 7.3e-10
4004.0, 2.12e-09
4006.0, 2.26e-09
4008.0, 2.65e-09
4010.0, 4.99e-09
4012.0, -8.4e-10
4014.0, -2.46e-09
4016.0, 3.05e-09
4018.0, 7.7e-10
4020.0, 4.32e-09
4022.0, 9e-09
4024.0, 3.11e-09
4026.0, -3.1e-09
4028.0, 1.22e-09
4030.0, 5.19e-09
4032.0, -9.6e-10
4034.0, -6e-11
4036.0, -5.79e-09
4038.0, 1.41e-09
4040.0, 2.06e-09
4042.0, -3.9e-10
4044.0, -1.03e-09
4046.0, -3.65e-09
4048.0, 1.23e-09
4050.0, 2.65e-09
4052.0, 4.05e-09
4054.0, -1.48e-09
4056.1, 2.79e-09
4058.1, 4.03e-09
4060.1, 4e-10
4062.1, 3.96e-09
4064.1, -5.5e-10
4066.1, 9.8e-10
4068.1, 3.51e-09
4070.1, 1.075e-08
4072.1, 7.99e-09
4074.1, 6.01e-09
4076.1, -1.93e-09
4078.1, 4.3e-09
4080.1, -5.89e-09
4082.1, -2.907e-08
4084.1, -2.794e-08
4086.1, -2.951e-08
4088.1, -2.937e-08
4090.1, -3.098e-08
4092.1, -3.042e-08
4094.1, -2.918e-08
4096.1, -3.152e-08
4098.1, -3.19e-08
4100.1, -2.991e-08
4102.1, -2.603e-08
4104.1, -3.281e-08
4106.1, -3.108e-08
4108.1, -3.026e-08
4110.1, -3.137e-08
4112.1, -2.963e-08
4114.1, -3.063e-08
4116.1, -3.306e-08
4118.1, -2.921e-08
4120.1, -2.784e-08
4122.1, -2.906e-08
4124.1, -3.097e-08
4126.1, -2.836e-08
4128.1, -2.774e-08
4130.1, -3.067e-08
4132.1, -2.935e-08
4134.1, -3.291e-08
4136.1, -3.514e-08
4138.1, -3.38e-08
4140.1, -3.161e-08
4142.1, -2.949e-08
4144.1, -3.133e-08
4146.1, -3.205e-08
4148.1, -3.083e-08
4150.1, -2.808e-08
4152.1, -3.168e-08
4154.1, -3.183e-08
4156.2, -2.909e-08
4158.2, -3.018e-08
4160.2, -3.236e-08
4162.2, -3.26e-08
4164.2, -3.46e-08
4166.2, -3.023e-08
4168.2, -3.138e-08
4170.2, -3.009e-08
4172.2, -3.298e-08
4174.2, -3.06e-08
4176.2, -3.293e-08
4178.2, -2.924e-08
4180.2, -3.243e-08
4182.2, -3.573e-08
4184.2, -3.476e-08
4186.2, -3.573e-08
4188.2, -3.543e-08
4190.2, -3.348e-08
4192.2, -3.337e-08
4194.2, -3.4e-08
4196.2, -3.375e-08
4198.2, -3.758e-08
4200.2, -3.554e-08
4202.2, -3.789e-08
4204.2, -3.243e-08
4206.2, -3.569e-08
4208.2, -3.39e-08
4210.2, -3.637e-08
4212.2, -3.604e-08
4214.2, -3.509e-08
4216.2, -3.818e-08
4218.2, -3.383e-08
4220.2, -3.478e-08
4222.2, -3.497e-08
4224.2, -3.533e-08
4226.2, -3.584e-08
4228.2, -3.476e-08
4230.2, -3.452e-08
4232.2, -3.488e-08
4234.2, -3.719e-08
4236.2, -3.679e-08
4238.2, -3.489e-08
4240.2, -3.543e-08
4242.2, -3.696e-08
4244.2, -3.133e-08
4246.2, -3.255e-08
4248.2, -3.502e-08
4250.2, -3.251e-08
4252.2, -3.34e-08
4254.2, -3.258e-08
4256.3, -3.39e-08
4258.3, -2.999e-08
4260.3, -3.581e-08
4262.3, -3.721e-08
4264.3, -3.533e-08
4266.3, -3.875e-08
4268.3, -3.567e-08
4270.3, -3.88e-08
4272.3, -3.58e-08
4274.3, -4.15e-08
4276.3, -3.657e-08
4278.3, -3.388e-08
4280.3, -3.73e-08
4282.3, -3.698e-08
4284.3, -3.718e-08
4286.3, -3.848e-08
4288.3, -3.527e-08
4290.3, -3.307e-08
4292.3, -3.612e-08
4294.3, -3.483e-08
4296.3, -3.512e-08
4298.3, -3.368e-08
4300.3, -3.715e-08
4302.3, -3.492e-08
4304.3, -3.193e-08
4306.3, -3.603e-08
4308.3, -3.299e-08
4310.3, -3.757e-08
4312.3, -3.075e-08
4314.3, -3.242e-08
4316.3, -3.248e-08
4318.3, -3.176e-08
4320.3, -3.474e-08
4322.3, -3.139e-08
4324.3, -3.502e-08
4326.3, -3.542e-08
4328.3, -3.567e-08
4330.3, -3.313e-08
4332.3, -3.346e-08
4334.3, -3.33e-08
4336.3, -3.503e-08
4338.3, -3.449e-08
4340.3, -3.015e-08
4342.3, -3.296e-08
4344.3, -3.163e-08
4346.3, -3.396e-08
4348.3, -3.489e-08
4350.3, -3.308e-08
4352.3, -3.168e-08
4354.3, -3.565e-08
4356.4, -3.426e-08
4358.4, -3.013e-08
4360.4, -3.07e-08
4362.4, -3.035e-08
4364.4, -3.439e-08
4366.4, -3.183e-08
4368.4, -3.326e-08
4370.4, -3.521e-08
4372.4, -3.322e-08
4374.4, -3.486e-08
4376.4, -3.493e-08
4378.4, -3.614e-08
4380.4, -3.063e-08
4382.4, -3.166e-08
4384.4, -3.338e-08
4386.4, -3.612e-08
4388.4, -3.47e-08
4390.4, -3.205e-08
4392.4, -3.21e-08
4394.4, -3.095e-08
4396.4, -3.447e-08
4398.4, -3.451e-08
4400.4, -3.365e-08
4402.4, -3.388e-08
4404.4, -3.435e-08
4406.4, -3.108e-08
4408.4, -3.502e-08
4410.4, -3.341e-08
4412.4, -3.552e-08
4414.4, -3.478e-08
4416.4, -3.42e-08
4418.4, -3.712e-08
4420.4, -3.832e-08
4422.4, -3.352e-08
4424.4, -3.78e-08
4426.4, -3.835e-08
4428.4, -3.396e-08
4430.4, -3.621e-08
4432.4, -3.538e-08
4434.4, -4.043e-08
4436.4, -3.622e-08
4438.4, -3.693e-08
4440.4, -3.545e-08
4442.4, -3.3e-08
4444.4, -3.864e-08
4446.4, -3.664e-08
4448.4, -3.174e-08
4450.4, -3.275e-08
4452.4, -3.694e-08
4454.4, -3.877e-08
4456.5, -3.189e-08
4458.5, -3.291e-08
4460.5, -3.125e-08
4462.5, -2.906e-08
4464.5, -3.146e-08
4466.5, -3.364e-08
4468.5, -3.25e-08
4470.5, -3.098e-08
4472.5, -3.171e-08
4474.5, -3.188e-08
4476.5, -3.331e-08
4478.5, -3.508e-08
4480.5, -3.315e-08
4482.5, -3.153e-08
4484.5, -3.333e-08
4486.5, -3.346e-08
4488.5, -3.612e-08
4490.5, -3.634e-08
4492.5, -3.654e-08
4494.5, -3.334e-08
4496.5, -3.332e-08
4498.5, -3.424e-08
4500.5, -3.322e-08
4502.5, -3.49e-08
4504.5, -3.495e-08
4506.5, -3.188e-08
4508.5, -3.019e-08
4510.5, -3.104e-08
4512.5, -2.967e-08
4514.5, -3.348e-08
4516.5, -3.485e-08
4518.5, -3.141e-08
4520.5, -3.58e-08
4522.5, -3.722e-08
4524.5, -3.466e-08
4526.5, -3.456e-08
4528.5, -3.488e-08
4530.5, -3.758e-08
4532.5, -3.556e-08
4534.5, -3.494e-08
4536.5, -3.765e-08
4538.5, -4.043e-08
4540.5, -3.437e-08
4542.5, -3.431e-08
4544.5, -3.726e-08
4546.5, -3.803e-08
4548.5, -3.626e-08
4550.5, -3.34e-08
4552.5, -3.546e-08
4554.5, -3.44e-08
4556.6, -3.658e-08
4558.6, -3.504e-08
4560.6, -3.58e-08
4562.6, -3.33e-08
4564.6, -3.273e-08
4566.6, -3.427e-08
4568.6, -3.246e-08
4570.6, -3.438e-08
4572.6, -3.237e-08
4574.6, -3.468e-08
4576.6, -3.351e-08
4578.6, -3.74e-08
4580.6, -3.361e-08
4582.6, -3.634e-08
4584.6, -3.241e-08
4586.6, -3.381e-08
4588.6, -3.105e-08
4590.6, -3.063e-08
4592.6, -3.505e-08
4594.6, -3.508e-08
4596.6, -3.631e-08
4598.6, -3.85e-08
4600.6, -3.408e-08
4602.6, -3.727e-08
4604.6, -3.61e-08
4606.6, -3.769e-08
4608.6, -3.665e-08
4610.6, -3.677e-08
4612.6, -3.778e-08
4614.6, -3.407e-08
4616.6, -3.809e-08
4618.6, -3.287e-08
4620.6, -3.237e-08
4622.6, -3.354e-08
4624.6, -3.552e-08
4626.6, -3.777e-08
4628.6, -3.372e-08
4630.6, -3.289e-08
4632.6, -3.421e-08
4634.6, -3.383e-08
4636.6, -3.429e-08
4638.6, -3.424e-08
4640.6, -3.372e-08
4642.6, -3.43e-08
4644.6, -3.281e-08
4646.6, -3.205e-08
4648.6, -3.304e-08
4650.6, -2.94e-08
4652.6, -3.1e-08
4654.6, -3.355e-08
4656.7, -3.301e-08
4658.7, -3.433e-08
4660.7, -3.555e-08
4662.7, -3.636e-08
4664.7, -3.342e-08
4666.7, -3.272e-08
4668.7, -3.294e-08
4670.7, -3.337e-08
4672.7, -3.422e-08
4674.7, -3.271e-08
4676.7, -3.429e-08
4678.7, -3.463e-08
4680.7, -3.471e-08
4682.7, -3.463e-08
4684.7, -3.626e-08
4686.7, -3.735e-08
4688.7, -3.304e-08
4690.7, -3.702e-08
4692.7, -3.314e-08
4694.7, -3.494e-08
4696.7, -3.339e-08
4698.7, -3.594e-08
4700.7, -3.712e-08
4702.7, -3.404e-08
4704.7, -3.716e-08
4706.7, -3.882e-08
4708.7, -3.628e-08
4710.7, -3.362e-08
4712.7, -3.93e-08
4714.7, -3.588e-08
4716.7, -3.57e-08
4718.7, -3.406e-08
4720.7, -3.746e-08
4722.7, -3.521e-08
4724.7, -3.408e-08
4726.7, -3.292e-08
4728.7, -3.383e-08
4730.7, -3.511e-08
4732.7, -3.451e-08
4734.7, -3.249e-08
4736.7, -3.416e-08
4738.7, -3.24e-08
4740.7, -3.112e-08
4742.7, -3.139e-08
4744.7, -3.309e-08
4746.7, -2.962e-08
4748.7, -3.194e-08
4750.7, -3.142e-08
4752.7, -3.151e-08
4754.7, -2.993e-08
4756.8, -3.298e-08
4758.8, -2.872e-08
4760.8, -3.48e-08
4762.8, -3.255e-08
4764.8, -3.334e-08
4766.8, -3.451e-08
4768.8, -3.77e-08
4770.8, -3.567e-08
4772.8, -3.664e-08
4774.8, -3.237e-08
4776.8, -3.442e-08
4778.8, -3.177e-08
4780.8, -3.453e-08
4782.8, -3.097e-08
4784.8, -3.64e-08
4786.8, -3.247e-08
4788.8, -3.31e-08
4790.8, -3.697e-08
4792.8, -3.433e-08
4794.8, -3.405e-08
4796.8, -3.616e-08
4798.8, -3.425e-08
4800.8, -3.842e-08
4802.8, -3.176e-08
4804.8, -3.548e-08
4806.8, -3.68e-08
4808.8, -3.812e-08
4810.8, -3.238e-08
4812.8, -3.755e-08
4814.8, -3.773e-08
4816.8, -3.291e-08
4818.8, -3.271e-08
4820.8, -3.574e-08
4822.8, -3.529e-08
4824.8, -3.443e-08
4826.8, -3.735e-08
4828.8, -3.299e-08
4830.8, -3.517e-08
4832.8, -3.497e-08
4834.8, -3.63e-08
4836.8, -3.488e-08
4838.8, -3.522e-08
4840.8, -3.578e-08
4842.8, -3.283e-08
4844.8, -2.995e-08
4846.8, -3.127e-08
4848.8, -3.151e-08
4850.8, -3.164e-08
4852.8, -2.895e-08
4854.8, -3.073e-08
4856.9, -3.232e-08
4858.9, -3.049e-08
4860.9, -2.856e-08
4862.9, -2.843e-08
4864.9, -3.108e-08
4866.9, -3.173e-08
4868.9, -3.317e-08
4870.9, -3.113e-08
4872.9, -3.261e-08
4874.9, -3.353e-08
4876.9, -3.207e-08
4878.9, -3.071e-08
4880.9, -3.211e-08
4882.9, -2.97e-08
4884.9, -3.347e-08
4886.9, -3.175e-08
4888.9, -2.909e-08
4890.9, -3.128e-08
4892.9, -3.092e-08
4894.9, -3.255e-08
4896.9, -3.724e-08
4898.9, -3.308e-08
4900.9, -3.243e-08
4902.9, -3.427e-08
4904.9, -3.695e-08
4906.9, -3.319e-08
4908.9, -3.644e-08
4910.9, -3.322e-08
4912.9, -3.181e-08
4914.9, -3.592e-08
4916.9, -3.506e-08
4918.9, -3.616e-08
4920.9, -3.754e-08
4922.9, -3.733e-08
4924.9, -3.827e-08
4926.9, -3.721e-08
4928.9, -3.754e-08
4930.9, -3.449e-08
4932.9, -3.45e-08
4934.9, -3.386e-08
4936.9, -3.273e-08
4938.9, -3.392e-08
4940.9, -3.374e-08
4942.9, -3.564e-08
4944.9, -3.343e-08
4946.9, -3.338e-08
4948.9, -3.405e-08
4950.9, -3.077e-08
4952.9, -2.944e-08
4954.9, -3.097e-08
4957.0, -3.191e-08
4959.0, -2.934e-08
4961.0, -3.183e-08
4963.0, -3.02e-08
4965.0, -3.146e-08
4967.0, -3.233e-08
4969.0, -3.176e-08
4971.0, -3.146e-08
4973.0, -3.059e-08
4975.0, -3.383e-08
4977.0, -3.113e-08
4979.0, -3.184e-08
4981.0, -3.443e-08
4983.0, -3.331e-08
4985.0, -3.436e-08
4987.0, -3.173e-08
4989.0, -2.846e-08
4991.0, -3.123e-08
4993.0, -2.958e-08
4995.0, -3.044e-08
4997.0, -3.126e-08
4999.0, -3.306e-08
5001.0, -3.361e-08
5003.0, -3.194e-08
5005.0, -3.169e-08
5007.0, -3.221e-08
5009.0, -2.908e-08
5011.0, -3.504e-08
5013.0, -3.665e-08
5015.0, -3.266e-08
5017.0, -3.134e-08
5019.0, -3.063e-08
5021.0, -2.947e-08
5023.0, -2.945e-08
5025.0, -3.361e-08
5027.0, -2.831e-08
5029.0, -3.23e-08
5031.0, -3.193e-08
5033.0, -3.035e-08
5035.0, -3.029e-08
5037.0, -3.115e-08
5039.0, -2.972e-08
5041.0, -2.763e-08
5043.0, -2.642e-08
5045.0, -3.043e-08
5047.0, -2.954e-08
5049.0, -3.118e-08
5051.0, -3.05e-08
5053.0, -3.034e-08
5055.0, -2.97e-08
5057.1, -2.853e-08
5059.1, -2.92e-08
5061.1, -2.995e-08
5063.1, -2.839e-08
5065.1, -2.67e-08
5067.1, -2.775e-08
5069.1, -2.693e-08
5071.1, -2.312e-08
5073.1, -2.976e-08
5075.1, -3.044e-08
5077.1, -3.146e-08
5079.1, -2.899e-08
5081.1, -3.036e-08
5083.1, -3.014e-08
5085.1, -3.028e-08
5087.1, -3.51e-08
5089.1, -3.226e-08
5091.1, -3.234e-08
5093.1, -3.386e-08
5095.1, -3.476e-08
5097.1, -3.436e-08
5099.1, -3.171e-08
5101.1, -3.049e-08
5103.1, -3.294e-08
5105.1, -3.358e-08
5107.1, -3.584e-08
5109.1, -3.247e-08
5111.1, -1.27e-09
5113.1, -6.95e-09
5115.1, -5.7e-09
5117.1, -6.81e-09
5119.1, -5.29e-09
5121.1, -4.88e-09
5123.1, -8.91e-09
5125.1, -9e-09
5127.1, -1.343e-08
5129.1, -4.07e-09
5131.1, -2.04e-09
5133.1, -5.5e-09
5135.1, -7.33e-09
5137.1, 2.37e-09
5139.1, -6.09e-09
5141.1, -3.63e-09
5143.1, -7.65e-09
5145.1, -9.68e-09
5147.1, -6.45e-09
5149.1, -5.49e-09
5151.1, -2.91e-09
5153.1, -3.8e-09
5155.1, -5.38e-09
5157.2, -5.43e-09
5159.2, -7.89e-09
5161.2, 9.5e-10
5163.2, -6e-11
5165.2, -4.15e-09
5167.2, -6.29e-09
5169.2, -2.68e-09
5171.2, -7.98e-09
5173.2, -7.87e-09
5175.2, -1.006e-08
5177.2, -1.111e-08
5179.2, -1.076e-08
5181.2, -9.46e-09
5183.2, -7.35e-09
5185.2, -3.67e-09
5187.2, -7.71e-09
5189.2, -3.6e-09
5191.2, -9.54e-09
5193.2, -1.187e-08
5195.2, -7.51e-09
5197.2, -1.95e-09
5199.2, -3.29e-09
5201.2, -6.58e-09
5203.2, -2.15e-09
5205.2, -1.259e-08
5207.2, -1.567e-08
5209.2, -4.03e-09
5211.2, -3.26e-09
5213.2, -6.53e-09
5215.2, 3.8e-10
5217.2, -1.12e-08
5219.2, -9.82e-09
5221.2, -8.26e-09
5223.2, -4.41e-09
5225.2, -6.97e-09
5227.2, -3.76e-09
5229.2, -8.07e-09
5231.2, -5.58e-09
5233.2, -2.69e-09
5235.2, -3.64e-09
5237.2, -8.43e-09
5239.2, 2e-10
5241.2, -1.075e-08
5243.2, -3.31e-09
5245.2, -1.71e-09
5247.2, -4.18e-09
5249.2, -2.26e-09
5251.2, -1.5e-09
5253.2, 4.4e-10
5255.2, -1.42e-09
5257.3, 2.58e-09
5259.3, -5.78e-09
5261.3, -4.01e-09
5263.3, -1.24e-09
5265.3, -4.5e-09
5267.3, 1.8e-10
5269.3, 6.6e-10
5271.3, -3.64e-09
5273.3, 1.12e-09
5275.3, -4.12e-09
5277.3, -8.3e-10
5279.3, -8.98e-09
5281.3, 6.4e-10
5283.3, -2.17e-09
5285.3, -4.85e-09
5287.3, -2.5e-10
5289.3, 1.9e-10
5291.3, 3.15e-09
5293.3, -1.12e-09
5295.3, -5.31e-09
5297.3, -3.99e-09
5299.3, -1.52e-09
5301.3, -4.88e-09
5303.3, 7.95e-09
5305.3, -3.23e-09
5307.3, -2.6e-09
5309.3, -3.9e-10
5311.3, -4.06e-09
5313.3, -3.14e-09
5315.3, 4.81e-09
5317.3, 3.43e-09
5319.3, -4.84e-09
5321.3, -3.8e-10
5323.3, -6.93e-09
5325.3, -2.62e-09
5327.3, -2.87e-09
5329.3, 7.2e-10
5331.3, 3.25e-09
5333.3, -6.91e-09
5335.3, 3.55e-09
5337.3, -5e-11
5339.3, 4.52e-09
5341.3, -6.54e-09
5343.3, 2.15e-09
5345.3, -6.92e-09
5347.3, 1.61e-09
5349.3, -4.44e-09
5351.3, -5.06e-09
5353.3, 1.67e-09
5355.3, -9.48e-09
5357.4, -7.73e-09
5359.4, -2.91e-09
5361.4, -9.27e-09
5363.4, -4.41e-09
5365.4, 4.04e-09
5367.4, -2.63e-09
5369.4, -7.28e-09
5371.4, -2.44e-09
5373.4, -3.75e-09
5375.4, 1.7e-09
5377.4, -1.31e-09
5379.4, -3.62e-09
5381.4, -2.04e-09
5383.4, 1.42e-09
5385.4, -5.01e-09
5387.4, -6.04e-09
5389.4, 1.34e-09
5391.4, -9e-11
5393.4, -4.32e-09
5395.4, -1.47e-09
5397.4, 4.38e-09
5399.4, -9.7e-10
5401.4, 4.7e-10
5403.4, 1.85e-09
5405.4, 2.49e-09
5407.4, 3.69e-09
5409.4, 6e-10
5411.4, -5.09e-09
5413.4, -1e-11
5415.4, 4.8e-09
5417.4, 4.69e-09
5419.4, -2.5e-09
5421.4, -1.62e-09
5423.4, -6.76e-09
5425.4, -1.3e-10
5427.4, -9.3e-10
5429.4, 1.13e-09
5431.4, 1.63e-09
5433.4, 1.72e-09
5435.4, -2.86e-09
5437.4, 1.24e-09
5439.4, 3.96e-09
5441.4, -8.12e-09
5443.4, -1.1e-09
5445.4, -2.16e-09
5447.4, -9.5e-09
5449.4, 7.91e-09
5451.4, -5.07e-09
5453.4, -2.16e-09
5455.4, -2.19e-09
5457.5, -2.51e-09
5459.5, -2.9e-09
5461.5, 1.47e-09
5463.5, -1.37e-09
5465.5, -2.83e-09
5467.5, 1.28e-09
5469.5, -5.99e-09
5471.5, 3.3e-10
5473.5, 4.22e-09
5475.5, 2.71e-09
5477.5, -3.47e-09
5479.5, -3.69e-09
5481.5, 1.64e-09
5483.5, 2.82e-09
5485.5, -3.58e-09
5487.5, 2.47e-09
5489.5, 4.07e-09
5491.5, -5.1e-10
5493.5, 1.95e-09
5495.5, 1.97e-09
5497.5, 2.59e-09
5499.5, 7.7e-10
5501.5, 1.04e-09
5503.5, -1.75e-09
5505.5, 3.06e-09
5507.5, 5.55e-09
5509.5, 3.73e-09
5511.5, -8.45e-09
5513.5, -1e-09
5515.5, -6.8e-09
5517.5, -5.7e-09
5519.5, -7e-11
5521.5, -8.43e-09
5523.5, -8.16e-09
5525.5, 5.9e-10
5527.5, -1.12e-09
5529.5, 9.6e-10
5531.5, -1.2e-10
5533.5, -2.63e-09
5535.5, 2.8e-10
5537.5, -2.04e-09
5539.5, 7.77e-09
5541.5, 6.3e-09
5543.5, -5.48e-09
5545.5, 4.55e-09
5547.5, -1.008e-08
5549.5, 6.2e-10
5551.5, 1.72e-09
5553.5, 2.61e-09
5555.5, -3.47e-09
5557.6, -4.5e-10
5559.6, -1.4e-10
5561.6, -3.85e-09
5563.6, 1.54e-09
5565.6, 6.1e-10
5567.6, 1.32e-09
5569.6, 6.43e-09
5571.6, -7.88e-09
5573.6, 4.2e-09
5575.6, -2.5e-09
5577.6, -5.04e-09
5579.6, -2.68e-09
5581.6, -2.89e-09
5583.6, -2.2e-10
5585.6, -1.15e-09
5587.6, -3.69e-09
5589.6, -5.59e-09
5591.6, 4.99e-09
5593.6, -6.4e-10
5595.6, -4.17e-09
5597.6, -3.06e-09
5599.6, 8.67e-09
5601.6, -8.9e-10
5603.6, -3.2e-09
5605.6, -2.66e-09
5607.6, 1.93e-09
5609.6, -1.11e-09
5611.6, 6.04e-09
5613.6, -3.65e-09
5615.6, 2.6e-09
5617.6, 4.85e-09
5619.6, -5.3e-10
5621.6, -1.58e-09
5623.6, 7.3e-10
5625.6, 7e-10
5627.6, -1.1e-10
5629.6, 4.31e-09
5631.6, -5.3e-10
5633.6, -3.58e-09
5635.6, -3.1e-09
5637.6, -5.6e-10
5639.6, 7.5e-10
5641.6, -2.7e-10
5643.6, -3.32e-09
5645.6, 4.59e-09
5647.6, 8.48e-09
5649.6, 2.48e-09
5651.6, -1.92e-09
5653.6, 5.13e-09
5655.6, -1.42e-09
5657.7, 6.36e-09
5659.7, 2.2e-09
5661.7, 8e-10
5663.7, 3.91e-09
5665.7, 2.71e-09
5667.7, 4e-10
5669.7, 2.81e-09
5671.7, 3.57e-09
5673.7, 3.34e-09
5675.7, -1.93e-09
5677.7, -2.39e-09
5679.7, -5.89e-09
5681.7, -3.5e-09
5683.7, 1.4e-10
5685.7, -4.18e-09
5687.7, 1.59e-09
5689.7, 5.7e-10
5691.7, -1.53e-09
5693.7, -4.2e-10
5695.7, -4.82e-09
5697.7, -8.86e-09
5699.7, 2.01e-09
5701.7, -6.37e-09
5703.7, 9.26e-09
5705.7, -4.96e-09
5707.7, -2.9e-09
5709.7, -1.364e-08
5711.7, -1.83e-09
5713.7, -1.59e-09
5715.7, 1.1e-10
5717.7, 6.73e-09
5719.7, -3.13e-09
5721.7, 1.26e-09
5723.7, -2.69e-09
5725.7, -9.7e-09
5727.7, -4.04e-09
5729.7, 1.74e-09
5731.7, -1.74e-09
5733.7, -6.19e-09
5735.7, -4.99e-09
5737.7, 1.38e-09
5739.7, -4.39e-09
5741.7, -6.36e-09
5743.7, 4.44e-09
5745.7, -4.74e-09
5747.7, -7.02e-09
5749.7, 4.1e-09
5751.7, 2.18e-09
5753.7, 3.8e-09
5755.7, -2.67e-09
5757.8, -6.11e-09
5759.8, -2.47e-09
5761.8, -2.74e-09
5763.8, -6.8e-10
5765.8, -3.99e-09
5767.8, -2.3e-09
5769.8, -1.022e-08
5771.8, -3.95e-09
5773.8, -7.26e-09
5775.8, -4.6e-09
5777.8, -4.6e-09
5779.8, -2.59e-09
5781.8, 1.22e-09
5783.8, 2.44e-09
5785.8, 6e-10
5787.8, 4.9e-10
5789.8, -1.018e-08
5791.8, -4.63e-09
5793.8, -2.66e-09
5795.8, -8.52e-09
5797.8, -9.67e-09
5799.8, -1.96e-09
5801.8, -8.59e-09
5803.8, -4.56e-09
5805.8, -3.12e-09
5807.8, -8.25e-09
5809.8, -7.49e-09
5811.8, -3.19e-09
5813.8, -3.9e-10
5815.8, 3.76e-09
5817.8, 4.2e-10
5819.8, -1.89e-09
5821.8, -9.39e-09
5823.8, -7.5e-09
5825.8, -3.71e-09
5827.8, -5.69e-09
5829.8, -3.26e-09
5831.8, 1.1e-10
5833.8, -4.8e-09
5835.8, -7.99e-09
5837.8, -5.36e-09
5839.8, -5.98e-09
5841.8, -9.24e-09
5843.8, -5.84e-09
5845.8, -6.38e-09
5847.8, -2.22e-09
5849.8, -2.8e-09
5851.8, -9.88e-09
5853.8, -3.94e-09
5855.8, -4.95e-09
5857.9, 3.02e-09
5859.9, -2.4e-10
5861.9, 2.9e-10
5863.9, -4.95e-09
5865.9, -4.23e-09
5867.9, -3.67e-09
5869.9, -2.44e-09
5871.9, -1.5e-09
5873.9, -5.66e-09
5875.9, 4.26e-09
5877.9, -3e-11
5879.9, -6.27e-09
5881.9, -2.11e-09
5883.9, -7.1e-09
5885.9, -1.34e-09
5887.9, 2.3e-09
5889.9, 1.76e-09
5891.9, 3.11e-09
5893.9, 3e-09
5895.9, -8.65e-09
5897.9, -1.34e-09
5899.9, -5.09e-09
5901.9, 1.59e-09
5903.9, -5.88e-09
5905.9, -2.21e-09
5907.9, -6.04e-09
5909.9, -5.46e-09
5911.9, -7.79e-09
5913.9, -4.43e-09
5915.9, -5.47e-09
5917.9, -6.09e-09
5919.9, 2.45e-09
5921.9, -3.65e-09
5923.9, -3.38e-09
5925.9, -1.07e-09
5927.9, -1e-10
5929.9, -2.47e-09
5931.9, -4.9e-09
5933.9, 1.52e-09
5935.9, -6.02e-09
5937.9, 2.1e-09
5939.9, -2.78e-09
5941.9, -7e-11
5943.9, 2.48e-09
5945.9, 5.1e-10
5947.9, -3.5e-10
5949.9, -1.1e-10
5951.9, -3.2e-10
5953.9, -5.76e-09
5955.9, 2.26e-09
5958.0, 3.59e-09
5960.0, 3.62e-09
5962.0, -4.02e-09
5964.0, 2.44e-09
5966.0, -2.78e-09
5968.0, 3.15e-09
5970.0, -4.49e-09
5972.0, -3.79e-09
5974.0, 3.12e-09
5976.0, 1.05e-08
5978.0, 6.67e-09
5980.0, -7.8e-10
5982.0, 2.68e-09
5984.0, -5.9e-10
5986.0, 3.76e-09
5988.0, -7.8e-10
5990.0, 3.3e-09
5992.0, 1.56e-09
5994.0, -2.03e-09
5996.0, 2.07e-09
5998.0, -6.8e-10
6000.0, -1.58e-09
6002.0, -5.24e-09
6004.0, -7.27e-09
6006.0, 1.4e-10
6008.0, -9.6e-10
6010.0, 5.75e-09
6012.0, -3.65e-09
6014.0, -1.64e-09
6016.0, -2.77e-09
6018.0, -2.66e-09
6020.0, 7.2e-10
6022.0, -7.77e-09
6024.0, -7.01e-09
6026.0, -1.85e-09
6028.0, -5.72e-09
6030.0, -4.23e-09
6032.0, -3.85e-09
6034.0, -4.6e-10
6036.0, -4.93e-09
6038.0, -4.29e-09
6040.0, 1.78e-09
6042.0, 1.93e-09
6044.0, -7.1e-10
6046.0, 5.62e-09
6048.0, 1.39e-09
6050.0, -7.2e-09
6052.0, 5.43e-09
6054.0, 2.94e-09
6056.0, 2.08e-09
6058.1, 3.8e-10
6060.1, 4.76e-09
6062.1, 5.42e-09
6064.1, 5e-10
6066.1, -4.16e-09
6068.1, -3.97e-09
6070.1, 1.83e-09
6072.1, 2.71e-09
6074.1, -6e-11
6076.1, -3.89e-09
6078.1, 7.9e-10
6080.1, -3.43e-09
6082.1, -9.6e-10
6084.1, 3.7e-10
6086.1, 2.28e-09
6088.1, 6.35e-09
6090.1, 1.82e-09
6092.1, 2.9e-09
6094.1, -8.2e-10
6096.1, -9.7e-10
6098.1, 4.23e-09
6100.1, 6e-11
6102.1, -1.86e-09
6104.1, 2.87e-09
6106.1, -7e-10
6108.1, 3.12e-09
6110.1, 2.66e-09
6112.1, -3.456e-08
6114.1, -3.1e-08
6116.1, -3.401e-08
6118.1, -3.579e-08
6120.1, -3.691e-08
6122.1, -3.496e-08
6124.1, -3.035e-08
6126.1, -3.68e-08
6128.1, -3.18e-08
6130.1, -3.074e-08
6132.1, -3.242e-08
6134.1, -3.164e-08
6136.1, -3.38e-08
6138.1, -3.33e-08
6140.1, -3.288e-08
6142.1, -3.503e-08
6144.1, -3.23e-08
6146.1, -2.866e-08
6148.1, -3.188e-08
6150.1, -3.482e-08
6152.1, -3.688e-08
6154.1, -3.668e-08
6156.1, -3.57e-08
6158.2, -3.632e-08
6160.2, -3.542e-08
6162.2, -3.441e-08
6164.2, -3.489e-08
6166.2, -3.487e-08
6168.2, -3.595e-08
6170.2, -3.129e-08
6172.2, -3.456e-08
6174.2, -3.599e-08
6176.2, -3.249e-08
6178.2, -3.301e-08
6180.2, -3.376e-08
6182.2, -3.053e-08
6184.2, -3.404e-08
6186.2, -3.641e-08
6188.2, -3.317e-08
6190.2, -3.66e-08
6192.2, -3.3e-08
6194.2, -3.441e-08
6196.2, -3.449e-08
6198.2, -3.222e-08
6200.2, -3.471e-08
6202.2, -3.53e-08
6204.2, -3.6e-08
6206.2, -3.453e-08
6208.2, -3.283e-08
6210.2, -3.473e-08
6212.2, -3.505e-08
6214.2, -3.72e-08
6216.2, -3.347e-08
6218.2, -3.757e-08
6220.2, -3.143e-08
6222.2, -3.723e-08
6224.2, -3.316e-08
6226.2, -3.532e-08
6228.2, -3.39e-08
6230.2, -3.682e-08
6232.2, -3.322e-08
6234.2, -3.479e-08
6236.2, -3.507e-08
6238.2, -3.85e-08
6240.2, -3.489e-08
6242.2, -3.381e-08
6244.2, -3.353e-08
6246.2, -3.125e-08
6248.2, -3.396e-08
6250.2, -3.613e-08
6252.2, -3.624e-08
6254.2, -3.615e-08
6256.2, -3.322e-08
6258.3, -3.38e-08
6260.3, -3.047e-08
6262.3, -3.304e-08
6264.3, -2.962e-08
6266.3, -3.307e-08
6268.3, -3.184e-08
6270.3, -3.205e-08
6272.3, -3.374e-08
6274.3, -3.383e-08
6276.3, -3.209e-08
6278.3, -3.308e-08
6280.3, -3.073e-08
6282.3, -3.372e-08
6284.3, -3.358e-08
6286.3, -3.473e-08
6288.3, -3.64e-08
6290.3, -3.592e-08
6292.3, -3.442e-08
6294.3, -3.685e-08
6296.3, -3.11e-08
6298.3, -3.229e-08
6300.3, -3.353e-08
6302.3, -3.06e-08
6304.3, -3.18e-08
6306.3, -3.282e-08
6308.3, -3.745e-08
6310.3, -3.31e-08
6312.3, -3.363e-08
6314.3, -3.407e-08
6316.3, -3.374e-08
6318.3, -3.559e-08
6320.3, -3.336e-08
6322.3, -3.261e-08
6324.3, -3.101e-08
6326.3, -3.264e-08
6328.3, -3.224e-08
6330.3, -3.289e-08
6332.3, -2.986e-08
6334.3, -3.353e-08
6336.3, -3.567e-08
6338.3, -3.103e-08
6340.3, -3.203e-08
6342.3, -3.209e-08
6344.3, -3.421e-08
6346.3, -3.801e-08
6348.3, -3.407e-08
6350.3, -3.585e-08
6352.3, -3.141e-08
6354.3, -3.306e-08
6356.3, -3.29e-08
6358.4, -3.167e-08
6360.4, -3.409e-08
6362.4, -3.287e-08
6364.4, -3.108e-08
6366.4, -3.275e-08
6368.4, -3.4e-08
6370.4, -3.089e-08
6372.4, -3.117e-08
6374.4, -3.374e-08
6376.4, -3.154e-08
6378.4, -3.195e-08
6380.4, -3.492e-08
6382.4, -3.532e-08
6384.4, -3.327e-08
6386.4, -3.683e-08
6388.4, -3.291e-08
6390.4, -3.394e-08
6392.4, -3.412e-08
6394.4, -3.341e-08
6396.4, -3.387e-08
6398.4, -3.37e-08
6400.4, -3.415e-08
6402.4, -2.953e-08
6404.4, -3.317e-08
6406.4, -3.394e-08
6408.4, -3.537e-08
6410.4, -3.555e-08
6412.4, -3.36e-08
6414.4, -3.038e-08
6416.4, -3.647e-08
6418.4, -3.417e-08
6420.4, -3.412e-08
6422.4, -3.459e-08
6424.4, -3.666e-08
6426.4, -3.805e-08
6428.4, -3.575e-08
6430.4, -3.497e-08
6432.4, -3.305e-08
6434.4, -3.506e-08
6436.4, -3.347e-08
6438.4, -3.261e-08
6440.4, -3.438e-08
6442.4, -3.674e-08
6444.4, -3.303e-08
6446.4, -3.347e-08
6448.4, -3.368e-08
6450.4, -3.62e-08
6452.4, -3.983e-08
6454.4, -3.597e-08
6456.4, -3.381e-08
6458.5, -3.269e-08
6460.5, -3.428e-08
6462.5, -3.347e-08
6464.5, -3.559e-08
6466.5, -3.771e-08
6468.5, -3.478e-08
6470.5, -3.613e-08
6472.5, -3.627e-08
6474.5, -3.794e-08
6476.5, -3.77e-08
6478.5, -3.944e-08
6480.5, -3.376e-08
6482.5, -3.465e-08
6484.5, -3.383e-08
6486.5, -3.63e-08
6488.5, -3.534e-08
6490.5, -3.832e-08
6492.5, -3.55e-08
6494.5, -3.345e-08
6496.5, -3.769e-08
6498.5, -3.731e-08
6500.5, -3.384e-08
6502.5, -3.627e-08
6504.5, -3.451e-08
6506.5, -3.916e-08
6508.5, -3.671e-08
6510.5, -3.702e-08
6512.5, -3.691e-08
6514.5, -3.689e-08
6516.5, -3.796e-08
6518.5, -3.617e-08
6520.5, -3.562e-08
6522.5, -3.58e-08
6524.5, -3.735e-08
6526.5, -3.906e-08
6528.5, -3.921e-08
6530.5, -4.033e-08
6532.5, -3.594e-08
6534.5, -3.526e-08
6536.5, -3.618e-08
6538.5, -3.312e-08
6540.5, -3.179e-08
6542.5, -3.544e-08
6544.5, -3.789e-08
6546.5, -3.301e-08
6548.5, -3.814e-08
6550.5, -3.23e-08
6552.5, -3.775e-08
6554.5, -3.547e-08
6556.5, -3.862e-08
6558.6, -3.524e-08
6560.6, -3.353e-08
6562.6, -3.576e-08
6564.6, -3.444e-08
6566.6, -3.525e-08
6568.6, -3.784e-08
6570.6, -3.692e-08
6572.6, -3.556e-08
6574.6, -3.733e-08
6576.6, -3.547e-08
6578.6, -3.209e-08
6580.6, -3.181e-08
6582.6, -3.361e-08
6584.6, -3.498e-08
6586.6, -3.472e-08
6588.6, -3.424e-08
6590.6, -3.236e-08
6592.6, -3.153e-08
6594.6, -3.46e-08
6596.6, -3.714e-08
6598.6, -3.453e-08
6600.6, -3.64e-08
6602.6, -3.871e-08
6604.6, -3.384e-08
6606.6, -3.548e-08
6608.6, -3.558e-08
6610.6, -3.616e-08
6612.6, -3.139e-08
6614.6, -3.558e-08
6616.6, -3.752e-08
6618.6, -3.553e-08
6620.6, -3.564e-08
6622.6, -3.731e-08
6624.6, -3.337e-08
6626.6, -3.734e-08
6628.6, -3.358e-08
6630.6, -3.417e-08
6632.6, -3.508e-08
6634.6, -3.239e-08
6636.6, -3.569e-08
6638.6, -3.342e-08
6640.6, -3.684e-08
6642.6, -3.802e-08
6644.6, -4.211e-08
6646.6, -3.586e-08
6648.6, -3.518e-08
6650.6, -3.961e-08
6652.6, -3.388e-08
6654.6, -3.478e-08
6656.6, -3.459e-08
6658.7, -3.447e-08
6660.7, -3.325e-08
6662.7, -3.397e-08
6664.7, -3.387e-08
6666.7, -3.569e-08
6668.7, -3.456e-08
6670.7, -3.296e-08
6672.7, -3.395e-08
6674.7, -3.538e-08
6676.7, -3.308e-08
6678.7, -3.505e-08
6680.7, -3.718e-08
6682.7, -3.623e-08
6684.7, -3.935e-08
6686.7, -4.021e-08
6688.7, -4.008e-08
6690.7, -3.79e-08
6692.7, -3.747e-08
6694.7, -3.659e-08
6696.7, -3.788e-08
6698.7, -3.859e-08
6700.7, -4.074e-08
6702.7, -3.923e-08
6704.7, -4.037e-08
6706.7, -4.275e-08
6708.7, -4.068e-08
6710.7, -4.077e-08
6712.7, -3.949e-08
6714.7, -3.396e-08
6716.7, -3.49e-08
6718.7, -3.616e-08
6720.7, -3.468e-08
6722.7, -3.572e-08
6724.7, -3.634e-08
6726.7, -3.962e-08
6728.7, -3.748e-08
6730.7, -3.389e-08
6732.7, -3.571e-08
6734.7, -3.636e-08
6736.7, -3.617e-08
6738.7, -3.221e-08
6740.7, -3.402e-08
6742.7, -3.588e-08
6744.7, -3.874e-08
6746.7, -3.863e-08
6748.7, -3.56e-08
6750.7, -3.49e-08
6752.7, -3.414e-08
6754.7, -3.779e-08
6756.7, -3.487e-08
6758.8, -3.563e-08
6760.8, -3.368e-08
6762.8, -3.661e-08
6764.8, -3.504e-08
6766.8, -3.887e-08
6768.8, -3.721e-08
6770.8, -3.932e-08
6772.8, -3.382e-08
6774.8, -3.893e-08
6776.8, -3.888e-08
6778.8, -3.858e-08
6780.8, -3.737e-08
6782.8, -3.655e-08
6784.8, -3.723e-08
6786.8, -3.494e-08
6788.8, -3.824e-08
6790.8, -3.643e-08
6792.8, -3.428e-08
6794.8, -3.747e-08
6796.8, -3.57e-08
6798.8, -3.245e-08
6800.8, -3.312e-08
6802.8, -3.391e-08
6804.8, -3.436e-08
6806.8, -3.719e-08
6808.8, -3.569e-08
6810.8, -3.12e-08
6812.8, -3.279e-08
6814.8, -3.303e-08
6816.8, -3.405e-08
6818.8, -3.632e-08
6820.8, -3.417e-08
6822.8, -3.055e-08
6824.8, -3.287e-08
6826.8, -3.373e-08
6828.8, -3.249e-08
6830.8, -3.4e-08
6832.8, -3.358e-08
6834.8, -3.058e-08
6836.8, -3.221e-08
6838.8, -3.174e-08
6840.8, -2.883e-08
6842.8, -2.995e-08
6844.8, -3.095e-08
6846.8, -3.385e-08
6848.8, -3.217e-08
6850.8, -3.443e-08
6852.8, -3.253e-08
6854.8, -3.033e-08
6856.8, -3.316e-08
6858.9, -3.235e-08
6860.9, -3.11e-08
6862.9, -3.03e-08
6864.9, -3.561e-08
6866.9, -3.582e-08
6868.9, -3.299e-08
6870.9, -3.159e-08
6872.9, -3.34e-08
6874.9, -3.1e-08
6876.9, -3.505e-08
6878.9, -3.303e-08
6880.9, -3.224e-08
6882.9, -3.463e-08
6884.9, -3.439e-08
6886.9, -3.453e-08
6888.9, -3.661e-08
6890.9, -3.5e-08
6892.9, -3.401e-08
6894.9, -3.473e-08
6896.9, -3.53e-08
6898.9, -3.489e-08
6900.9, -3.453e-08
6902.9, -3.732e-08
6904.9, -3.562e-08
6906.9, -3.543e-08
6908.9, -3.794e-08
6910.9, -3.7e-08
6912.9, -3.422e-08
6914.9, -3.492e-08
6916.9, -3.263e-08
6918.9, -3.643e-08
6920.9, -3.663e-08
6922.9, -3.669e-08
6924.9, -3.793e-08
6926.9, -3.965e-08
6928.9, -3.514e-08
6930.9, -3.221e-08
6932.9, -3.139e-08
6934.9, -3.669e-08
6936.9, -3.761e-08
6938.9, -3.781e-08
6940.9, -3.54e-08
6942.9, -3.696e-08
6944.9, -3.537e-08
6946.9, -3.671e-08
6948.9, -3.55e-08
6950.9, -3.608e-08
6952.9, -3.814e-08
6954.9, -3.53e-08
6956.9, -4.072e-08
6959.0, -3.386e-08
6961.0, -3.215e-08
6963.0, -3.688e-08
6965.0, -3.672e-08
6967.0, -3.703e-08
6969.0, -3.754e-08
6971.0, -3.589e-08
6973.0, -3.523e-08
6975.0, -3.63e-08
6977.0, -3.806e-08
6979.0, -3.691e-08
6981.0, -3.897e-08
6983.0, -3.872e-08
6985.0, -3.736e-08
6987.0, -3.632e-08
6989.0, -3.62e-08
6991.0, -3.736e-08
6993.0, -3.678e-08
6995.0, -3.67e-08
6997.0, -3.508e-08
6999.0, -3.527e-08
7001.0, -3.686e-08
7003.0, -3.213e-08
7005.0, -3.67e-08
7007.0, -3.272e-08
7009.0, -3.499e-08
7011.0, -3.448e-08
7013.0, -3.545e-08
7015.0, -3.591e-08
7017.0, -3.329e-08
7019.0, -3.612e-08
7021.0, -3.376e-08
7023.0, -3.328e-08
7025.0, -3.487e-08
7027.0, -3.197e-08
7029.0, -3.352e-08
7031.0, -3.55e-08
7033.0, -3.702e-08
7035.0, -3.48e-08
7037.0, -3.565e-08
7039.0, -3.778e-08
7041.0, -3.877e-08
7043.0, -3.421e-08
7045.0, -3.273e-08
7047.0, -3.259e-08
7049.0, -3.176e-08
7051.0, -3.478e-08
7053.0, -3.706e-08
7055.0, -3.55e-08
7057.0, -3.371e-08
7059.1, -3.425e-08
7061.1, -3.577e-08
7063.1, -3.414e-08
7065.1, -3.447e-08
7067.1, -3.273e-08
7069.1, -3.501e-08
7071.1, -3.77e-08
7073.1, -3.563e-08
7075.1, -3.588e-08
7077.1, -3.814e-08
7079.1, -3.643e-08
7081.1, -3.979e-08
7083.1, -3.433e-08
7085.1, -3.663e-08
7087.1, -3.366e-08
7089.1, -3.898e-08
7091.1, -3.481e-08
7093.1, -3.587e-08
7095.1, -3.555e-08
7097.1, -3.754e-08
7099.1, -3.691e-08
7101.1, -3.606e-08
7103.1, -3.334e-08
7105.1, -3.619e-08
7107.1, -3.671e-08
7109.1, -4.137e-08
7111.1, -4.02e-08
7113.1, -4.017e-08
7115.1, -4.095e-08
7117.1, -4.056e-08
7119.1, -3.938e-08
7121.1, -3.85e-08
7123.1, -3.938e-08
7125.1, -3.814e-08
7127.1, -3.866e-08
7129.1, -4.244e-08
7131.1, -4.067e-08
7133.1, -3.818e-08
7135.1, -3.847e-08
7137.1, -3.906e-08
7139.1, -2.825e-08
7141.1, -1.614e-08
7143.1, -1.387e-08
7145.1, -1.578e-08
7147.1, -1.093e-08
7149.1, -1.333e-08
7151.1, -1.563e-08
7153.1, -7.21e-09
7155.1, -9.72e-09
7157.1, -1.507e-08
7159.2, -1.929e-08
7161.2, -1.365e-08
7163.2, -1.206e-08
7165.2, -1.527e-08
7167.2, -1.199e-08
7169.2, -1.62e-08
7171.2, -1.006e-08
7173.2, -1.593e-08
7175.2, -1.045e-08
7177.2, -1.085e-08
7179.2, -9.09e-09
7181.2, -6.48e-09
7183.2, -7.9e-09
7185.2, -4.95e-09
7187.2, -8.04e-09
7189.2, -1.191e-08
7191.2, -4.5e-09
7193.2, -7.52e-09
7195.2, -8.72e-09
7197.2, -1.332e-08
7199.2, -1.593e-08
7201.2, -7.26e-09
7203.2, -9.83e-09
7205.2, -1.287e-08
7207.2, -1.187e-08
7209.2, -1.488e-08
7211.2, -6.99e-09
7213.2, -1.452e-08
7215.2, -7.21e-09
7217.2, -1.304e-08
7219.2, -1.276e-08
7221.2, -9.73e-09
7223.2, -1.159e-08
7225.2, -5.09e-09
7227.2, -1.276e-08
7229.2, -7.28e-09
7231.2, -1.275e-08
7233.2, -1.314e-08
7235.2, -5.44e-09
7237.2, -9.13e-09
7239.2, -1.431e-08
7241.2, -8.55e-09
7243.2, -8.5e-09
7245.2, -1.414e-08
7247.2, -3.23e-09
7249.2, -5.71e-09
7251.2, -7.5e-09
7253.2, -6.73e-09
7255.2, -1.02e-08
7257.2, -3.42e-09
7259.3, -5.18e-09
7261.3, -4.73e-09
7263.3, -2.53e-09
7265.3, -7.5e-09
7267.3, -1.616e-08
7269.3, -1.112e-08
7271.3, -9.2e-09
7273.3, -3.8e-09
7275.3, -1.373e-08
7277.3, -4.2e-09
7279.3, -6.05e-09
7281.3, -2.45e-09
7283.3, -8.85e-09
7285.3, -7.74e-09
7287.3, -6.9e-09
7289.3, -5.54e-09
7291.3, -3.77e-09
7293.3, -4.08e-09
7295.3, -1.093e-08
7297.3, -9.91e-09
7299.3, -1.057e-08
7301.3, -1.59e-09
7303.3, -1.126e-08
7305.3, -9.81e-09
7307.3, -1.065e-08
7309.3, -1.203e-08
7311.3, -1.342e-08
7313.3, -6.18e-09
7315.3, -1.254e-08
7317.3, -1.077e-08
7319.3, -1.107e-08
7321.3, -7.24e-09
7323.3, -1.91e-09
7325.3, -3e-10
7327.3, -2.55e-09
7329.3, -5.51e-09
7331.3, -3.91e-09
7333.3, -8.63e-09
7335.3, -7.63e-09
7337.3, -6.68e-09
7339.3, -5.81e-09
7341.3, -2.68e-09
7343.3, 1.82e-09
7345.3, -4.1e-09
7347.3, -8.18e-09
7349.3, -3.93e-09
7351.3, -1.69e-09
7353.3, -2.87e-09
7355.3, -1.57e-09
7357.3, 1.41e-09
7359.4, -1.305e-08
7361.4, -6.91e-09
7363.4, -8.91e-09
7365.4, -1.228e-08
7367.4, -8.63e-09
7369.4, -1.64e-09
7371.4, -6.34e-09
7373.4, -7.11e-09
7375.4, -9.8e-10
7377.4, -5.08e-09
7379.4, -5.55e-09
7381.4, -4.3e-10
7383.4, -3.77e-09
7385.4, -2.46e-09
7387.4, -3.66e-09
7389.4, -7.55e-09
7391.4, -1.014e-08
7393.4, -1.142e-08
7395.4, -4.12e-09
7397.4, -6.98e-09
7399.4, -1.97e-09
7401.4, -9.07e-09
7403.4, -4.37e-09
7405.4, -1.146e-08
7407.4, -7.14e-09
7409.4, -8.79e-09
7411.4, -1.072e-08
7413.4, -6.51e-09
7415.4, -3.28e-09
7417.4, -1.117e-08
7419.4, -8.9e-09
7421.4, -4.87e-09
7423.4, -7.4e-09
7425.4, -7.06e-09
7427.4, -6.78e-09
7429.4, -6.33e-09
7431.4, -6.86e-09
7433.4, -1.004e-08
7435.4, -1.167e-08
7437.4, -1.249e-08
7439.4, -1.054e-08
7441.4, -4.77e-09
7443.4, -6.94e-09
7445.4, -1.398e-08
7447.4, -7.26e-09
7449.4, -1.209e-08
7451.4, -5.04e-09
7453.4, -5.52e-09
7455.4, -2.42e-09
7457.4, -5.52e-09
7459.5, -2.67e-09
7461.5, -7.52e-09
7463.5, -5.02e-09
7465.5, -8.98e-09
7467.5, -3.55e-09
7469.5, -5.8e-10
7471.5, -2.27e-09
7473.5, -3.62e-09
7475.5, -6.83e-09
7477.5, -1.094e-08
7479.5, -2.42e-09
7481.5, 1.5e-09
7483.5, -3.93e-09
7485.5, -6.38e-09
7487.5, -5.48e-09
7489.5, -6.51e-09
7491.5, -2.45e-09
7493.5, -1.049e-08
7495.5, -3.97e-09
7497.5, -1.457e-08
7499.5, -1.032e-08
7501.5, -9.18e-09
7503.5, -6.49e-09
7505.5, -3.67e-09
7507.5, -5.27e-09
7509.5, -2.11e-09
7511.5, -2.8e-09
7513.5, -3.41e-09
7515.5, 1.33e-09
7517.5, -3.55e-09
7519.5, -7.07e-09
7521.5, -4.02e-09
7523.5, 3.24e-09
7525.5, 3.45e-09
7527.5, -3.35e-09
7529.5, -2.84e-09
7531.5, -2.59e-09
7533.5, 4e-10
7535.5, 7.4e-09
7537.5, 4.18e-09
7539.5, -5.85e-09
7541.5, 3.39e-09
7543.5, 7e-09
7545.5, -3e-10
7547.5, -1.35e-09
7549.5, -7.2e-10
7551.5, -2.4e-09
7553.5, 4.14e-09
7555.5, 1.3e-09
7557.5, -1.124e-08
7559.6, -2.58e-09
7561.6, -4.68e-09
7563.6, -3.27e-09
7565.6, -7.17e-09
7567.6, -2.81e-09
7569.6, 1.08e-09
7571.6, -3.5e-09
7573.6, -4.6e-09
7575.6, 8.9e-10
7577.6, -7.95e-09
7579.6, -5.76e-09
7581.6, -2.8e-10
7583.6, -5.9e-09
7585.6, -7.41e-09
7587.6, -6.73e-09
7589.6, -9.34e-09
7591.6, -4.35e-09
7593.6, 4.29e-09
7595.6, 5.79e-09
7597.6, -8.86e-09
7599.6, -5.23e-09
7601.6, -4.07e-09
7603.6, -8.84e-09
7605.6, -4.64e-09
7607.6, -8.31e-09
7609.6, -4.55e-09
7611.6, -3.61e-09
7613.6, -1.62e-09
7615.6, -1.55e-09
7617.6, -3.8e-09
7619.6, -3.85e-09
7621.6, -4.29e-09
7623.6, -5.2e-10
7625.6, -8e-10
7627.6, -1.163e-08
7629.6, -6.8e-09
7631.6, -3.39e-09
7633.6, -6.35e-09
7635.6, 1.6e-09
7637.6, -2.17e-09
7639.6, 2.3e-10
7641.6, -4.92e-09
7643.6, -2.29e-09
7645.6, 6.97e-09
7647.6, 2.08e-09
7649.6, -3.84e-09
7651.6, -7e-10
7653.6, -3.04e-09
7655.6, -4.79e-09
7657.6, -2.91e-09
7659.7, -4.19e-09
7661.7, -3.4e-09
7663.7, -1.59e-09
7665.7, -1.43e-09
7667.7, -9.8e-10
7669.7, -8.3e-10
7671.7, 1.79e-09
7673.7, -5.44e-09
7675.7, -3.3e-10
7677.7, -8.52e-09
7679.7, -5.2e-09
7681.7, -7.57e-09
7683.7, -7.61e-09
7685.7, -3.12e-09
7687.7, -8.43e-09
7689.7, 1.17e-09
7691.7, -2.12e-09
7693.7, -7.38e-09
7695.7, 1.34e-09
7697.7, -4.94e-09
7699.7, 2.81e-09
7701.7, 4.91e-09
7703.7, -2.64e-09
7705.7, 6.93e-09
7707.7, -1.17e-09
7709.7, 1.96e-09
7711.7, 2.5e-09
7713.7, -3.1e-09
7715.7, -4.73e-09
7717.7, -3e-09
7719.7, -2.82e-09
7721.7, -6.03e-09
7723.7, -6.8e-10
7725.7, -5.7e-10
7727.7, 1.2e-10
7729.7, -1.56e-09
7731.7, -3.42e-09
7733.7, -8.96e-09
7735.7, -9e-11
7737.7, -4.24e-09
7739.7, -4.34e-09
7741.7, -6.35e-09
7743.7, -1.012e-08
7745.7, 1.48e-09
7747.7, -6.72e-09
7749.7, -1.222e-08
7751.7, -7.53e-09
7753.7, -1.81e-09
7755.7, -8.7e-10
7757.7, -4.97e-09
7759.8, -3.65e-09
7761.8, 8e-10
7763.8, 5.84e-09
7765.8, -2.6e-10
7767.8, -4.88e-09
7769.8, -3.89e-09
7771.8, -4.23e-09
7773.8, 6.9e-10
7775.8, -3.27e-09
7777.8, -1.68e-09
7779.8, -2.95e-09
7781.8, -6.1e-09
7783.8, 1.85e-09
7785.8, -5.4e-09
7787.8, -3.2e-09
7789.8, 2.48e-09
7791.8, 1.62e-09
7793.8, -5.8e-10
7795.8, -4.61e-09
7797.8, 2.14e-09
7799.8, -5.65e-09
7801.8, -4e-09
7803.8, -1.38e-09
7805.8, -2.12e-09
7807.8, -5.32e-09
7809.8, -7.61e-09
7811.8, 5.3e-10
7813.8, -4.03e-09
7815.8, 1.24e-09
7817.8, -3.61e-09
7819.8, -3.08e-09
7821.8, -1e-09
7823.8, 5.74e-09
7825.8, -1.37e-09
7827.8, -4.44e-09
7829.8, -2.71e-09
7831.8, -7.06e-09
7833.8, -1.221e-08
7835.8, -1.36e-09
7837.8, -3.91e-09
7839.8, -2.79e-09
7841.8, -2.78e-09
7843.8, -7.39e-09
7845.8, 1.34e-09
7847.8, -5.41e-09
7849.8, -3.23e-09
7851.8, -9.17e-09
7853.8, -4.93e-09
7855.8, -9.2e-10
7857.8, -3.78e-09
7859.9, -4e-09
7861.9, -8.71e-09
7863.9, -3.49e-09
7865.9, 2.83e-09
7867.9, -1.76e-09
7869.9, -3.33e-09
7871.9, -1.55e-09
7873.9, -4.65e-09
7875.9, -3.6e-09
7877.9, 5.4e-10
7879.9, -3.4e-09
7881.9, -4.24e-09
7883.9, -2e-09
7885.9, 1.57e-09
7887.9, -4e-10
7889.9, 5.87e-09
7891.9, 4.06e-09
7893.9, 5.93e-09
7895.9, 6e-10
7897.9, -1.76e-09
7899.9, -3.58e-09
7901.9, -5.26e-09
7903.9, -1.17e-09
7905.9, -1.1e-10
7907.9, -2.78e-09
7909.9, -2.42e-09
7911.9, 1.13e-09
7913.9, -7.7e-10
7915.9, -5.16e-09
7917.9, -5.2e-10
7919.9, -8.02e-09
7921.9, -2.25e-09
7923.9, 2.66e-09
7925.9, -5.6e-09
7927.9, -2.79e-09
7929.9, -2.74e-09
7931.9, -4.87e-09
7933.9, -1.19e-09
7935.9, 1.78e-09
7937.9, -7.3e-10
7939.9, -2.76e-09
7941.9, 1.36e-09
7943.9, 9.6e-10
7945.9, -3.11e-09
7947.9, 9.3e-10
7949.9, 9.3e-10
7951.9, 2.73e-09
7953.9, -3.95e-09
7955.9, 9.25e-09
7957.9, 2.65e-09
7960.0, 9.4e-10
7962.0, 5.15e-09
7964.0, 2.5e-10
7966.0, -5.8e-09
7968.0, -1.28e-09
7970.0, -6.82e-09
7972.0, -8.46e-09
7974.0, -1.4e-10
7976.0, -5.13e-09
7978.0, -3.18e-09
7980.0, -5.53e-09
7982.0, -2.82e-09
7984.0, -1.84e-09
7986.0, -4.44e-09
7988.0, 7.54e-09
7990.0, 1.77e-09
7992.0, -4.78e-09
7994.0, 1.32e-09
7996.0, -3.48e-09
7998.0, -2.45e-09
8000.0, -2.65e-09
8002.0, 1.95e-09
8004.0, 5.46e-09
8006.0, 1.65e-09
8008.0, -1.7e-10
8010.0, -8.12e-09
8012.0, -7.08e-09
8014.0, -5.3e-09
8016.0, 3.05e-09
8018.0, -4.74e-09
8020.0, 3.35e-09
8022.0, 2.77e-09
8024.0, 2.3e-09
8026.0, -2.71e-09
8028.0, -2.35e-09
8030.0, -1.79e-09
8032.0, 6.89e-09
8034.0, 5.77e-09
8036.0, 9.09e-09
8038.0, 1.24e-09
8040.0, 1.06e-09
8042.0, -4.33e-09
8044.0, 1.33e-09
8046.0, -2.26e-09
8048.0, -6.01e-09
8050.0, 3.17e-09
8052.0, 5.37e-09
8054.0, 8.41e-09
8056.0, 3.46e-09
8058.0, 7.68e-09
8060.1, 5.19e-09
8062.1, 8.03e-09
8064.1, 6.58e-09
8066.1, -6.1e-10
8068.1, 3.86e-09
8070.1, 5.06e-09
8072.1, -4.38e-09
8074.1, -1.25e-09
8076.1, -1e-10
8078.1, 1.09e-09
8080.1, -7.83e-09
8082.1, 1.42e-09
8084.1, 3.54e-09
8086.1, -4.24e-09
8088.1, 1.17e-09
8090.1, 2.28e-09
8092.1, -3.52e-09
8094.1, -2.8e-10
8096.1, 3.07e-09
8098.1, -2e-11
8100.1, 1.07e-09
8102.1, -5.71e-09
8104.1, -3.95e-09
8106.1, -3.7e-09
8108.1, 1.42e-09
8110.1, -1.57e-09
8112.1, 1e-10
8114.1, 2.16e-09
8116.1, 1.18e-09
8118.1, 1.98e-09
8120.1, -4.88e-09
8122.1, 9.2e-10
8124.1, -4.25e-09
8126.1, 1.3e-09
8128.1, 4.82e-09
8130.1, 2.97e-09
8132.1, -3.97e-09
8134.1, 7.66e-09
8136.1, 1.53e-09
8138.1, -2.71e-09
8140.1, -1.478e-08
8142.1, -3.506e-08
8144.1, -3.281e-08
8146.1, -3.335e-08
8148.1, -3.361e-08
8150.1, -3.558e-08
8152.1, -3.312e-08
8154.1, -3.205e-08
8156.1, -3.017e-08
8158.1, -3.077e-08
8160.2, -2.797e-08
8162.2, -2.859e-08
8164.2, -2.936e-08
8166.2, -3.232e-08
8168.2, -2.907e-08
8170.2, -2.985e-08
8172.2, -3.129e-08
8174.2, -2.885e-08
8176.2, -3.357e-08
8178.2, -2.976e-08
8180.2, -3.208e-08
8182.2, -2.92e-08
8184.2, -3.315e-08
8186.2, -3.023e-08
8188.2, -2.85e-08
8190.2, -2.916e-08
8192.2, -3.099e-08
8194.2, -2.621e-08
8196.2, -2.932e-08
8198.2, -3.082e-08
8200.2, -3.566e-08
8202.2, -3.442e-08
8204.2, -3.407e-08
8206.2, -3.254e-08
8208.2, -3.377e-08
8210.2, -3.452e-08
8212.2, -3.277e-08
8214.2, -3.028e-08
8216.2, -3.386e-08
8218.2, -3.34e-08
8220.2, -3.429e-08
8222.2, -3.085e-08
8224.2, -3.26e-08
8226.2, -3.522e-08
8228.2, -2.798e-08
8230.2, -2.936e-08
8232.2, -3.213e-08
8234.2, -3.141e-08
8236.2, -3.338e-08
8238.2, -3.222e-08
8240.2, -3.418e-08
8242.2, -3.276e-08
8244.2, -3.32e-08
8246.2, -3.688e-08
8248.2, -3.704e-08
8250.2, -3.417e-08
8252.2, -3.697e-08
8254.2, -3.505e-08
8256.2, -3.443e-08
8258.2, -3.372e-08
8260.3, -3.668e-08
8262.3, -3.155e-08
8264.3, -3.219e-08
8266.3, -2.934e-08
8268.3, -3.504e-08
8270.3, -3.206e-08
8272.3, -3.034e-08
8274.3, -3.41e-08
8276.3, -3.297e-08
8278.3, -3.159e-08
8280.3, -3.6e-08
8282.3, -3.291e-08
8284.3, -2.945e-08
8286.3, -3.277e-08
8288.3, -3.347e-08
8290.3, -3.281e-08
8292.3, -3.148e-08
8294.3, -3.027e-08
8296.3, -2.791e-08
8298.3, -3.389e-08
8300.3, -2.893e-08
8302.3, -3.244e-08
8304.3, -2.986e-08
8306.3, -3.356e-08
8308.3, -3.504e-08
8310.3, -3.372e-08
8312.3, -3.065e-08
8314.3, -3.201e-08
8316.3, -2.875e-08
8318.3, -3.097e-08
8320.3, -3.058e-08
8322.3, -3.155e-08
8324.3, -3.056e-08
8326.3, -3.285e-08
8328.3, -3.282e-08
8330.3, -3.162e-08
8332.3, -3.096e-08
8334.3, -3.419e-08
8336.3, -3.805e-08
8338.3, -3.784e-08
8340.3, -3.749e-08
8342.3, -3.137e-08
8344.3, -3.257e-08
8346.3, -3.256e-08
8348.3, -3.491e-08
8350.3, -3.615e-08
8352.3, -3.407e-08
8354.3, -3.477e-08
8356.3, -3.021e-08
8358.3, -3.44e-08
8360.4, -3.39e-08
8362.4, -3.513e-08
8364.4, -3.314e-08
8366.4, -3.416e-08
8368.4, -3.595e-08
8370.4, -3.92e-08
8372.4, -3.635e-08
8374.4, -3.43e-08
8376.4, -3.371e-08
8378.4, -3.319e-08
8380.4, -2.898e-08
8382.4, -3.451e-08
8384.4, -3.14e-08
8386.4, -2.756e-08
8388.4, -3.02e-08
8390.4, -2.69e-08
8392.4, -3.026e-08
8394.4, -2.882e-08
8396.4, -3.39e-08
8398.4, -2.893e-08
8400.4, -3.145e-08
8402.4, -3.047e-08
8404.4, -2.78e-08
8406.4, -3.041e-08
8408.4, -3.138e-08
8410.4, -3.284e-08
8412.4, -3.036e-08
8414.4, -3.338e-08
8416.4, -3.454e-08
8418.4, -3.428e-08
8420.4, -3.167e-08
8422.4, -3.138e-08
8424.4, -3.284e-08
8426.4, -3.224e-08
8428.4, -3.185e-08
8430.4, -3.387e-08
8432.4, -3.662e-08
8434.4, -3.407e-08
8436.4, -3.591e-08
8438.4, -3.534e-08
8440.4, -3.363e-08
8442.4, -3.592e-08
8444.4, -3.318e-08
8446.4, -3.359e-08
8448.4, -3.263e-08
8450.4, -3.084e-08
8452.4, -3.28e-08
8454.4, -3.132e-08
8456.4, -3.07e-08
8458.4, -3.39e-08
8460.5, -3.269e-08
8462.5, -3.073e-08
8464.5, -3.608e-08
8466.5, -3.311e-08
8468.5, -3.399e-08
8470.5, -3.295e-08
8472.5, -3.193e-08
8474.5, -3.272e-08
8476.5, -3.16e-08
8478.5, -3.881e-08
8480.5, -3.455e-08
8482.5, -3.18e-08
8484.5, -2.94e-08
8486.5, -3.112e-08
8488.5, -3.138e-08
8490.5, -3.124e-08
8492.5, -3.324e-08
8494.5, -3.399e-08
8496.5, -3.147e-08
8498.5, -3.257e-08
8500.5, -2.89e-08
8502.5, -2.61e-08
8504.5, -3.083e-08
8506.5, -3.304e-08
8508.5, -3.213e-08
8510.5, -2.93e-08
8512.5, -3.306e-08
8514.5, -2.794e-08
8516.5, -2.969e-08
8518.5, -3.275e-08
8520.5, -2.988e-08
8522.5, -2.727e-08
8524.5, -3.242e-08
8526.5, -3.588e-08
8528.5, -3.508e-08
8530.5, -3.112e-08
8532.5, -3.156e-08
8534.5, -3.078e-08
8536.5, -3.179e-08
8538.5, -3.387e-08
8540.5, -3.329e-08
8542.5, -3.122e-08
8544.5, -3.269e-08
8546.5, -3.189e-08
8548.5, -3.439e-08
8550.5, -3.32e-08
8552.5, -3.078e-08
8554.5, -2.83e-08
8556.5, -3.17e-08
8558.5, -3.299e-08
8560.6, -3.063e-08
8562.6, -2.884e-08
8564.6, -3.048e-08
8566.6, -3.172e-08
8568.6, -3.476e-08
8570.6, -3.281e-08
8572.6, -3.306e-08
8574.6, -3.272e-08
8576.6, -3.621e-08
8578.6, -3.413e-08
8580.6, -3.342e-08
8582.6, -3.407e-08
8584.6, -3.228e-08
8586.6, -3.407e-08
8588.6, -3.457e-08
8590.6, -3.44e-08
8592.6, -3.203e-08
8594.6, -3.125e-08
8596.6, -3.152e-08
8598.6, -2.99e-08
8600.6, -3.593e-08
8602.6, -3.369e-08
8604.6, -3.639e-08
8606.6, -3.27e-08
8608.6, -3.33e-08
8610.6, -3.65e-08
8612.6, -3.522e-08
8614.6, -3.28e-08
8616.6, -3.213e-08
8618.6, -3.315e-08
8620.6, -3.264e-08
8622.6, -3.45e-08
8624.6, -3.475e-08
8626.6, -3.255e-08
8628.6, -3.604e-08
8630.6, -3.538e-08
8632.6, -3.433e-08
8634.6, -3.387e-08
8636.6, -3.514e-08
8638.6, -3.452e-08
8640.6, -3.406e-08
8642.6, -3.223e-08
8644.6, -3.544e-08
8646.6, -3.975e-08
8648.6, -3.731e-08
8650.6, -3.82e-08
8652.6, -3.893e-08
8654.6, -3.327e-08
8656.6, -3.411e-08
8658.6, -3.44e-08
8660.7, -3.291e-08
8662.7, -3.541e-08
8664.7, -3.598e-08
8666.7, -3.95e-08
8668.7, -3.889e-08
8670.7, -3.952e-08
8672.7, -3.92e-08
8674.7, -3.879e-08
8676.7, -3.803e-08
8678.7, -3.696e-08
8680.7, -3.77e-08
8682.7, -3.565e-08
8684.7, -3.721e-08
8686.7, -3.447e-08
8688.7, -3.313e-08
8690.7, -3.665e-08
8692.7, -3.025e-08
8694.7, -3.145e-08
8696.7, -3.261e-08
8698.7, -3.28e-08
8700.7, -3.284e-08
8702.7, -3.606e-08
8704.7, -3.355e-08
8706.7, -3.372e-08
8708.7, -3.325e-08
8710.7, -3.546e-08
8712.7, -3.512e-08
8714.7, -3.693e-08
8716.7, -3.673e-08
8718.7, -3.615e-08
8720.7, -3.471e-08
8722.7, -3.578e-08
8724.7, -3.386e-08
8726.7, -3.622e-08
8728.7, -3.518e-08
8730.7, -3.411e-08
8732.7, -3.11e-08
8734.7, -3.286e-08
8736.7, -3.348e-08
8738.7, -3.261e-08
8740.7, -3.26e-08
8742.7, -3.052e-08
8744.7, -3.171e-08
8746.7, -3.445e-08
8748.7, -3.015e-08
8750.7, -3.044e-08
8752.7, -2.949e-08
8754.7, -3.22e-08
8756.7, -3.164e-08
8758.7, -3.545e-08
8760.8, -3.615e-08
8762.8, -3.685e-08
8764.8, -3.643e-08
8766.8, -3.337e-08
8768.8, -3.399e-08
8770.8, -3.518e-08
8772.8, -3.479e-08
8774.8, -3.449e-08
8776.8, -3.674e-08
8778.8, -3.597e-08
8780.8, -3.432e-08
8782.8, -3.713e-08
8784.8, -3.531e-08
8786.8, -3.787e-08
8788.8, -4.152e-08
8790.8, -3.398e-08
8792.8, -3.791e-08
8794.8, -3.477e-08
8796.8, -3.526e-08
8798.8, -3.291e-08
8800.8, -3.76e-08
8802.8, -3.598e-08
8804.8, -3.411e-08
8806.8, -3.362e-08
8808.8, -3.523e-08
8810.8, -3.327e-08
8812.8, -3.522e-08
8814.8, -3.455e-08
8816.8, -3.777e-08
8818.8, -3.829e-08
8820.8, -3.592e-08
8822.8, -3.415e-08
8824.8, -3.479e-08
8826.8, -3.304e-08
8828.8, -3.369e-08
8830.8, -3.199e-08
8832.8, -3.216e-08
8834.8, -3.197e-08
8836.8, -3.32e-08
8838.8, -3.312e-08
8840.8, -3.354e-08
8842.8, -3.495e-08
8844.8, -3.193e-08
8846.8, -3.479e-08
8848.8, -3.411e-08
8850.8, -3.417e-08
8852.8, -3.514e-08
8854.8, -3.466e-08
8856.8, -3.343e-08
8858.8, -2.876e-08
8860.9, -3.29e-08
8862.9, -2.87e-08
8864.9, -3.006e-08
8866.9, -3.212e-08
8868.9, -3.191e-08
8870.9, -3.191e-08
8872.9, -3.146e-08
8874.9, -3.045e-08
8876.9, -2.876e-08
8878.9, -3.124e-08
8880.9, -3.132e-08
8882.9, -3.09e-08
8884.9, -2.639e-08
8886.9, -3.04e-08
8888.9, -3.268e-08
8890.9, -3.331e-08
8892.9, -3.163e-08
8894.9, -3.063e-08
8896.9, -3.2e-08
8898.9, -3.352e-08
8900.9, -3.351e-08
8902.9, -3.034e-08
8904.9, -3.083e-08
8906.9, -3.058e-08
8908.9, -3.617e-08
8910.9, -2.86e-08
8912.9, -3.116e-08
8914.9, -3.085e-08
8916.9, -3.376e-08
8918.9, -3.109e-08
8920.9, -3.369e-08
8922.9, -3.286e-08
8924.9, -3.213e-08
8926.9, -3.043e-08
8928.9, -3.285e-08
8930.9, -3.426e-08
8932.9, -3.344e-08
8934.9, -3.418e-08
8936.9, -3.519e-08
8938.9, -3.507e-08
8940.9, -3.233e-08
8942.9, -3.035e-08
8944.9, -3.312e-08
8946.9, -3.548e-08
8948.9, -3.544e-08
8950.9, -3.332e-08
8952.9, -3.358e-08
8954.9, -3.389e-08
8956.9, -3.482e-08
8958.9, -3.553e-08
8961.0, -3.29e-08
8963.0, -3.59e-08
8965.0, -3.39e-08
8967.0, -3.32e-08
8969.0, -3.603e-08
8971.0, -3.694e-08
8973.0, -3.713e-08
8975.0, -3.631e-08
8977.0, -3.623e-08
8979.0, -4.129e-08
8981.0, -3.774e-08
8983.0, -3.471e-08
8985.0, -3.927e-08
8987.0, -3.497e-08
8989.0, -3.41e-08
8991.0, -3.474e-08
8993.0, -3.526e-08
8995.0, -3.792e-08
8997.0, -3.63e-08
8999.0, -4.311e-08
9001.0, -3.923e-08
9003.0, -4.036e-08
9005.0, -3.727e-08
9007.0, -3.546e-08
9009.0, -3.629e-08
9011.0, -3.552e-08
9013.0, -3.738e-08
9015.0, -3.649e-08
9017.0, -3.664e-08
9019.0, -3.789e-08
9021.0, -3.8e-08
9023.0, -3.884e-08
9025.0, -3.822e-08
9027.0, -3.272e-08
9029.0, -3.643e-08
9031.0, -3.617e-08
9033.0, -3.427e-08
9035.0, -3.374e-08
9037.0, -3.573e-08
9039.0, -3.641e-08
9041.0, -3.699e-08
9043.0, -3.665e-08
9045.0, -3.423e-08
9047.0, -3.617e-08
9049.0, -3.72e-08
9051.0, -3.585e-08
9053.0, -3.313e-08
9055.0, -3.166e-08
9057.0, -3.603e-08
9059.0, -3.533e-08
9061.1, -3.782e-08
9063.1, -3.56e-08
9065.1, -3.262e-08
9067.1, -3.632e-08
9069.1, -3.398e-08
9071.1, -3.369e-08
9073.1, -3.344e-08
9075.1, -3.379e-08
9077.1, -3.418e-08
9079.1, -3.095e-08
9081.1, -3.178e-08
9083.1, -3.41e-08
9085.1, -2.915e-08
9087.1, -3.13e-08
9089.1, -3.03e-08
9091.1, -3.172e-08
9093.1, -3.352e-08
9095.1, -2.763e-08
9097.1, -3.545e-08
9099.1, -3.136e-08
9101.1, -2.906e-08
9103.1, -3.061e-08
9105.1, -2.885e-08
9107.1, -3.357e-08
9109.1, -3.43e-08
9111.1, -3.39e-08
9113.1, -2.909e-08
9115.1, -2.974e-08
9117.1, -3.21e-08
9119.1, -3.512e-08
9121.1, -3.115e-08
9123.1, -3.213e-08
9125.1, -3.215e-08
9127.1, -3.247e-08
9129.1, -3.255e-08
9131.1, -3.373e-08
9133.1, -3.72e-08
9135.1, -3.62e-08
9137.1, -3.402e-08
9139.1, -3.459e-08
9141.1, -3.532e-08
9143.1, -3.406e-08
9145.1, -3.299e-08
9147.1, -3.602e-08
9149.1, -3.186e-08
9151.1, -3.514e-08
9153.1, -3.436e-08
9155.1, -3.303e-08
9157.1, -3.289e-08
9159.1, -3.427e-08
9161.2, -3.268e-08
9163.2, -3.282e-08
9165.2, -3.633e-08
9167.2, -3.36e-08
9169.2, -3.506e-08
9171.2, -3.759e-08
9173.2, -3.579e-08
9175.2, -3.257e-08
9177.2, -3.478e-08
9179.2, -2.115e-08
9181.2, -9.15e-09
9183.2, -1.5e-09
9185.2, -2.21e-09
9187.2, 1.59e-09
9189.2, -6.65e-09
9191.2, -7.39e-09
9193.2, 9.3e-10
9195.2, -2.08e-09
9197.2, -2.03e-09
9199.2, -3.06e-09
9201.2, -1.414e-08
9203.2, -3.62e-09
9205.2, 1.27e-09
9207.2, 2.28e-09
9209.2, -3.38e-09
9211.2, -1.182e-08
9213.2, -5.16e-09
9215.2, -2.9e-10
9217.2, -3.55e-09
9219.2, -8.85e-09
9221.2, -1.808e-08
9223.2, -1.41e-08
9225.2, -6.43e-09
9227.2, -3.93e-09
9229.2, -8.83e-09
9231.2, -9.35e-09
9233.2, -3.32e-09
9235.2, -5.29e-09
9237.2, 1.63e-09
9239.2, -1.111e-08
9241.2, -5.57e-09
9243.2, -4.62e-09
9245.2, -8.64e-09
9247.2, -4.31e-09
9249.2, -1.212e-08
9251.2, -2.73e-09
9253.2, -1.047e-08
9255.2, -3.14e-09
9257.2, -3.87e-09
9259.2, 5.2e-10
9261.3, -8.88e-09
9263.3, -8.01e-09
9265.3, -7.7e-10
9267.3, -3.28e-09
9269.3, -7.38e-09
9271.3, -7.06e-09
9273.3, -7.41e-09
9275.3, -3.62e-09
9277.3, -5.14e-09
9279.3, -8.22e-09
9281.3, -6.02e-09
9283.3, -4.79e-09
9285.3, -4.34e-09
9287.3, -3.57e-09
9289.3, -8e-11
9291.3, -4.13e-09
9293.3, -1.23e-09
9295.3, -1.86e-09
9297.3, -4.8e-09
9299.3, -7.23e-09
9301.3, -5.04e-09
9303.3, -5.24e-09
9305.3, -1.72e-09
9307.3, -3.24e-09
9309.3, 4.69e-09
9311.3, 1.68e-09
9313.3, -7.8e-09
9315.3, -5.02e-09
9317.3, -2.02e-09
9319.3, -7.47e-09
9321.3, -4.79e-09
9323.3, -9e-09
9325.3, -5.02e-09
9327.3, -2.7e-10
9329.3, -1.67e-09
9331.3, -6.99e-09
9333.3, -2.84e-09
9335.3, -2.2e-09
9337.3, -6.1e-09
9339.3, -5.94e-09
9341.3, -8.26e-09
9343.3, -1.24e-09
9345.3, -7.59e-09
9347.3, 2.13e-09
9349.3, 7e-11
9351.3, -4.42e-09
9353.3, -6.2e-09
9355.3, -2.29e-09
9357.3, 4.23e-09
9359.3, -5.97e-09
9361.4, -2.5e-10
9363.4, -4.53e-09
9365.4, -7.9e-09
9367.4, -3.7e-10
9369.4, -6.33e-09
9371.4, -3.8e-09
9373.4, -1.54e-09
9375.4, 1.87e-09
9377.4, -7.48e-09
9379.4, -2.26e-09
9381.4, -7.29e-09
9383.4, -8.84e-09
9385.4, 1.06e-09
9387.4, -5.23e-09
9389.4, -4.74e-09
9391.4, -1.97e-09
9393.4, 6.2e-09
9395.4, 6.8e-10
9397.4, -1.12e-09
9399.4, -6.66e-09
9401.4, 4.09e-09
9403.4, -7.69e-09
9405.4, 7.51e-09
9407.4, 4.4e-10
9409.4, -4.43e-09
9411.4, -4.38e-09
9413.4, -1.39e-09
9415.4, -1.73e-09
9417.4, -6.77e-09
9419.4, -6.14e-09
9421.4, -4.53e-09
9423.4, -7.02e-09
9425.4, -4.52e-09
9427.4, -7.9e-09
9429.4, -8.64e-09
9431.4, -2.47e-09
9433.4, -2.94e-09
9435.4, -3.03e-09
9437.4, -4.38e-09
9439.4, -7.57e-09
9441.4, -1.61e-09
9443.4, -2.43e-09
9445.4, -3.87e-09
9447.4, 3.72e-09
9449.4, -2.35e-09
9451.4, 1.67e-09
9453.4, -3.01e-09
9455.4, 2.05e-09
9457.4, -1.2e-10
9459.4, -3.49e-09
9461.5, 5.51e-09
9463.5, 4.57e-09
9465.5, -4.02e-09
9467.5, 3.88e-09
9469.5, -1.3e-09
9471.5, 4.63e-09
9473.5, 8.11e-09
9475.5, 8.47e-09
9477.5, 4.08e-09
9479.5, -3e-09
9481.5, 4.61e-09
9483.5, -9.9e-10
9485.5, -2.07e-09
9487.5, 7.4e-10
9489.5, 1.16e-09
9491.5, -5.8e-10
9493.5, 3.51e-09
9495.5, -4.12e-09
9497.5, 4.05e-09
9499.5, -2.9e-10
9501.5, 2.32e-09
9503.5, 2.21e-09
9505.5, 9.02e-09
9507.5, 3.63e-09
9509.5, 1.97e-09
9511.5, 1.1e-10
9513.5, -4.31e-09
9515.5, 7.9e-10
9517.5, -3.8e-09
9519.5, -1.034e-08
9521.5, -5.9e-10
9523.5, 1.82e-09
9525.5, -9.4e-10
9527.5, 3.61e-09
9529.5, -9.2e-10
9531.5, 2.63e-09
9533.5, 3.64e-09
9535.5, 4e-10
9537.5, 3.04e-09
9539.5, -5.13e-09
9541.5, -1.24e-09
9543.5, -5.08e-09
9545.5, -5.19e-09
9547.5, -5.6e-10
9549.5, 6.78e-09
9551.5, 9.77e-09
9553.5, 1.155e-08
9555.5, 9.53e-09
9557.5, 1.37e-09
9559.5, 8.4e-09
9561.6, 7.9e-10
9563.6, 1.73e-09
9565.6, 3.27e-09
9567.6, 2.34e-09
9569.6, 3.36e-09
9571.6, 5.3e-10
9573.6, 3e-10
9575.6, 3.62e-09
9577.6, -5.05e-09
9579.6, 4e-09
9581.6, 7.78e-09
9583.6, -3.66e-09
9585.6, 5.33e-09
9587.6, 2.05e-09
9589.6, -1.64e-09
9591.6, 9.2e-09
9593.6, -5.29e-09
9595.6, -2.32e-09
9597.6, -1.6e-10
9599.6, -3.83e-09
9601.6, 7.1e-10
9603.6, -2.55e-09
9605.6, 1.71e-09
9607.6, 4e-11
9609.6, -3.42e-09
9611.6, 2.02e-09
9613.6, 1.63e-09
9615.6, 1.36e-09
9617.6, 6.16e-09
9619.6, 2.49e-09
9621.6, 2.66e-09
9623.6, -6.15e-09
9625.6, -8.13e-09
9627.6, -4.72e-09
9629.6, 2.9e-09
9631.6, 2.19e-09
9633.6, -2.47e-09
9635.6, 2.46e-09
9637.6, -6.36e-09
9639.6, -2.37e-09
9641.6, -9.92e-09
9643.6, -5.31e-09
9645.6, -1.6e-09
9647.6, -4.34e-09
9649.6, 1.68e-09
9651.6, -4e-10
9653.6, -3.68e-09
9655.6, 2.91e-09
9657.6, 7.32e-09
9659.6, 5.49e-09
9661.7, 4.5e-10
9663.7, 2.87e-09
9665.7, -1.31e-09
9667.7, 6e-10
9669.7, 7e-10
9671.7, -6.1e-10
9673.7, -5.28e-09
9675.7, 3.68e-09
9677.7, 2.7e-09
9679.7, -6.76e-09
9681.7, 9.8e-10
9683.7, 9.4e-10
9685.7, 1.17e-09
9687.7, -6.1e-09
9689.7, -3.62e-09
9691.7, -7.52e-09
9693.7, -2.8e-10
9695.7, 4.77e-09
9697.7, -1.7e-09
9699.7, 2.51e-09
9701.7, 4e-11
9703.7, -5.12e-09
9705.7, 1.47e-09
9707.7, 4.2e-10
9709.7, -4.25e-09
9711.7, -5.18e-09
9713.7, 4.85e-09
9715.7, 1.18e-09
9717.7, 1.55e-09
9719.7, -1.88e-09
9721.7, 5.5e-10
9723.7, -1.01e-09
9725.7, -9.79e-09
9727.7, -7.69e-09
9729.7, -4.29e-09
9731.7, -2.16e-09
9733.7, 2.87e-09
9735.7, -7.11e-09
9737.7, -5.32e-09
9739.7, -8.57e-09
9741.7, -9.06e-09
9743.7, -6.86e-09
9745.7, 2.93e-09
9747.7, -1.17e-09
9749.7, -2.43e-09
9751.7, -2e-11
9753.7, 4.73e-09
9755.7, -5e-09
9757.7, -2.48e-09
9759.7, 1.91e-09
9761.8, -5.4e-09
9763.8, -2.36e-09
9765.8, -3.32e-09
9767.8, 3.66e-09
9769.8, -2.66e-09
9771.8, 1.33e-09
9773.8, 5.99e-09
9775.8, 7.55e-09
9777.8, 2.03e-09
9779.8, 4.8e-10
9781.8, -9.21e-09
9783.8, 7.4e-10
9785.8, 1.3e-10
9787.8, -6.6e-09
9789.8, 4.1e-10
9791.8, -8.43e-09
9793.8, -5.15e-09
9795.8, 2.57e-09
9797.8, -2.6e-10
9799.8, 3.66e-09
9801.8, -6.48e-09
9803.8, 1.39e-09
9805.8, 2.95e-09
9807.8, 1.87e-09
9809.8, -4.81e-09
9811.8, 2.75e-09
9813.8, 2.83e-09
9815.8, -2.92e-09
9817.8, 2.47e-09
9819.8, -3.18e-09
9821.8, -3.5e-10
9823.8, 1.1e-10
9825.8, -2.1e-09
9827.8, -5.9e-10
9829.8, -5.35e-09
9831.8, -1.86e-09
9833.8, -4.26e-09
9835.8, 8.37e-09
9837.8, -1.78e-09
9839.8, 4.47e-09
9841.8, 2.23e-09
9843.8, -2.28e-09
9845.8, 7.5e-09
9847.8, -3.7e-10
9849.8, -2.31e-09
9851.8, 4.81e-09
9853.8, 1.63e-09
9855.8, -4e-09
9857.8, 2.2e-09
9859.8, 2.7e-09
9861.9, 5.3e-10
9863.9, 2.84e-09
9865.9, 2.06e-09
9867.9, -4.89e-09
9869.9, 1.19e-09
9871.9, 3.71e-09
9873.9, -3.85e-09
9875.9, 3.61e-09
9877.9, -1.44e-09
9879.9, -2.8e-10
9881.9, -4.18e-09
9883.9, 3.5e-09
9885.9, 3.84e-09
9887.9, -1.1e-10
9889.9, -2.82e-09
9891.9, -2.83e-09
9893.9, 5.9e-10
9895.9, 8.11e-09
9897.9, -5.5e-10
9899.9, -4.72e-09
9901.9, -2.4e-10
9903.9, -4.15e-09
9905.9, -2.18e-09
9907.9, 4.91e-09
9909.9, -7.43e-09
9911.9, 3.8e-10
9913.9, -8.46e-09
9915.9, 0.0
9917.9, 3.33e-09
9919.9, -1.048e-08
9921.9, -7.7e-10
9923.9, -2.06e-09
9925.9, -4.37e-09
9927.9, 4.28e-09
9929.9, -2.05e-09
9931.9, 2.66e-09
9933.9, -1.09e-09
9935.9, -1.81e-09
9937.9, -3.86e-09
9939.9, 5.05e-09
9941.9, -6.3e-10
9943.9, -3.75e-09
9945.9, 8e-11
9947.9, -3.04e-09
9949.9, -3.59e-09
9951.9, -9.4e-10
9953.9, -2.26e-09
9955.9, 1.4e-10
9957.9, 2.55e-09
9959.9, 2.4e-09
9962.0, -6.35e-09
9964.0, -6.6e-10
9966.0, -3.53e-09
9968.0, -4.14e-09
9970.0, -1.25e-09
9972.0, -2.08e-09
9974.0, -6.7e-10
9976.0, 2.58e-09
9978.0, -1.45e-09
9980.0, 1.91e-09
9982.0, -6e-10
9984.0, 2.6e-10
9986.0, -1e-10
9988.0, -6.21e-09
9990.0, 4.1e-10
9992.0, 9.5e-10
9994.0, -1.94e-09
9996.0, -2.07e-09
9998.0, -3.72e-09
10000.0, 3.47e-09
10002.0, 3.03e-09
10004.0, 4.17e-09
10006.0, 7.1e-10
10008.0, -3.68e-09
10010.0, 6e-10
10012.0, -5.3e-10
10014.0, -6.86e-09
10016.0, -7.07e-09
10018.0, -9.77e-09
10020.0, -2.52e-09
10022.0, -3.29e-09
10024.0, -1.2e-08
10026.0, 1.13e-09
10028.0, -9.24e-09
10030.0, -5.89e-09
10032.0, -1.75e-09
10034.0, 2.17e-09
10036.0, 5.3e-10
10038.0, -6.1e-10
10040.0, -6.77e-09
10042.0, 1.84e-09
10044.0, 1.086e-08
10046.0, -6.2e-10
10048.0, -5.96e-09
10050.0, -8.47e-09
10052.0, 5.44e-09
10054.0, -9e-11
10056.0, 3.3e-09
10058.0, -3e-10
10060.0, -5.17e-09
10062.0, 6.97e-09
10064.0, -2.92e-09
10066.0, 4.27e-09
10068.0, 2.98e-09
10070.0, -3.81e-09
10072.0, -3.01e-09
10074.0, -1.51e-09
10076.0, -4.9e-09
10078.0, 3e-10
10080.0, 1.025e-08
10082.0, 2.62e-09
10084.0, 6.39e-09
10086.0, 4.66e-09
10088.0, 6.72e-09
10090.0, 5.13e-09
10092.0, -1.51e-09
10094.0, 3.29e-09
10096.0, 2.6e-09
10098.0, -1.14e-09
10100.0, -1.17e-09
10102.0, -2.61e-09
10104.0, -1.32e-09
10106.0, 8.37e-09
10108.0, -6.54e-09
10110.0, -4.88e-09
10112.0, -7.7e-10
10114.0, 8e-10
10116.0, -6.63e-09
10118.0, 4.81e-09
10120.0, -6.6e-10
10122.0, 2.9e-09
10124.0, -1.63e-09
10126.0, -9.55e-09
10128.0, -3.2e-10
10130.0, -3.13e-09
10132.0, -8.96e-09
10134.0, 4e-09
10136.0, -5.51e-09
10138.0, -1.9e-09
10140.0, -4.82e-09
10142.0, 2.94e-09
10144.0, -1.04e-09
10146.0, 2.74e-09
10148.0, 6.3e-09
10150.0, 2.26e-09
10152.0, 4.04e-09
10154.0, -1.11e-09
10156.0, -8.2e-10
10158.0, 3.19e-09
10160.0, 2.13e-09
10162.0, 3.56e-09
10164.0, 3.58e-09
10166.0, -3.3e-10
10168.0, -3.5e-10
10170.0, -2.5e-10
10172.0, -5.96e-09
10174.0, -3.8e-10
10176.0, 8.6e-10
10178.0, -2.55e-09
10180.0, -1.536e-08
10182.0, -3.253e-08
10184.0, -3.034e-08
10186.0, -2.936e-08
10188.0, -3.228e-08
10190.0, -3.257e-08
10192.0, -2.934e-08
10194.0, -3.313e-08
10196.0, -2.66e-08
10198.0, -2.886e-08
10200.0, -2.945e-08
10202.0, -3.336e-08
10204.0, -3.231e-08
10206.0, -3.303e-08
10208.0, -3.009e-08
10210.0, -3.188e-08
10212.0, -3.302e-08
10214.0, -3.072e-08
10216.0, -3.167e-08
10218.0, -3.005e-08
10220.0, -3.364e-08
10222.0, -3.425e-08
10224.0, -3.105e-08
10226.0, -2.964e-08
10228.0, -3.156e-08
10230.0, -2.878e-08
10232.0, -3.629e-08
10234.0, -3.199e-08
10236.0, -3.407e-08
10238.0, -2.795e-08
10240.0, -3.138e-08
10242.0, -3.129e-08
10244.0, -2.984e-08
10246.0, -3.23e-08
10248.0, -3.04e-08
10250.0, -3.363e-08
10252.0, -3.004e-08
10254.0, -3.109e-08
10256.0, -3.08e-08
10258.0, -3.288e-08
10260.0, -2.899e-08
10262.0, -3.288e-08
10264.0, -3.293e-08
10266.0, -3.165e-08
10268.0, -3.264e-08
10270.0, -3.16e-08
10272.0, -3.006e-08
10274.0, -3.104e-08
10276.0, -3.038e-08
10278.0, -3.059e-08
10280.0, -2.859e-08
10282.0, -2.961e-08
10284.0, -2.766e-08
10286.0, -2.844e-08
10288.0, -3.166e-08
10290.0, -3.039e-08
10292.0, -3.209e-08
10294.0, -3.132e-08
10296.0, -3.01e-08
10298.0, -2.885e-08
10300.0, -3.16e-08
10302.0, -3.241e-08
10304.0, -3.015e-08
10306.0, -3.131e-08
10308.0, -3.132e-08
10310.0, -2.952e-08
10312.0, -3.176e-08
10314.0, -3.122e-08
10316.0, -2.814e-08
10318.0, -3.025e-08
10320.0, -3.273e-08
10322.0, -3.696e-08
10324.0, -3.191e-08
10326.0, -3.049e-08
10328.0, -3.563e-08
10330.0, -3.369e-08
10332.0, -3.291e-08
10334.0, -2.967e-08
10336.0, -2.917e-08
10338.0, -3.096e-08
10340.0, -3.263e-08
10342.0, -3.032e-08
10344.0, -3.324e-08
10346.0, -3.185e-08
10348.0, -3.377e-08
10350.0, -3.389e-08
10352.0, -3.508e-08
10354.0, -3.391e-08
10356.0, -3.197e-08
10358.0, -3.118e-08
10360.0, -3.603e-08
10362.0, -3.326e-08
10364.0, -3.35e-08
10366.0, -3.57e-08
10368.0, -3.463e-08
10370.0, -3.639e-08
10372.0, -3.565e-08
10374.0, -3.433e-08
10376.0, -3.152e-08
10378.0, -2.892e-08
10380.0, -3.308e-08
10382.0, -3.375e-08
10384.0, -3.312e-08
10386.0, -3.326e-08
10388.0, -3.249e-08
10390.0, -3.489e-08
10392.0, -3.541e-08
10394.0, -3.256e-08
10396.0, -3.174e-08
10398.0, -2.991e-08
10400.0, -2.919e-08
10402.0, -3.23e-08
10404.0, -3.396e-08
10406.0, -3.24e-08
10408.0, -3.442e-08
10410.0, -3.115e-08
10412.0, -3.436e-08
10414.0, -3.167e-08
10416.0, -3.351e-08
10418.0, -3.321e-08
10420.0, -3.329e-08
10422.0, -3.078e-08
10424.0, -3.134e-08
10426.0, -3.387e-08
10428.0, -3.249e-08
10430.0, -3.513e-08
10432.0, -3.419e-08
10434.0, -3.162e-08
10436.0, -3.109e-08
10438.0, -3.482e-08
10440.0, -3.402e-08
10442.0, -3.115e-08
10444.0, -3.53e-08
10446.0, -3.366e-08
10448.0, -3.325e-08
10450.0, -3.156e-08
10452.0, -3.284e-08
10454.0, -3.402e-08
10456.0, -3.047e-08
10458.0, -3.533e-08
10460.0, -3.471e-08
10462.0, -3.436e-08
10464.0, -3.38e-08
10466.0, -3.3e-08
10468.0, -3.142e-08
10470.0, -3.261e-08
10472.0, -3.164e-08
10474.0, -3.187e-08
10476.0, -3.395e-08
10478.0, -3.281e-08
10480.0, -2.994e-08
10482.0, -3.256e-08
10484.0, -3.115e-08
10486.0, -2.95e-08
10488.0, -2.823e-08
10490.0, -3.088e-08
10492.0, -3.435e-08
10494.0, -3.149e-08
10496.0, -3.026e-08
10498.0, -3.179e-08
10500.0, -3.088e-08
10502.0, -2.943e-08
10504.0, -3.247e-08
10506.0, -3.026e-08
10508.0, -3.578e-08
10510.0, -3.719e-08
10513.0, -3.766e-08
10515.0, -3.675e-08
10517.0, -3.425e-08
10519.0, -3.591e-08
10521.0, -3.627e-08
10523.0, -3.507e-08
10525.0, -3.533e-08
10527.0, -3.125e-08
10529.0, -3.869e-08
10531.0, -3.437e-08
10533.0, -3.697e-08
10535.0, -3.51e-08
10537.0, -3.295e-08
10539.0, -3.3e-08
10541.0, -3.379e-08
10543.0, -3.247e-08
10545.0, -3.294e-08
10547.0, -3.027e-08
10549.0, -3.267e-08
10551.0, -3.242e-08
10553.0, -2.987e-08
10555.0, -3.017e-08
10557.0, -3.289e-08
10559.0, -3.286e-08
10561.0, -3.435e-08
10563.0, -2.88e-08
10565.0, -3.18e-08
10567.0, -2.937e-08
10569.0, -2.915e-08
10571.0, -2.95e-08
10573.0, -2.938e-08
10575.0, -3.147e-08
10577.0, -3.111e-08
10579.0, -2.898e-08
10581.0, -3.136e-08
10583.0, -3.18e-08
10585.0, -3.191e-08
10587.0, -3.348e-08
10589.0, -2.996e-08
10591.0, -2.997e-08
10593.0, -3.254e-08
10595.0, -3.364e-08
10597.0, -3.171e-08
10599.0, -3.14e-08
10601.0, -3.247e-08
10603.0, -3.16e-08
10605.0, -3.245e-08
10607.0, -2.784e-08
10609.0, -3.18e-08
10611.0, -3.121e-08
10613.0, -3.271e-08
10615.0, -3.186e-08
10617.0, -3.202e-08
10619.0, -3.121e-08
10621.0, -3.351e-08
10623.0, -3.145e-08
10625.0, -3.072e-08
10627.0, -3.13e-08
10629.0, -3.532e-08
10631.0, -2.911e-08
10633.0, -3.318e-08
10635.0, -2.79e-08
10637.0, -2.989e-08
10639.0, -2.645e-08
10641.0, -2.776e-08
10643.0, -3.14e-08
10645.0, -3.454e-08
10647.0, -3.344e-08
10649.0, -3.104e-08
10651.0, -3.485e-08
10653.0, -3.233e-08
10655.0, -3.367e-08
10657.0, -3.129e-08
10659.0, -3.372e-08
10661.0, -3.325e-08
10663.0, -3.093e-08
10665.0, -3.237e-08
10667.0, -3.022e-08
10669.0, -3.156e-08
10671.0, -3.073e-08
10673.0, -2.948e-08
10675.0, -2.937e-08
10677.0, -2.998e-08
10679.0, -2.839e-08
10681.0, -3.013e-08
10683.0, -3.049e-08
10685.0, -2.893e-08
10687.0, -3.144e-08
10689.0, -3.424e-08
10691.0, -3.357e-08
10693.0, -2.93e-08
10695.0, -3.321e-08
10697.0, -3.511e-08
10699.0, -3.436e-08
10701.0, -3.555e-08
10703.0, -3.555e-08
10705.0, -3.54e-08
10707.0, -3.536e-08
10709.0, -3.465e-08
10711.0, -3.33e-08
10713.0, -3.618e-08
10715.0, -3.149e-08
10717.0, -3.294e-08
10719.0, -3.418e-08
10721.0, -3.281e-08
10723.0, -3.497e-08
10725.0, -3.135e-08
10727.0, -3.243e-08
10729.0, -3.348e-08
10731.0, -3.332e-08
10733.0, -3.522e-08
10735.0, -3.225e-08
10737.0, -3.066e-08
10739.0, -3.058e-08
10741.0, -2.944e-08
10743.0, -2.985e-08
10745.0, -3.295e-08
10747.0, -2.756e-08
10749.0, -3.351e-08
10751.0, -3.373e-08
10753.0, -3.128e-08
10755.0, -3.124e-08
10757.0, -3.301e-08
10759.0, -3.448e-08
10761.0, -3.431e-08
10763.0, -3.532e-08
10765.0, -3.475e-08
10767.0, -3.215e-08
10769.0, -3.499e-08
10771.0, -3.498e-08
10773.0, -3.602e-08
10775.0, -3.58e-08
10777.0, -3.357e-08
10779.0, -3.676e-08
10781.0, -3.51e-08
10783.0, -3.621e-08
10785.0, -3.175e-08
10787.0, -3.441e-08
10789.0, -2.954e-08
10791.0, -3.031e-08
10793.0, -3.376e-08
10795.0, -2.939e-08
10797.0, -3.227e-08
10799.0, -3.07e-08
10801.0, -3.382e-08
10803.0, -3.457e-08
10805.0, -3.385e-08
10807.0, -3.362e-08
10809.0, -3.311e-08
10811.0, -3.246e-08
10813.0, -3.117e-08
10815.0, -3.229e-08
10817.0, -2.947e-08
10819.0, -3.054e-08
10821.0, -3.244e-08
10823.0, -3.22e-08
10825.0, -3.483e-08
10827.0, -3.169e-08
10829.0, -3.409e-08
10831.0, -3.473e-08
10833.0, -3.239e-08
10835.0, -2.956e-08
10837.0, -3.463e-08
10839.0, -3.357e-08
10841.0, -3.483e-08
10843.0, -3.578e-08
10845.0, -3.714e-08
10847.0, -3.666e-08
10849.0, -3.477e-08
10851.0, -3.363e-08
10853.0, -3.421e-08
10855.0, -3.535e-08
10857.0, -3.371e-08
10859.0, -3.334e-08
10861.0, -3.203e-08
10863.0, -3.402e-08
10865.0, -3.397e-08
10867.0, -3.619e-08
10869.0, -3.46e-08
10871.0, -3.439e-08
10873.0, -3.225e-08
10875.0, -2.917e-08
10877.0, -3.002e-08
10879.0, -2.944e-08
10881.0, -3.221e-08
10883.0, -3.314e-08
10885.0, -3.049e-08
10887.0, -3.456e-08
10889.0, -3.158e-08
10891.0, -2.929e-08
10893.0, -3.077e-08
10895.0, -3.141e-08
10897.0, -3.129e-08
10899.0, -3.275e-08
10901.0, -3.195e-08
10903.0, -3.352e-08
10905.0, -3.263e-08
10907.0, -3.107e-08
10909.0, -3.124e-08
10911.0, -3.17e-08
10913.0, -3.176e-08
10915.0, -3.112e-08
10917.0, -2.755e-08
10919.0, -3.071e-08
10921.0, -3.036e-08
10923.0, -2.997e-08
10925.0, -2.786e-08
10927.0, -2.898e-08
10929.0, -3.004e-08
10931.0, -3.021e-08
10933.0, -2.973e-08
10935.0, -3.036e-08
10937.0, -2.909e-08
10939.0, -3.111e-08
10941.0, -2.955e-08
10943.0, -3.08e-08
10945.0, -2.876e-08
10947.0, -2.901e-08
10949.0, -2.992e-08
10951.0, -3.401e-08
10953.0, -3.194e-08
10955.0, -2.999e-08
10957.0, -3.366e-08
10959.0, -2.961e-08
10961.0, -3.249e-08
10963.0, -3.347e-08
10965.0, -2.64e-08
10967.0, -3.009e-08
10969.0, -3.27e-08
10971.0, -3.153e-08
10973.0, -3.135e-08
10975.0, -2.819e-08
10977.0, -2.876e-08
10979.0, -3.107e-08
10981.0, -3.204e-08
10983.0, -3.167e-08
10985.0, -3.344e-08
10987.0, -3.059e-08
10989.0, -2.861e-08
10991.0, -3.653e-08
10993.0, -3.219e-08
10995.0, -3.099e-08
10997.0, -3.274e-08
10999.0, -3.193e-08
11001.0, -3.007e-08
11003.0, -3.396e-08
11005.0, -3.661e-08
11007.0, -3.49e-08
11009.0, -3.223e-08
