Time sep (ms?), Current (A)
0.0, -3.72e-08
2.002, -3.781e-08
4.004, -3.943e-08
6.006, -3.671e-08
8.008, -3.622e-08
10.01, -3.737e-08
12.012, -3.802e-08
14.014, -4e-08
16.016, -4.486e-08
18.018, -4.15e-08
20.02, -3.977e-08
22.022, -4.167e-08
24.024, -4.095e-08
26.026, -4.397e-08
28.028, -4.35e-08
30.03, -3.972e-08
32.032, -4.344e-08
34.034, -4.228e-08
36.036, -4.152e-08
38.038, -4.273e-08
40.04, -4.15e-08
42.042, -4.095e-08
44.044, -4.184e-08
46.046, -3.863e-08
48.048, -4.121e-08
50.05, -3.772e-08
52.052, -4.057e-08
54.054, -4.55e-08
56.056, -4.359e-08
58.058, -4.037e-08
60.06, -4.28e-08
62.062, -4.389e-08
64.064, -3.847e-08
66.066, -3.989e-08
68.068, -4.177e-08
70.07, -4.322e-08
72.072, -4.235e-08
74.074, -4.271e-08
76.076, -4.054e-08
78.078, -4.339e-08
80.08, -3.954e-08
82.082, -4.115e-08
84.084, -3.853e-08
86.086, -3.901e-08
88.088, -3.799e-08
90.09, -4.084e-08
92.092, -4.046e-08
94.094, -4.486e-08
96.096, -4.044e-08
98.098, -4.429e-08
100.1, -4.102e-08
102.1, -3.786e-08
104.1, -3.966e-08
106.11, -4.25e-08
108.11, -4.205e-08
110.11, -4.166e-08
112.11, -4.354e-08
114.11, -4.133e-08
116.12, -4.057e-08
118.12, -4.019e-08
120.12, -3.716e-08
122.12, -4.135e-08
124.12, -4.071e-08
126.13, -3.914e-08
128.13, -3.861e-08
130.13, -3.743e-08
132.13, -3.644e-08
134.13, -3.832e-08
136.14, -3.78e-08
138.14, -4.061e-08
140.14, -3.768e-08
142.14, -3.699e-08
144.14, -3.601e-08
146.15, -3.963e-08
148.15, -3.72e-08
150.15, -4.203e-08
152.15, -4.286e-08
154.15, -3.951e-08
156.16, -3.886e-08
158.16, -4.001e-08
160.16, -3.367e-08
162.16, -3.522e-08
164.16, -3.405e-08
166.17, -3.547e-08
168.17, -3.607e-08
170.17, -3.373e-08
172.17, -2.901e-08
174.17, -3.426e-08
176.18, -3.3e-08
178.18, -3.232e-08
180.18, -3.046e-08
182.18, -3.625e-08
184.18, -3.233e-08
186.19, -3.422e-08
188.19, -3.725e-08
190.19, -4.157e-08
192.19, -4.215e-08
194.19, -4.105e-08
196.2, -3.906e-08
198.2, -3.886e-08
200.2, -4.067e-08
202.2, -3.885e-08
204.2, -4.077e-08
206.21, -3.9e-08
208.21, -3.87e-08
210.21, -4.001e-08
212.21, -3.875e-08
214.21, -3.591e-08
216.22, -3.659e-08
218.22, -3.754e-08
220.22, -3.774e-08
222.22, -3.724e-08
224.22, -3.808e-08
226.23, -4.046e-08
228.23, -3.865e-08
230.23, -4.074e-08
232.23, -3.898e-08
234.23, -4.275e-08
236.24, -3.757e-08
238.24, -3.808e-08
240.24, -3.48e-08
242.24, -3.538e-08
244.24, -4e-08
246.25, -3.966e-08
248.25, -4.096e-08
250.25, -4.247e-08
252.25, -3.74e-08
254.25, -3.979e-08
256.26, -4.159e-08
258.26, -4.032e-08
260.26, -4.005e-08
262.26, -3.955e-08
264.26, -4.485e-08
266.27, -3.887e-08
268.27, -3.965e-08
270.27, -3.87e-08
272.27, -3.926e-08
274.27, -3.997e-08
276.28, -4.258e-08
278.28, -4.314e-08
280.28, -3.961e-08
282.28, -3.949e-08
284.28, -4.009e-08
286.29, -4.386e-08
288.29, -4.34e-08
290.29, -4.266e-08
292.29, -4.383e-08
294.29, -4.263e-08
296.3, -4.461e-08
298.3, -4.412e-08
300.3, -4.206e-08
302.3, -4.337e-08
304.3, -4.351e-08
306.31, -4.145e-08
308.31, -4.147e-08
310.31, -4.012e-08
312.31, -4.128e-08
314.31, -4.432e-08
316.32, -4.265e-08
318.32, -4.122e-08
320.32, -4.298e-08
322.32, -3.786e-08
324.32, -4.195e-08
326.33, -4.541e-08
328.33, -4.27e-08
330.33, -4.126e-08
332.33, -4.362e-08
334.33, -4.09e-08
336.34, -4.303e-08
338.34, -4.132e-08
340.34, -4.065e-08
342.34, -4.301e-08
344.34, -3.883e-08
346.35, -4.082e-08
348.35, -3.984e-08
350.35, -3.872e-08
352.35, -4.177e-08
354.35, -4.154e-08
356.36, -4.083e-08
358.36, -4.196e-08
360.36, -4.316e-08
362.36, -4.224e-08
364.36, -4.346e-08
366.37, -4.14e-08
368.37, -3.854e-08
370.37, -4.339e-08
372.37, -3.799e-08
374.37, -4.142e-08
376.38, -4.279e-08
378.38, -4.612e-08
380.38, -4.334e-08
382.38, -4.298e-08
384.38, -4.158e-08
386.39, -4.423e-08
388.39, -4.418e-08
390.39, -4.15e-08
392.39, -4.103e-08
394.39, -3.982e-08
396.4, -4.007e-08
398.4, -4.105e-08
400.4, -3.886e-08
402.4, -3.952e-08
404.4, -4.022e-08
406.41, -4.021e-08
408.41, -4.216e-08
410.41, -4.444e-08
412.41, -3.895e-08
414.41, -3.812e-08
416.42, -3.926e-08
418.42, -4.093e-08
420.42, -3.83e-08
422.42, -3.854e-08
424.42, -3.484e-08
426.43, -3.384e-08
428.43, -3.631e-08
430.43, -3.647e-08
432.43, -4.033e-08
434.43, -3.672e-08
436.44, -3.578e-08
438.44, -3.487e-08
440.44, -4.021e-08
442.44, -4.135e-08
444.44, -3.768e-08
446.45, -3.539e-08
448.45, -3.736e-08
450.45, -3.668e-08
452.45, -3.759e-08
454.45, -3.61e-08
456.46, -3.681e-08
458.46, -3.912e-08
460.46, -3.676e-08
462.46, -3.95e-08
464.46, -3.866e-08
466.47, -3.801e-08
468.47, -3.804e-08
470.47, -3.899e-08
472.47, -3.841e-08
474.47, -3.78e-08
476.48, -3.541e-08
478.48, -3.709e-08
480.48, -3.757e-08
482.48, -3.486e-08
484.48, -3.435e-08
486.49, -3.778e-08
488.49, -3.905e-08
490.49, -3.61e-08
492.49, -3.854e-08
494.49, -3.82e-08
496.5, -3.399e-08
498.5, -3.601e-08
500.5, -3.732e-08
502.5, -3.604e-08
504.5, -3.66e-08
506.51, -3.768e-08
508.51, -3.827e-08
510.51, -3.69e-08
512.51, -4.072e-08
514.51, -3.971e-08
516.52, -4.033e-08
518.52, -3.722e-08
520.52, -3.57e-08
522.52, -3.768e-08
524.52, -3.639e-08
526.53, -3.828e-08
528.53, -3.643e-08
530.53, -3.827e-08
532.53, -3.622e-08
534.53, -3.699e-08
536.54, -3.979e-08
538.54, -3.836e-08
540.54, -4.09e-08
542.54, -4.107e-08
544.54, -3.831e-08
546.55, -3.77e-08
548.55, -3.771e-08
550.55, -3.566e-08
552.55, -3.824e-08
554.55, -3.822e-08
556.56, -3.686e-08
558.56, -3.695e-08
560.56, -3.756e-08
562.56, -3.945e-08
564.56, -3.65e-08
566.57, -3.575e-08
568.57, -3.734e-08
570.57, -3.833e-08
572.57, -3.619e-08
574.57, -3.825e-08
576.58, -3.777e-08
578.58, -3.933e-08
580.58, -3.61e-08
582.58, -3.587e-08
584.58, -3.805e-08
586.59, -4.04e-08
588.59, -3.937e-08
590.59, -3.219e-08
592.59, -3.524e-08
594.59, -3.773e-08
596.6, -3.507e-08
598.6, -3.478e-08
600.6, -3.638e-08
602.6, -3.156e-08
604.6, -3.562e-08
606.61, -3.581e-08
608.61, -3.732e-08
610.61, -3.97e-08
612.61, -3.923e-08
614.61, -3.854e-08
616.62, -3.728e-08
618.62, -3.482e-08
620.62, -3.71e-08
622.62, -3.957e-08
624.62, -3.658e-08
626.63, -3.862e-08
628.63, -3.812e-08
630.63, -3.315e-08
632.63, -3.77e-08
634.63, -3.392e-08
636.64, -3.751e-08
638.64, -3.826e-08
640.64, -3.806e-08
642.64, -3.656e-08
644.64, -3.546e-08
646.65, -3.857e-08
648.65, -3.71e-08
650.65, -3.404e-08
652.65, -3.53e-08
654.65, -3.781e-08
656.66, -3.715e-08
658.66, -3.701e-08
660.66, -3.52e-08
662.66, -3.815e-08
664.66, -3.69e-08
666.67, -3.652e-08
668.67, -3.541e-08
670.67, -3.657e-08
672.67, -3.773e-08
674.67, -3.581e-08
676.68, -4.096e-08
678.68, -3.723e-08
680.68, -3.549e-08
682.68, -3.53e-08
684.68, -3.873e-08
686.69, -3.063e-08
688.69, -3.618e-08
690.69, -3.227e-08
692.69, -3.749e-08
694.69, -3.721e-08
696.7, -3.163e-08
698.7, -3.504e-08
700.7, -3.391e-08
702.7, -3.5e-08
704.7, -3.301e-08
706.71, -3.692e-08
708.71, -3.26e-08
710.71, -3.558e-08
712.71, -3.891e-08
714.71, -3.747e-08
716.72, -3.539e-08
718.72, -3.412e-08
720.72, -3.833e-08
722.72, -3.982e-08
724.72, -3.568e-08
726.73, -3.547e-08
728.73, -3.481e-08
730.73, -3.813e-08
732.73, -3.518e-08
734.73, -4.202e-08
736.74, -3.589e-08
738.74, -3.849e-08
740.74, -3.969e-08
742.74, -3.595e-08
744.74, -3.924e-08
746.75, -3.706e-08
748.75, -3.369e-08
750.75, -3.593e-08
752.75, -3.053e-08
754.75, -3.348e-08
756.76, -3.439e-08
758.76, -3.371e-08
760.76, -3.195e-08
762.76, -3.108e-08
764.76, -3.529e-08
766.77, -3.356e-08
768.77, -3.315e-08
770.77, -3.438e-08
772.77, -3.244e-08
774.77, -3.617e-08
776.78, -3.505e-08
778.78, -3.692e-08
780.78, -3.864e-08
782.78, -3.67e-08
784.78, -3.569e-08
786.79, -3.505e-08
788.79, -3.335e-08
790.79, -3.463e-08
792.79, -3.718e-08
794.79, -3.599e-08
796.8, -3.738e-08
798.8, -3.453e-08
800.8, -3.599e-08
802.8, -3.553e-08
804.8, -3.538e-08
806.81, -3.508e-08
808.81, -3.566e-08
810.81, -3.557e-08
812.81, -3.321e-08
814.81, -3.34e-08
816.82, -3.255e-08
818.82, -3.225e-08
820.82, -3.235e-08
822.82, -3.212e-08
824.82, -3.271e-08
826.83, -3.498e-08
828.83, -3.065e-08
830.83, -3.292e-08
832.83, -3.473e-08
834.83, -3.527e-08
836.84, -3.463e-08
838.84, -3.794e-08
840.84, -3.762e-08
842.84, -3.4e-08
844.84, -3.474e-08
846.85, -3.677e-08
848.85, -3.75e-08
850.85, -3.336e-08
852.85, -3.827e-08
854.85, -3.918e-08
856.86, -4.017e-08
858.86, -3.532e-08
860.86, -4.168e-08
862.86, -3.524e-08
864.86, -3.646e-08
866.87, -3.647e-08
868.87, -3.459e-08
870.87, -3.939e-08
872.87, -3.943e-08
874.87, -3.606e-08
876.88, -3.796e-08
878.88, -3.478e-08
880.88, -3.719e-08
882.88, -3.823e-08
884.88, -3.684e-08
886.89, -3.72e-08
888.89, -3.425e-08
890.89, -3.538e-08
892.89, -3.556e-08
894.89, -3.468e-08
896.9, -3.539e-08
898.9, -3.672e-08
900.9, -3.461e-08
902.9, -3.575e-08
904.9, -3.639e-08
906.91, -3.794e-08
908.91, -3.356e-08
910.91, -3.765e-08
912.91, -3.649e-08
914.91, -3.654e-08
916.92, -4.039e-08
918.92, -3.551e-08
920.92, -3.905e-08
922.92, -3.546e-08
924.92, -3.72e-08
926.93, -3.828e-08
928.93, -3.489e-08
930.93, -3.161e-08
932.93, -3.528e-08
934.93, -3.502e-08
936.94, -3.228e-08
938.94, -3.344e-08
940.94, -3.287e-08
942.94, -3.057e-08
944.94, -3.278e-08
946.95, -3.261e-08
948.95, -3.151e-08
950.95, -3.27e-08
952.95, -3.357e-08
954.95, -3.299e-08
956.96, -3.327e-08
958.96, -3.205e-08
960.96, -3.021e-08
962.96, -3.357e-08
964.96, -2.911e-08
966.97, -3.295e-08
968.97, -2.76e-08
970.97, -3.104e-08
972.97, -3.255e-08
974.97, -3.015e-08
976.98, -3.459e-08
978.98, -3.18e-08
980.98, -3.225e-08
982.98, -3.456e-08
984.98, -3.592e-08
986.99, -3.473e-08
988.99, -3.353e-08
990.99, -3.405e-08
992.99, -3.356e-08
994.99, -3.143e-08
997.0, -3.275e-08
999.0, -3.437e-08
1001.0, -3.574e-08
1003.0, -3.361e-08
1005.0, -3.46e-08
1007.0, -3.381e-08
1009.0, -3.34e-08
1011.0, -3.424e-08
1013.0, -3.57e-08
1015.0, -3.364e-08
1017.0, -3.436e-08
1019.0, -3.073e-08
1021.0, -3.153e-08
1023.0, -3.331e-08
1025.0, -3.122e-08
1027.0, -3.156e-08
1029.0, -3.493e-08
1031.0, -3.506e-08
1033.0, -3.098e-08
1035.0, -3.348e-08
1037.0, -3.586e-08
1039.0, -3.616e-08
1041.0, -3.464e-08
1043.0, -3.727e-08
1045.0, -3.78e-08
1047.0, -3.982e-08
1049.0, -3.566e-08
1051.0, -3.616e-08
1053.1, -3.63e-08
1055.1, -3.61e-08
1057.1, -3.263e-08
1059.1, -3.463e-08
1061.1, -3.117e-08
1063.1, -3.312e-08
1065.1, -3.197e-08
1067.1, -3.317e-08
1069.1, -3.383e-08
1071.1, -3.105e-08
1073.1, -3.765e-08
1075.1, -3.22e-08
1077.1, -3.31e-08
1079.1, -3.185e-08
1081.1, -3.388e-08
1083.1, -3.61e-08
1085.1, -3.051e-08
1087.1, -3.072e-08
1089.1, -3.333e-08
1091.1, -3.02e-08
1093.1, -3.648e-08
1095.1, -3.428e-08
1097.1, -3.28e-08
1099.1, -3.264e-08
1101.1, -3.516e-08
1103.1, -3.262e-08
1105.1, -2.862e-08
1107.1, -3.477e-08
1109.1, -3.749e-08
1111.1, -3.623e-08
1113.1, -3.718e-08
1115.1, -3.747e-08
1117.1, -3.479e-08
1119.1, -3.397e-08
1121.1, -3.389e-08
1123.1, -3.57e-08
1125.1, -3.414e-08
1127.1, -3.938e-08
1129.1, -3.832e-08
1131.1, -3.703e-08
1133.1, -3.86e-08
1135.1, -3.216e-08
1137.1, -3.365e-08
1139.1, -3.358e-08
1141.1, -3.494e-08
1143.1, -3.751e-08
1145.1, -3.637e-08
1147.1, -3.224e-08
1149.1, 5.0483e-06
1151.1, 4.8638e-06
1153.2, 4.9747e-06
1155.2, 4.927e-06
1157.2, 4.9251e-06
1159.2, 5.0961e-06
1161.2, 4.9484e-06
1163.2, 4.9191e-06
1165.2, 4.8227e-06
1167.2, 4.8386e-06
1169.2, 5.0434e-06
1171.2, 5.0032e-06
1173.2, 4.9062e-06
1175.2, 5.0023e-06
1177.2, 4.8181e-06
1179.2, 4.971e-06
1181.2, 4.9568e-06
1183.2, 5.0989e-06
1185.2, 4.9896e-06
1187.2, 4.9781e-06
1189.2, 4.9613e-06
1191.2, 4.957e-06
1193.2, 4.8737e-06
1195.2, 5.0423e-06
1197.2, 4.9971e-06
1199.2, 5.0652e-06
1201.2, 4.9688e-06
1203.2, 4.9062e-06
1205.2, 4.9725e-06
1207.2, 4.8867e-06
1209.2, 5.0493e-06
1211.2, 5.0148e-06
1213.2, 5.0622e-06
1215.2, 5.0164e-06
1217.2, 4.8643e-06
1219.2, 5.0508e-06
1221.2, 4.8621e-06
1223.2, 4.8302e-06
1225.2, 4.9847e-06
1227.2, 4.9424e-06
1229.2, 4.8563e-06
1231.2, 4.9832e-06
1233.2, 4.9551e-06
1235.2, 4.9846e-06
1237.2, 4.9448e-06
1239.2, 5.0827e-06
1241.2, 4.9241e-06
1243.2, 4.9688e-06
1245.2, 5.0788e-06
1247.2, 5.0075e-06
1249.2, 5.0802e-06
1251.2, 5.0277e-06
1253.3, 5.1027e-06
1255.3, 5.1288e-06
1257.3, 5.1466e-06
1259.3, 4.8903e-06
1261.3, 5.1235e-06
1263.3, 4.9371e-06
1265.3, 5.0713e-06
1267.3, 4.9467e-06
1269.3, 5.0654e-06
1271.3, 5.0029e-06
1273.3, 4.9093e-06
1275.3, 5.054e-06
1277.3, 4.979e-06
1279.3, 5.0541e-06
1281.3, 5.0573e-06
1283.3, 4.8941e-06
1285.3, 5.118e-06
1287.3, 5.088e-06
1289.3, 5.0297e-06
1291.3, 5.1055e-06
1293.3, 4.9398e-06
1295.3, 5.142e-06
1297.3, 5.032e-06
1299.3, 5.0241e-06
1301.3, 5.1154e-06
1303.3, 4.931e-06
1305.3, 5.0704e-06
1307.3, 4.9982e-06
1309.3, 4.9782e-06
1311.3, 5.0153e-06
1313.3, 5.1053e-06
1315.3, 4.9174e-06
1317.3, 5.0086e-06
1319.3, 5.0737e-06
1321.3, 5.0866e-06
1323.3, 4.8956e-06
1325.3, 4.9998e-06
1327.3, 4.9465e-06
1329.3, 5.1135e-06
1331.3, 5.0069e-06
1333.3, 5.0047e-06
1335.3, 4.9374e-06
1337.3, 5.0071e-06
1339.3, 5.2012e-06
1341.3, 4.9706e-06
1343.3, 5.027e-06
1345.3, 5.0803e-06
1347.3, 4.9627e-06
1349.3, 4.8979e-06
1351.3, 4.9447e-06
1353.4, 5.0666e-06
1355.4, 4.9799e-06
1357.4, 5.0756e-06
1359.4, 5.1952e-06
1361.4, 5.1405e-06
1363.4, 5.1665e-06
1365.4, 5.0743e-06
1367.4, 5.0856e-06
1369.4, 5.1173e-06
1371.4, 5.1362e-06
1373.4, 5.1436e-06
1375.4, 4.9901e-06
1377.4, 5.0907e-06
1379.4, 5.0354e-06
1381.4, 5.0747e-06
1383.4, 5.0988e-06
1385.4, 5.0382e-06
1387.4, 4.9183e-06
1389.4, 5.1356e-06
1391.4, 4.9046e-06
1393.4, 4.9426e-06
1395.4, 5.0677e-06
1397.4, 5.0106e-06
1399.4, 5.0349e-06
1401.4, 5.1106e-06
1403.4, 4.982e-06
1405.4, 5.1551e-06
1407.4, 5.0279e-06
1409.4, 4.9723e-06
1411.4, 5.1625e-06
1413.4, 5.1692e-06
1415.4, 5.1973e-06
1417.4, 5.0651e-06
1419.4, 5.0884e-06
1421.4, 5.0801e-06
1423.4, 5.0655e-06
1425.4, 5.0702e-06
1427.4, 5.0456e-06
1429.4, 4.9847e-06
1431.4, 5.1001e-06
1433.4, 5.1101e-06
1435.4, 5.0339e-06
1437.4, 5.0655e-06
1439.4, 5.0365e-06
1441.4, 5.0152e-06
1443.4, 5.0375e-06
1445.4, 5.0097e-06
1447.4, 5.0531e-06
1449.4, 5.0337e-06
1451.4, 5.0463e-06
1453.5, 5.0202e-06
1455.5, 5.1292e-06
1457.5, 5.2175e-06
1459.5, 5.2472e-06
1461.5, 5.0243e-06
1463.5, 5.1033e-06
1465.5, 5.1625e-06
1467.5, 4.987e-06
1469.5, 4.9923e-06
1471.5, 5.055e-06
1473.5, 5.0878e-06
1475.5, 4.9886e-06
1477.5, 5.116e-06
1479.5, 5.0293e-06
1481.5, 5.1062e-06
1483.5, 5.0547e-06
1485.5, 5.0974e-06
1487.5, 4.9939e-06
1489.5, 4.9551e-06
1491.5, 5.1407e-06
1493.5, 5.0999e-06
1495.5, 5.0987e-06
1497.5, 5.1112e-06
1499.5, 5.0286e-06
1501.5, 5.1594e-06
1503.5, 5.1463e-06
1505.5, 5.2001e-06
1507.5, 5.0513e-06
1509.5, 5.0622e-06
1511.5, 5.0893e-06
1513.5, 5.0889e-06
1515.5, 5.1064e-06
1517.5, 5.0643e-06
1519.5, 5.1178e-06
1521.5, 5.0144e-06
1523.5, 5.0169e-06
1525.5, 5.1226e-06
1527.5, 5.0156e-06
1529.5, 4.9844e-06
1531.5, 5.0435e-06
1533.5, 5.1207e-06
1535.5, 5.0311e-06
1537.5, 5.1175e-06
1539.5, 5.1148e-06
1541.5, 5.1545e-06
1543.5, 5.1559e-06
1545.5, 4.9939e-06
1547.5, 5.1523e-06
1549.5, 5.0619e-06
1551.5, 5.1727e-06
1553.6, 5.045e-06
1555.6, 4.9707e-06
1557.6, 5.1267e-06
1559.6, 5.1329e-06
1561.6, 5.2273e-06
1563.6, 5.0223e-06
1565.6, 5.0394e-06
1567.6, 5.1073e-06
1569.6, 5.1043e-06
1571.6, 5.0872e-06
1573.6, 5.0765e-06
1575.6, 4.8961e-06
1577.6, 5.1791e-06
1579.6, 5.0273e-06
1581.6, 5.0438e-06
1583.6, 5.0935e-06
1585.6, 5.0845e-06
1587.6, 5.0479e-06
1589.6, 5.0119e-06
1591.6, 5.1399e-06
1593.6, 5.162e-06
1595.6, 5.0893e-06
1597.6, 5.0195e-06
1599.6, 5.1336e-06
1601.6, 5.2564e-06
1603.6, 5.0515e-06
1605.6, 5.1441e-06
1607.6, 5.2212e-06
1609.6, 5.1425e-06
1611.6, 5.1245e-06
1613.6, 5.0623e-06
1615.6, 5.0407e-06
1617.6, 5.0957e-06
1619.6, 4.9987e-06
1621.6, 4.9982e-06
1623.6, 5.1094e-06
1625.6, 5.1565e-06
1627.6, 5.0434e-06
1629.6, 5.0722e-06
1631.6, 5.0154e-06
1633.6, 5.0858e-06
1635.6, 5.1495e-06
1637.6, 5.1763e-06
1639.6, 5.2023e-06
1641.6, 5.1244e-06
1643.6, 5.0689e-06
1645.6, 5.1495e-06
1647.6, 5.0182e-06
1649.6, 5.1351e-06
1651.6, 5.2203e-06
1653.7, 5.1051e-06
1655.7, 5.0936e-06
1657.7, 5.1029e-06
1659.7, 5.1377e-06
1661.7, 5.0543e-06
1663.7, 5.0813e-06
1665.7, 5.0728e-06
1667.7, 5.0745e-06
1669.7, 5.1098e-06
1671.7, 5.165e-06
1673.7, 5.1902e-06
1675.7, 5.1167e-06
1677.7, 5.1383e-06
1679.7, 5.0256e-06
1681.7, 5.1797e-06
1683.7, 5.2274e-06
1685.7, 5.1176e-06
1687.7, 5.091e-06
1689.7, 5.1036e-06
1691.7, 5.258e-06
1693.7, 5.1288e-06
1695.7, 5.1101e-06
1697.7, 5.176e-06
1699.7, 5.0867e-06
1701.7, 5.2425e-06
1703.7, 5.1411e-06
1705.7, 5.0578e-06
1707.7, 5.2016e-06
1709.7, 5.1071e-06
1711.7, 5.1149e-06
1713.7, 5.0412e-06
1715.7, 5.0098e-06
1717.7, 5.0261e-06
1719.7, 5.1138e-06
1721.7, 5.0101e-06
1723.7, 5.0881e-06
1725.7, 5.0915e-06
1727.7, 5.1014e-06
1729.7, 5.1817e-06
1731.7, 5.0076e-06
1733.7, 5.1054e-06
1735.7, 5.0516e-06
1737.7, 5.0411e-06
1739.7, 5.1111e-06
1741.7, 5.1263e-06
1743.7, 5.1232e-06
1745.7, 5.1365e-06
1747.7, 5.1596e-06
1749.7, 5.1378e-06
1751.7, 5.1678e-06
1753.8, 5.0192e-06
1755.8, 4.9587e-06
1757.8, 5.0909e-06
1759.8, 5.1271e-06
1761.8, 5.1144e-06
1763.8, 5.1009e-06
1765.8, 5.0554e-06
1767.8, 5.1464e-06
1769.8, 5.0907e-06
1771.8, 5.0131e-06
1773.8, 5.1292e-06
1775.8, 5.1181e-06
1777.8, 5.1559e-06
1779.8, 5.2224e-06
1781.8, 5.0594e-06
1783.8, 5.0691e-06
1785.8, 5.1719e-06
1787.8, 5.1564e-06
1789.8, 5.2175e-06
1791.8, 5.0728e-06
1793.8, 5.1753e-06
1795.8, 5.1919e-06
1797.8, 5.1546e-06
1799.8, 5.0492e-06
1801.8, 5.1728e-06
1803.8, 5.0965e-06
1805.8, 5.3098e-06
1807.8, 5.0815e-06
1809.8, 5.1785e-06
1811.8, 5.0488e-06
1813.8, 5.1294e-06
1815.8, 5.005e-06
1817.8, 5.0971e-06
1819.8, 5.0929e-06
1821.8, 5.1277e-06
1823.8, 5.0761e-06
1825.8, 5.1391e-06
1827.8, 4.9964e-06
1829.8, 5.2046e-06
1831.8, 5.2105e-06
1833.8, 5.1186e-06
1835.8, 4.9607e-06
1837.8, 5.2056e-06
1839.8, 5.0948e-06
1841.8, 5.1023e-06
1843.8, 5.0194e-06
1845.8, 5.2021e-06
1847.8, 5.0292e-06
1849.8, 5.0301e-06
1851.8, 5.1335e-06
1853.9, 5.1381e-06
1855.9, 5.1262e-06
1857.9, 5.0063e-06
1859.9, 5.1492e-06
1861.9, 5.1064e-06
1863.9, 5.0813e-06
1865.9, 4.991e-06
1867.9, 5.293e-06
1869.9, 5.1246e-06
1871.9, 5.2321e-06
1873.9, 5.111e-06
1875.9, 4.9802e-06
1877.9, 5.0497e-06
1879.9, 5.0814e-06
1881.9, 5.2698e-06
1883.9, 5.159e-06
1885.9, 5.1681e-06
1887.9, 5.0876e-06
1889.9, 5.0995e-06
1891.9, 5.1403e-06
1893.9, 5.1524e-06
1895.9, 5.1442e-06
1897.9, 5.1616e-06
1899.9, 5.1224e-06
1901.9, 5.1236e-06
1903.9, 5.1467e-06
1905.9, 4.9606e-06
1907.9, 5.0943e-06
1909.9, 5.0776e-06
1911.9, 5.0508e-06
1913.9, 5.1727e-06
1915.9, 5.1406e-06
1917.9, 5.0346e-06
1919.9, 5.0317e-06
1921.9, 4.9969e-06
1923.9, 5.3134e-06
1925.9, 5.2357e-06
1927.9, 5.091e-06
1929.9, 5.0983e-06
1931.9, 5.1335e-06
1933.9, 5.1403e-06
1935.9, 5.0577e-06
1937.9, 5.1449e-06
1939.9, 5.0798e-06
1941.9, 5.1028e-06
1943.9, 5.1526e-06
1945.9, 5.1252e-06
1947.9, 5.0565e-06
1949.9, 5.203e-06
1951.9, 5.169e-06
1954.0, 5.1193e-06
1956.0, 5.0614e-06
1958.0, 5.2194e-06
1960.0, 5.21e-06
1962.0, 5.0611e-06
1964.0, 5.0639e-06
1966.0, 5.1162e-06
1968.0, 5.0738e-06
1970.0, 5.0606e-06
1972.0, 5.1184e-06
1974.0, 5.0773e-06
1976.0, 5.0768e-06
1978.0, 5.0811e-06
1980.0, 5.1243e-06
1982.0, 4.9992e-06
1984.0, 5.1357e-06
1986.0, 5.1891e-06
1988.0, 5.1712e-06
1990.0, 5.1993e-06
1992.0, 5.2006e-06
1994.0, 5.1295e-06
1996.0, 5.0487e-06
1998.0, 4.998e-06
2000.0, 5.2158e-06
2002.0, 5.0704e-06
2004.0, 4.9709e-06
2006.0, 5.165e-06
2008.0, 5.0062e-06
2010.0, 4.9031e-06
2012.0, 5.0595e-06
2014.0, 5.1459e-06
2016.0, 5.073e-06
2018.0, 5.2067e-06
2020.0, 5.1179e-06
2022.0, 5.0492e-06
2024.0, 5.0441e-06
2026.0, 5.2024e-06
2028.0, 5.1932e-06
2030.0, 5.129e-06
2032.0, 5.1509e-06
2034.0, 5.0963e-06
2036.0, 5.1076e-06
2038.0, 5.1625e-06
2040.0, 5.1007e-06
2042.0, 4.9912e-06
2044.0, 5.1148e-06
2046.0, 5.1445e-06
2048.0, 5.1074e-06
2050.0, 5.0141e-06
2052.0, 5.045e-06
2054.1, 5.1224e-06
2056.1, 5.1381e-06
2058.1, 5.1491e-06
2060.1, 5.0369e-06
2062.1, 5.1466e-06
2064.1, 5.1243e-06
2066.1, 4.9385e-06
2068.1, 5.0954e-06
2070.1, 5.2036e-06
2072.1, 5.1286e-06
2074.1, 5.0196e-06
2076.1, 5.2785e-06
2078.1, 5.1599e-06
2080.1, 5.2038e-06
2082.1, 5.1293e-06
2084.1, 5.1104e-06
2086.1, 5.0332e-06
2088.1, 5.2127e-06
2090.1, 5.1049e-06
2092.1, 5.1059e-06
2094.1, 5.1157e-06
2096.1, 5.1801e-06
2098.1, 5.0131e-06
2100.1, 5.2153e-06
2102.1, 5.1286e-06
2104.1, 5.2531e-06
2106.1, 5.1e-06
2108.1, 5.1667e-06
2110.1, 5.0926e-06
2112.1, 5.0913e-06
2114.1, 5.0363e-06
2116.1, 4.9643e-06
2118.1, 5.1942e-06
2120.1, 5.1658e-06
2122.1, 5.1182e-06
2124.1, 5.0205e-06
2126.1, 5.1358e-06
2128.1, 5.0847e-06
2130.1, 5.0077e-06
2132.1, 5.0187e-06
2134.1, 4.9934e-06
2136.1, 5.151e-06
2138.1, 5.1422e-06
2140.1, 5.0288e-06
2142.1, 5.0573e-06
2144.1, 5.1076e-06
2146.1, 5.1032e-06
2148.1, 5.1684e-06
2150.1, -1.685e-08
2152.1, -2.496e-08
2154.2, -2.738e-08
2156.2, -2.497e-08
2158.2, -2.758e-08
2160.2, -3.126e-08
2162.2, -2.947e-08
2164.2, -2.943e-08
2166.2, -2.591e-08
2168.2, -2.698e-08
2170.2, -2.385e-08
2172.2, -2.668e-08
2174.2, -2.556e-08
2176.2, -2.344e-08
2178.2, -2.631e-08
2180.2, -2.503e-08
2182.2, -2.36e-08
2184.2, -2.261e-08
2186.2, -2.896e-08
2188.2, -2.584e-08
2190.2, -2.425e-08
2192.2, -2.376e-08
2194.2, -2.694e-08
2196.2, -2.656e-08
2198.2, -2.81e-08
2200.2, -3.093e-08
2202.2, -2.535e-08
2204.2, -2.761e-08
2206.2, -2.955e-08
2208.2, -3.025e-08
2210.2, -2.443e-08
2212.2, -2.688e-08
2214.2, -2.348e-08
2216.2, -2.537e-08
2218.2, -2.529e-08
2220.2, -2.54e-08
2222.2, -2.882e-08
2224.2, -2.959e-08
2226.2, -3.149e-08
2228.2, -3.056e-08
2230.2, -3.106e-08
2232.2, -3.045e-08
2234.2, -2.894e-08
2236.2, -2.862e-08
2238.2, -3.245e-08
2240.2, -2.907e-08
2242.2, -3.083e-08
2244.2, -2.447e-08
2246.2, -2.724e-08
2248.2, -2.863e-08
2250.2, -2.739e-08
2252.2, -2.904e-08
2254.3, -3.135e-08
2256.3, -2.914e-08
2258.3, -3.102e-08
2260.3, -2.97e-08
2262.3, -2.545e-08
2264.3, -2.995e-08
2266.3, -2.93e-08
2268.3, -2.86e-08
2270.3, -2.957e-08
2272.3, -2.817e-08
2274.3, -2.88e-08
2276.3, -2.983e-08
2278.3, -2.882e-08
2280.3, -2.645e-08
2282.3, -2.85e-08
2284.3, -2.75e-08
2286.3, -2.938e-08
2288.3, -2.744e-08
2290.3, -2.947e-08
2292.3, -2.639e-08
2294.3, -2.688e-08
2296.3, -2.765e-08
2298.3, -2.68e-08
2300.3, -2.736e-08
2302.3, -2.728e-08
2304.3, -2.859e-08
2306.3, -2.504e-08
2308.3, -2.716e-08
2310.3, -2.661e-08
2312.3, -2.564e-08
2314.3, -2.799e-08
2316.3, -2.72e-08
2318.3, -2.69e-08
2320.3, -3.005e-08
2322.3, -2.848e-08
2324.3, -2.532e-08
2326.3, -2.863e-08
2328.3, -2.61e-08
2330.3, -2.605e-08
2332.3, -3.147e-08
2334.3, -2.644e-08
2336.3, -2.667e-08
2338.3, -2.731e-08
2340.3, -3.008e-08
2342.3, -2.442e-08
2344.3, -2.891e-08
2346.3, -2.715e-08
2348.3, -2.727e-08
2350.3, -2.617e-08
2352.3, -2.485e-08
2354.4, -2.463e-08
2356.4, -2.534e-08
2358.4, -2.561e-08
2360.4, -2.459e-08
2362.4, -2.644e-08
2364.4, -3.05e-08
2366.4, -2.835e-08
2368.4, -3.145e-08
2370.4, -3.129e-08
2372.4, -2.749e-08
2374.4, -2.532e-08
2376.4, -2.477e-08
2378.4, -2.759e-08
2380.4, -2.782e-08
2382.4, -2.507e-08
2384.4, -2.602e-08
2386.4, -2.858e-08
2388.4, -2.965e-08
2390.4, -2.727e-08
2392.4, -2.603e-08
2394.4, -2.754e-08
2396.4, -2.54e-08
2398.4, -2.575e-08
2400.4, -2.591e-08
2402.4, -2.654e-08
2404.4, -2.488e-08
2406.4, -2.897e-08
2408.4, -2.775e-08
2410.4, -2.675e-08
2412.4, -2.974e-08
2414.4, -2.393e-08
2416.4, -2.59e-08
2418.4, -2.583e-08
2420.4, -2.831e-08
2422.4, -2.686e-08
2424.4, -3.182e-08
2426.4, -2.966e-08
2428.4, -2.852e-08
2430.4, -2.922e-08
2432.4, -2.952e-08
2434.4, -2.624e-08
2436.4, -2.962e-08
2438.4, -2.87e-08
2440.4, -3.051e-08
2442.4, -3.048e-08
2444.4, -2.997e-08
2446.4, -2.842e-08
2448.4, -3.156e-08
2450.4, -2.813e-08
2452.4, -3.016e-08
2454.5, -2.808e-08
2456.5, -2.932e-08
2458.5, -3.198e-08
2460.5, -3.043e-08
2462.5, -3.052e-08
2464.5, -2.943e-08
2466.5, -3.098e-08
2468.5, -2.753e-08
2470.5, -3.019e-08
2472.5, -3.01e-08
2474.5, -3.093e-08
2476.5, -2.909e-08
2478.5, -3.183e-08
2480.5, -2.974e-08
2482.5, -3.085e-08
2484.5, -2.764e-08
2486.5, -2.969e-08
2488.5, -3.065e-08
2490.5, -3.008e-08
2492.5, -2.856e-08
2494.5, -2.788e-08
2496.5, -3.085e-08
2498.5, -2.479e-08
2500.5, -2.903e-08
2502.5, -3.185e-08
2504.5, -2.909e-08
2506.5, -3.005e-08
2508.5, -2.55e-08
2510.5, -2.36e-08
2512.5, -3.094e-08
2514.5, -2.721e-08
2516.5, -2.894e-08
2518.5, -2.819e-08
2520.5, -3.006e-08
2522.5, -2.658e-08
2524.5, -3.037e-08
2526.5, -2.387e-08
2528.5, -2.784e-08
2530.5, -2.699e-08
2532.5, -2.397e-08
2534.5, -2.344e-08
2536.5, -2.734e-08
2538.5, -2.753e-08
2540.5, -2.804e-08
2542.5, -2.423e-08
2544.5, -2.465e-08
2546.5, -2.875e-08
2548.5, -2.776e-08
2550.5, -2.256e-08
2552.5, -2.758e-08
2554.6, -2.736e-08
2556.6, -2.795e-08
2558.6, -2.986e-08
2560.6, -2.69e-08
2562.6, -2.66e-08
2564.6, -2.831e-08
2566.6, -2.978e-08
2568.6, -2.957e-08
2570.6, -2.868e-08
2572.6, -2.978e-08
2574.6, -2.481e-08
2576.6, -2.631e-08
2578.6, -3.14e-08
2580.6, -2.773e-08
2582.6, -2.652e-08
2584.6, -2.77e-08
2586.6, -2.611e-08
2588.6, -2.658e-08
2590.6, -2.807e-08
2592.6, -2.819e-08
2594.6, -2.958e-08
2596.6, -3.043e-08
2598.6, -2.917e-08
2600.6, -2.775e-08
2602.6, -2.967e-08
2604.6, -3.009e-08
2606.6, -3.09e-08
2608.6, -3.153e-08
2610.6, -2.971e-08
2612.6, -2.813e-08
2614.6, -3.336e-08
2616.6, -3.324e-08
2618.6, -3.295e-08
2620.6, -3.107e-08
2622.6, -3.177e-08
2624.6, -2.926e-08
2626.6, -3.225e-08
2628.6, -3.125e-08
2630.6, -3.055e-08
2632.6, -2.792e-08
2634.6, -3.32e-08
2636.6, -2.826e-08
2638.6, -2.854e-08
2640.6, -3.121e-08
2642.6, -2.903e-08
2644.6, -2.927e-08
2646.6, -2.653e-08
2648.6, -2.768e-08
2650.6, -2.539e-08
2652.6, -2.65e-08
2654.7, -2.867e-08
2656.7, -2.986e-08
2658.7, -2.698e-08
2660.7, -2.943e-08
2662.7, -3.197e-08
2664.7, -2.777e-08
2666.7, -2.937e-08
2668.7, -3.248e-08
2670.7, -3.409e-08
2672.7, -2.882e-08
2674.7, -2.853e-08
2676.7, -2.911e-08
2678.7, -3.24e-08
2680.7, -3.187e-08
2682.7, -3.318e-08
2684.7, -3.185e-08
2686.7, -2.88e-08
2688.7, -3.134e-08
2690.7, -3.213e-08
2692.7, -3.245e-08
2694.7, -2.697e-08
2696.7, -2.992e-08
2698.7, -2.489e-08
2700.7, -2.879e-08
2702.7, -2.589e-08
2704.7, -2.91e-08
2706.7, -3.348e-08
2708.7, -3.03e-08
2710.7, -2.668e-08
2712.7, -2.99e-08
2714.7, -2.544e-08
2716.7, -2.755e-08
2718.7, -2.678e-08
2720.7, -2.472e-08
2722.7, -2.499e-08
2724.7, -2.11e-08
2726.7, -2.352e-08
2728.7, -2.591e-08
2730.7, -2.391e-08
2732.7, -2.761e-08
2734.7, -2.824e-08
2736.7, -2.626e-08
2738.7, -3.231e-08
2740.7, -3.034e-08
2742.7, -2.546e-08
2744.7, -2.728e-08
2746.7, -2.733e-08
2748.7, -3.097e-08
2750.7, -2.872e-08
2752.7, -2.762e-08
2754.8, -3.112e-08
2756.8, -3.123e-08
2758.8, -2.993e-08
2760.8, -3.045e-08
2762.8, -3.109e-08
2764.8, -2.79e-08
2766.8, -2.743e-08
2768.8, -3.105e-08
2770.8, -2.786e-08
2772.8, -2.936e-08
2774.8, -2.874e-08
2776.8, -2.874e-08
2778.8, -3.057e-08
2780.8, -3.031e-08
2782.8, -2.881e-08
2784.8, -2.731e-08
2786.8, -2.941e-08
2788.8, -2.708e-08
2790.8, -2.742e-08
2792.8, -2.856e-08
2794.8, -2.844e-08
2796.8, -2.899e-08
2798.8, -2.743e-08
2800.8, -3.561e-08
2802.8, -3.525e-08
2804.8, -3.567e-08
2806.8, -3.835e-08
2808.8, -3.441e-08
2810.8, -3.36e-08
2812.8, -3.465e-08
2814.8, -3.294e-08
2816.8, -3.377e-08
2818.8, -3.27e-08
2820.8, -3.011e-08
2822.8, -2.9e-08
2824.8, -3.143e-08
2826.8, -3.132e-08
2828.8, -3.134e-08
2830.8, -2.803e-08
2832.8, -3.116e-08
2834.8, -2.834e-08
2836.8, -2.686e-08
2838.8, -2.82e-08
2840.8, -2.611e-08
2842.8, -2.715e-08
2844.8, -2.881e-08
2846.8, -3.195e-08
2848.8, -3.238e-08
2850.8, -3.282e-08
2852.8, -3.257e-08
2854.9, -2.802e-08
2856.9, -3.019e-08
2858.9, -2.904e-08
2860.9, -2.936e-08
2862.9, -2.857e-08
2864.9, -2.826e-08
2866.9, -3.14e-08
2868.9, -2.451e-08
2870.9, -2.762e-08
2872.9, -2.674e-08
2874.9, -2.581e-08
2876.9, -2.555e-08
2878.9, -3.012e-08
2880.9, -2.919e-08
2882.9, -2.939e-08
2884.9, -2.733e-08
2886.9, -2.769e-08
2888.9, -3.077e-08
2890.9, -2.657e-08
2892.9, -2.858e-08
2894.9, -2.969e-08
2896.9, -3.206e-08
2898.9, -3.059e-08
2900.9, -2.943e-08
2902.9, -2.617e-08
2904.9, -3.162e-08
2906.9, -2.701e-08
2908.9, -3.152e-08
2910.9, -3.083e-08
2912.9, -2.713e-08
2914.9, -2.8e-08
2916.9, -2.923e-08
2918.9, -2.789e-08
2920.9, -2.875e-08
2922.9, -2.745e-08
2924.9, -2.749e-08
2926.9, -2.573e-08
2928.9, -2.579e-08
2930.9, -2.624e-08
2932.9, -2.486e-08
2934.9, -2.568e-08
2936.9, -2.672e-08
2938.9, -2.576e-08
2940.9, -2.728e-08
2942.9, -2.935e-08
2944.9, -3.053e-08
2946.9, -3.118e-08
2948.9, -3.2e-08
2950.9, -3.044e-08
2952.9, -2.914e-08
2955.0, -3.196e-08
2957.0, -3.099e-08
2959.0, -3.007e-08
2961.0, -2.942e-08
2963.0, -3.084e-08
2965.0, -2.894e-08
2967.0, -3.067e-08
2969.0, -3.256e-08
2971.0, -2.908e-08
2973.0, -2.717e-08
2975.0, -2.961e-08
2977.0, -3.089e-08
2979.0, -2.795e-08
2981.0, -2.501e-08
2983.0, -2.586e-08
2985.0, -2.692e-08
2987.0, -2.387e-08
2989.0, -2.744e-08
2991.0, -2.522e-08
2993.0, -2.547e-08
2995.0, -2.881e-08
2997.0, -2.941e-08
2999.0, -3.158e-08
3001.0, -3.038e-08
3003.0, -2.278e-08
3005.0, -2.859e-08
3007.0, -3.033e-08
3009.0, -3.114e-08
3011.0, -2.893e-08
3013.0, -3.119e-08
3015.0, -2.601e-08
3017.0, -2.634e-08
3019.0, -2.871e-08
3021.0, -2.707e-08
3023.0, -2.89e-08
3025.0, -2.837e-08
3027.0, -2.669e-08
3029.0, -3.001e-08
3031.0, -2.935e-08
3033.0, -3.137e-08
3035.0, -3.046e-08
3037.0, -3.233e-08
3039.0, -3.045e-08
3041.0, -3.005e-08
3043.0, -3.001e-08
3045.0, -2.974e-08
3047.0, -3.198e-08
3049.0, -2.934e-08
3051.0, -2.578e-08
3053.0, -2.55e-08
3055.1, -2.621e-08
3057.1, -2.465e-08
3059.1, -2.267e-08
3061.1, -2.539e-08
3063.1, -2.238e-08
3065.1, -2.721e-08
3067.1, -2.595e-08
3069.1, -2.737e-08
3071.1, -2.969e-08
3073.1, -2.573e-08
3075.1, -2.692e-08
3077.1, -2.911e-08
3079.1, -2.707e-08
3081.1, -2.568e-08
3083.1, -2.534e-08
3085.1, -2.707e-08
3087.1, -2.572e-08
3089.1, -2.769e-08
3091.1, -2.297e-08
3093.1, -2.616e-08
3095.1, -2.588e-08
3097.1, -2.805e-08
3099.1, -3.191e-08
3101.1, -3.152e-08
3103.1, -3.069e-08
3105.1, -2.843e-08
3107.1, -3.279e-08
3109.1, -2.838e-08
3111.1, -2.707e-08
3113.1, -2.996e-08
3115.1, -3.035e-08
3117.1, -3.036e-08
3119.1, -3.087e-08
3121.1, -3.262e-08
3123.1, -3.267e-08
3125.1, -3.086e-08
3127.1, -2.891e-08
3129.1, -3.196e-08
3131.1, -3.102e-08
3133.1, -2.889e-08
3135.1, -3.108e-08
3137.1, -3.269e-08
3139.1, -3.121e-08
3141.1, -2.819e-08
3143.1, -3.007e-08
3145.1, -3.176e-08
3147.1, -3.155e-08
3149.1, -3.074e-08
3151.1, -2.829e-08
3153.1, -3.231e-08
3155.2, -3.334e-08
3157.2, -2.965e-08
3159.2, -2.569e-08
3161.2, -2.938e-08
3163.2, -3.083e-08
3165.2, -2.937e-08
3167.2, -3.051e-08
3169.2, -2.835e-08
3171.2, -3.129e-08
3173.2, -2.783e-08
3175.2, -2.719e-08
3177.2, -2.963e-08
3179.2, -3.091e-08
3181.2, -2.993e-08
3183.2, -2.884e-08
3185.2, -2.864e-08
3187.2, -2.581e-08
3189.2, -3.185e-08
3191.2, -3.161e-08
3193.2, -3.035e-08
3195.2, -3.326e-08
3197.2, -2.907e-08
3199.2, -2.842e-08
3201.2, -2.918e-08
3203.2, -2.773e-08
3205.2, -2.667e-08
3207.2, -3.099e-08
3209.2, -3.083e-08
3211.2, -3.168e-08
3213.2, -3.586e-08
3215.2, -3.082e-08
3217.2, -3.009e-08
3219.2, -3.072e-08
3221.2, -3.289e-08
3223.2, -3.23e-08
3225.2, -3.604e-08
3227.2, -3.478e-08
3229.2, -3.53e-08
3231.2, -3.301e-08
3233.2, -3.295e-08
3235.2, -3.338e-08
3237.2, -3.748e-08
3239.2, -3.931e-08
3241.2, -3.796e-08
3243.2, -3.503e-08
3245.2, -3.322e-08
3247.2, -3.642e-08
3249.2, -3.766e-08
3251.2, -3.49e-08
3253.2, -3.426e-08
3255.3, -3.631e-08
3257.3, -3.636e-08
3259.3, -3.459e-08
3261.3, -3.259e-08
3263.3, -3.205e-08
3265.3, -3.41e-08
3267.3, 2.4741e-06
3269.3, 5.0103e-06
3271.3, 4.9898e-06
3273.3, 5.0336e-06
3275.3, 4.9005e-06
3277.3, 4.9818e-06
3279.3, 4.8983e-06
3281.3, 4.9161e-06
3283.3, 4.7284e-06
3285.3, 5.0179e-06
3287.3, 4.9456e-06
3289.3, 4.9703e-06
3291.3, 4.9251e-06
3293.3, 4.8693e-06
3295.3, 4.8326e-06
3297.3, 4.8158e-06
3299.3, 4.8353e-06
3301.3, 4.9199e-06
3303.3, 4.7811e-06
3305.3, 4.9853e-06
3307.3, 4.8761e-06
3309.3, 4.7627e-06
3311.3, 4.8691e-06
3313.3, 5.0444e-06
3315.3, 4.9554e-06
3317.3, 5.1037e-06
3319.3, 4.9102e-06
3321.3, 4.9989e-06
3323.3, 4.9643e-06
3325.3, 4.9526e-06
3327.3, 4.9538e-06
3329.3, 5.0181e-06
3331.3, 4.9083e-06
3333.3, 4.8659e-06
3335.3, 5.1721e-06
3337.3, 4.8079e-06
3339.3, 4.724e-06
3341.3, 4.9282e-06
3343.3, 5.1627e-06
3345.3, 4.9953e-06
3347.3, 5.0012e-06
3349.3, 4.937e-06
3351.3, 4.9907e-06
3353.3, 5.0323e-06
3355.4, 4.962e-06
3357.4, 5.0407e-06
3359.4, 5.0208e-06
3361.4, 4.9205e-06
3363.4, 4.9152e-06
3365.4, 4.9488e-06
3367.4, 4.8583e-06
3369.4, 4.8491e-06
3371.4, 4.8948e-06
3373.4, 4.9766e-06
3375.4, 4.9732e-06
3377.4, 5.0086e-06
3379.4, 5.0555e-06
3381.4, 5.0919e-06
3383.4, 5.1001e-06
3385.4, 5.015e-06
3387.4, 5.0276e-06
3389.4, 4.923e-06
3391.4, 4.9968e-06
3393.4, 5.0479e-06
3395.4, 5.0257e-06
3397.4, 5.129e-06
3399.4, 5.0455e-06
3401.4, 4.8153e-06
3403.4, 5.0695e-06
3405.4, 5.0968e-06
3407.4, 5.0098e-06
3409.4, 4.9241e-06
3411.4, 5.0826e-06
3413.4, 5.0584e-06
3415.4, 5.1037e-06
3417.4, 4.9926e-06
3419.4, 5.0302e-06
3421.4, 5.0876e-06
3423.4, 5.0348e-06
3425.4, 4.902e-06
3427.4, 4.9359e-06
3429.4, 5.0555e-06
3431.4, 4.9929e-06
3433.4, 4.9382e-06
3435.4, 5.0237e-06
3437.4, 5.0554e-06
3439.4, 5.0022e-06
3441.4, 5.0039e-06
3443.4, 5.07e-06
3445.4, 5.1491e-06
3447.4, 4.9804e-06
3449.4, 4.9182e-06
3451.4, 5.0238e-06
3453.4, 4.9792e-06
3455.5, 5.075e-06
3457.5, 5.0571e-06
3459.5, 4.9721e-06
3461.5, 5.0784e-06
3463.5, 5.0788e-06
3465.5, 5.0404e-06
3467.5, 5.0625e-06
3469.5, 5.1263e-06
3471.5, 5.0261e-06
3473.5, 5.0119e-06
3475.5, 5.0809e-06
3477.5, 4.956e-06
3479.5, 5.0648e-06
3481.5, 4.9699e-06
3483.5, 5.0438e-06
3485.5, 4.9063e-06
3487.5, 5.0505e-06
3489.5, 5.0058e-06
3491.5, 4.9344e-06
3493.5, 5.0839e-06
3495.5, 5.0811e-06
3497.5, 4.9086e-06
3499.5, 5.0531e-06
3501.5, 5.1395e-06
3503.5, 4.9971e-06
3505.5, 4.9149e-06
3507.5, 5.0288e-06
3509.5, 5.0059e-06
3511.5, 5.0856e-06
3513.5, 5.0083e-06
3515.5, 5.0991e-06
3517.5, 5.0887e-06
3519.5, 5.1107e-06
3521.5, 5.1092e-06
3523.5, 5.2461e-06
3525.5, 5.1108e-06
3527.5, 4.9965e-06
3529.5, 5.0579e-06
3531.5, 5.0279e-06
3533.5, 4.9602e-06
3535.5, 5.0005e-06
3537.5, 5.0242e-06
3539.5, 4.9844e-06
3541.5, 5.1166e-06
3543.5, 4.9485e-06
3545.5, 5.0516e-06
3547.5, 5.2149e-06
3549.5, 5.1946e-06
3551.5, 5.1437e-06
3553.5, 5.081e-06
3555.6, 4.9708e-06
3557.6, 5.1045e-06
3559.6, 5.1552e-06
3561.6, 5.0992e-06
3563.6, 5.0653e-06
3565.6, 5.0216e-06
3567.6, 5.0028e-06
3569.6, 4.9887e-06
3571.6, 5.0588e-06
3573.6, 5.1313e-06
3575.6, 4.963e-06
3577.6, 5.0838e-06
3579.6, 4.9974e-06
3581.6, 5.0076e-06
3583.6, 5.0542e-06
3585.6, 4.9666e-06
3587.6, 5.0659e-06
3589.6, 5.0553e-06
3591.6, 5.0068e-06
3593.6, 5.021e-06
3595.6, 5.0473e-06
3597.6, 5.0041e-06
3599.6, 5.0555e-06
3601.6, 5.1355e-06
3603.6, 5.0586e-06
3605.6, 4.9782e-06
3607.6, 5.0568e-06
3609.6, 5.0127e-06
3611.6, 5.0885e-06
3613.6, 5.1224e-06
3615.6, 5.0562e-06
3617.6, 4.9858e-06
3619.6, 5.1294e-06
3621.6, 5.1894e-06
3623.6, 5.0674e-06
3625.6, 5.0311e-06
3627.6, 5.1133e-06
3629.6, 5.1584e-06
3631.6, 5.1326e-06
3633.6, 5.1395e-06
3635.6, 5.1024e-06
3637.6, 5.0125e-06
3639.6, 5.0433e-06
3641.6, 5.0682e-06
3643.6, 5.0964e-06
3645.6, 5.1199e-06
3647.6, 5.1032e-06
3649.6, 5.0265e-06
3651.6, 4.9704e-06
3653.6, 4.885e-06
3655.7, 5.0205e-06
3657.7, 5.0732e-06
3659.7, 5.173e-06
3661.7, 5.0041e-06
3663.7, 5.086e-06
3665.7, 5.1427e-06
3667.7, 5.0131e-06
3669.7, 5.0707e-06
3671.7, 4.9846e-06
3673.7, 5.0717e-06
3675.7, 5.0331e-06
3677.7, 5.1537e-06
3679.7, 5.0174e-06
3681.7, 5.0061e-06
3683.7, 5.0573e-06
3685.7, 5.026e-06
3687.7, 5.1926e-06
3689.7, 5.1073e-06
3691.7, 5.1364e-06
3693.7, 5.0632e-06
3695.7, 5.0267e-06
3697.7, 5.138e-06
3699.7, 5.1606e-06
3701.7, 5.1168e-06
3703.7, 5.1062e-06
3705.7, 5.1373e-06
3707.7, 5.1448e-06
3709.7, 5.051e-06
3711.7, 5.0542e-06
3713.7, 5.0115e-06
3715.7, 5.2136e-06
3717.7, 5.1566e-06
3719.7, 5.1408e-06
3721.7, 4.9051e-06
3723.7, 5.097e-06
3725.7, 5.0811e-06
3727.7, 5.0827e-06
3729.7, 5.1082e-06
3731.7, 5.0621e-06
3733.7, 4.9601e-06
3735.7, 5.1057e-06
3737.7, 4.9842e-06
3739.7, 5.1336e-06
3741.7, 5.0468e-06
3743.7, 5.1091e-06
3745.7, 5.1031e-06
3747.7, 4.9547e-06
3749.7, 5.0595e-06
3751.7, 5.0869e-06
3753.7, 5.0779e-06
3755.8, 5.1727e-06
3757.8, 5.1449e-06
3759.8, 5.1612e-06
3761.8, 5.0666e-06
3763.8, 4.9119e-06
3765.8, 5.0039e-06
3767.8, 4.9964e-06
3769.8, 5.0756e-06
3771.8, 5.0718e-06
3773.8, 5.1388e-06
3775.8, 5.1493e-06
3777.8, 5.0373e-06
3779.8, 5.114e-06
3781.8, 5.1499e-06
3783.8, 5.0219e-06
3785.8, 5.1097e-06
3787.8, 5.1052e-06
3789.8, 5.1596e-06
3791.8, 5.0913e-06
3793.8, 4.9819e-06
3795.8, 5.1024e-06
3797.8, 5.0438e-06
3799.8, 5.0678e-06
3801.8, 5.1766e-06
3803.8, 5.0899e-06
3805.8, 5.0753e-06
3807.8, 5.0819e-06
3809.8, 5.0534e-06
3811.8, 5.1064e-06
3813.8, 5.1464e-06
3815.8, 5.0831e-06
3817.8, 5.0738e-06
3819.8, 5.0909e-06
3821.8, 5.0853e-06
3823.8, 5.0279e-06
3825.8, 5.0127e-06
3827.8, 4.9959e-06
3829.8, 5.1292e-06
3831.8, 4.9853e-06
3833.8, 5.0686e-06
3835.8, 4.9819e-06
3837.8, 4.9983e-06
3839.8, 5.0104e-06
3841.8, 5.0335e-06
3843.8, 4.9183e-06
3845.8, 4.8504e-06
3847.8, 4.9252e-06
3849.8, 4.9397e-06
3851.8, 5.0758e-06
3853.8, 5.0086e-06
3855.9, 5.1419e-06
3857.9, 4.9735e-06
3859.9, 5.1471e-06
3861.9, 4.902e-06
3863.9, 5.0336e-06
3865.9, 5.0836e-06
3867.9, 4.9927e-06
3869.9, 5.1188e-06
3871.9, 4.9869e-06
3873.9, 5.0852e-06
3875.9, 5.0388e-06
3877.9, 5.0024e-06
3879.9, 5.0317e-06
3881.9, 4.9613e-06
3883.9, 4.9448e-06
3885.9, 4.9669e-06
3887.9, 5.0626e-06
3889.9, 5.0661e-06
3891.9, 5.1068e-06
3893.9, 4.9582e-06
3895.9, 4.9386e-06
3897.9, 5.0591e-06
3899.9, 5.1532e-06
3901.9, 5.0374e-06
3903.9, 5.0868e-06
3905.9, 5.0295e-06
3907.9, 5.1477e-06
3909.9, 5.0421e-06
3911.9, 4.9638e-06
3913.9, 4.9293e-06
3915.9, 5.0516e-06
3917.9, 5.0173e-06
3919.9, 4.883e-06
3921.9, 4.9789e-06
3923.9, 4.9547e-06
3925.9, 5.0356e-06
3927.9, 5.0187e-06
3929.9, 5.0139e-06
3931.9, 5.0211e-06
3933.9, 5.0485e-06
3935.9, 4.9566e-06
3937.9, 4.9138e-06
3939.9, 5.0216e-06
3941.9, 5.0451e-06
3943.9, 5.018e-06
3945.9, 5.1142e-06
3947.9, 5.1437e-06
3949.9, 5.1139e-06
3951.9, 4.9799e-06
3953.9, 5.1523e-06
3956.0, 5.1219e-06
3958.0, 4.9921e-06
3960.0, 4.9536e-06
3962.0, 5.0651e-06
3964.0, 5.0426e-06
3966.0, 4.9325e-06
3968.0, 5.039e-06
3970.0, 5.0308e-06
3972.0, 4.9323e-06
3974.0, 5.0032e-06
3976.0, 4.9704e-06
3978.0, 5.1047e-06
3980.0, 4.9405e-06
3982.0, 5.012e-06
3984.0, 4.9958e-06
3986.0, 5.1451e-06
3988.0, 4.9968e-06
3990.0, 5.0166e-06
3992.0, 4.9961e-06
3994.0, 4.9745e-06
3996.0, 4.9849e-06
3998.0, 4.9885e-06
4000.0, 5.0324e-06
4002.0, 5.0193e-06
4004.0, 5.1401e-06
4006.0, 4.8698e-06
4008.0, 4.9696e-06
4010.0, 4.8833e-06
4012.0, 4.9663e-06
4014.0, 4.8787e-06
4016.0, 4.9797e-06
4018.0, 5.0844e-06
4020.0, 5.0465e-06
4022.0, 5.0498e-06
4024.0, 5.0731e-06
4026.0, 5.026e-06
4028.0, 4.9332e-06
4030.0, 5.1075e-06
4032.0, 4.9252e-06
4034.0, 5.12e-06
4036.0, 4.966e-06
4038.0, 4.9861e-06
4040.0, 4.9421e-06
4042.0, 4.8803e-06
4044.0, 4.8837e-06
4046.0, 5.0648e-06
4048.0, 5.0096e-06
4050.0, 5.0272e-06
4052.0, 4.9711e-06
4054.0, 4.9634e-06
4056.1, 4.9858e-06
4058.1, 5.048e-06
4060.1, 5.0287e-06
4062.1, 5.0876e-06
4064.1, 5.0483e-06
4066.1, 5.2046e-06
4068.1, 5.031e-06
4070.1, 5.0211e-06
4072.1, 5.0268e-06
4074.1, 4.9967e-06
4076.1, 5.0923e-06
4078.1, 5.0308e-06
4080.1, 5.0068e-06
4082.1, 5.0064e-06
4084.1, 5.0605e-06
4086.1, 4.9281e-06
4088.1, 5.058e-06
4090.1, 4.9608e-06
4092.1, 5.0502e-06
4094.1, 4.8624e-06
4096.1, 4.9367e-06
4098.1, 5.0135e-06
4100.1, 5.1112e-06
4102.1, 5.1011e-06
4104.1, 4.9543e-06
4106.1, 5.0564e-06
4108.1, 4.917e-06
4110.1, 4.9459e-06
4112.1, 5.0155e-06
4114.1, 4.8867e-06
4116.1, 4.9553e-06
4118.1, 4.9004e-06
4120.1, 5.0341e-06
4122.1, 5.0392e-06
4124.1, 5.0219e-06
4126.1, 5.0294e-06
4128.1, 4.833e-06
4130.1, 4.9154e-06
4132.1, 4.9519e-06
4134.1, 4.9935e-06
4136.1, 4.9919e-06
4138.1, 4.9996e-06
4140.1, 5.0225e-06
4142.1, 4.9955e-06
4144.1, 4.9976e-06
4146.1, 4.9522e-06
4148.1, 4.9125e-06
4150.1, 4.9504e-06
4152.1, 4.9529e-06
4154.1, 5.018e-06
4156.2, 5.0191e-06
4158.2, 4.9494e-06
4160.2, 4.9741e-06
4162.2, 4.944e-06
4164.2, 5.1226e-06
4166.2, 5.0435e-06
4168.2, 5.2214e-06
4170.2, 4.9633e-06
4172.2, 4.9175e-06
4174.2, 4.9566e-06
4176.2, 5.0439e-06
4178.2, 5.0433e-06
4180.2, 4.9484e-06
4182.2, 4.8973e-06
4184.2, 4.8648e-06
4186.2, 4.9987e-06
4188.2, 4.9235e-06
4190.2, 4.9497e-06
4192.2, 4.983e-06
4194.2, 5.0452e-06
4196.2, 5.0158e-06
4198.2, 5.0778e-06
4200.2, 5.0939e-06
4202.2, 4.9289e-06
4204.2, 5.091e-06
4206.2, 5.046e-06
4208.2, 4.9348e-06
4210.2, 4.9356e-06
4212.2, 5.0167e-06
4214.2, 4.8439e-06
4216.2, 5.0835e-06
4218.2, 5.0094e-06
4220.2, 4.9525e-06
4222.2, 4.9088e-06
4224.2, 5.0128e-06
4226.2, 4.9168e-06
4228.2, 4.8444e-06
4230.2, 4.8822e-06
4232.2, 4.8402e-06
4234.2, 4.9932e-06
4236.2, 4.9559e-06
4238.2, 4.9756e-06
4240.2, 5.0021e-06
4242.2, 4.9474e-06
4244.2, 5.0217e-06
4246.2, 5.074e-06
4248.2, 5.0504e-06
4250.2, 4.9786e-06
4252.2, 4.9406e-06
4254.2, 5.0347e-06
4256.3, 5.0289e-06
4258.3, 5.0225e-06
4260.3, 4.9839e-06
4262.3, 4.9713e-06
4264.3, 4.8881e-06
4266.3, 4.9703e-06
4268.3, 2.1557e-06
4270.3, -2.467e-08
4272.3, -2.697e-08
4274.3, -2.53e-08
4276.3, -2.334e-08
4278.3, -2.263e-08
4280.3, -2.946e-08
4282.3, -2.328e-08
4284.3, -2.336e-08
4286.3, -2.114e-08
4288.3, -2.633e-08
4290.3, -2.333e-08
4292.3, -2.574e-08
4294.3, -2.363e-08
4296.3, -2.746e-08
4298.3, -2.427e-08
4300.3, -2.617e-08
4302.3, -2.341e-08
4304.3, -2.856e-08
4306.3, -2.249e-08
4308.3, -2.221e-08
4310.3, -2.325e-08
4312.3, -2.838e-08
4314.3, -2.55e-08
4316.3, -2.196e-08
4318.3, -2.293e-08
4320.3, -2.478e-08
4322.3, -2.426e-08
4324.3, -2.915e-08
4326.3, -2.599e-08
4328.3, -2.685e-08
4330.3, -2.362e-08
4332.3, -3.015e-08
4334.3, -2.789e-08
4336.3, -2.908e-08
4338.3, -2.49e-08
4340.3, -2.67e-08
4342.3, -2.397e-08
4344.3, -2.52e-08
4346.3, -2.6e-08
4348.3, -2.5e-08
4350.3, -2.414e-08
4352.3, -3.018e-08
4354.3, -2.794e-08
4356.4, -2.675e-08
4358.4, -2.973e-08
4360.4, -2.719e-08
4362.4, -2.575e-08
4364.4, -2.71e-08
4366.4, -2.629e-08
4368.4, -2.666e-08
4370.4, -2.924e-08
4372.4, -2.822e-08
4374.4, -2.368e-08
4376.4, -2.663e-08
4378.4, -2.53e-08
4380.4, -2.627e-08
4382.4, -2.761e-08
4384.4, -2.504e-08
4386.4, -2.445e-08
4388.4, -2.684e-08
4390.4, -2.922e-08
4392.4, -2.555e-08
4394.4, -2.911e-08
4396.4, -2.583e-08
4398.4, -2.819e-08
4400.4, -2.914e-08
4402.4, -2.6e-08
4404.4, -2.316e-08
4406.4, -2.557e-08
4408.4, -2.88e-08
4410.4, -2.855e-08
4412.4, -2.586e-08
4414.4, -2.695e-08
4416.4, -2.446e-08
4418.4, -2.581e-08
4420.4, -2.777e-08
4422.4, -2.97e-08
4424.4, -2.696e-08
4426.4, -3.145e-08
4428.4, -3.07e-08
4430.4, -3.037e-08
4432.4, -2.666e-08
4434.4, -2.441e-08
4436.4, -2.773e-08
4438.4, -2.751e-08
4440.4, -2.894e-08
4442.4, -2.532e-08
4444.4, -2.489e-08
4446.4, -2.791e-08
4448.4, -2.579e-08
4450.4, -2.751e-08
4452.4, -2.784e-08
4454.4, -2.993e-08
4456.5, -2.753e-08
4458.5, -2.531e-08
4460.5, -3.113e-08
4462.5, -3.099e-08
4464.5, -3.13e-08
4466.5, -2.679e-08
4468.5, -2.8e-08
4470.5, -2.921e-08
4472.5, -2.8e-08
4474.5, -2.942e-08
4476.5, -2.871e-08
4478.5, -2.783e-08
4480.5, -2.749e-08
4482.5, -2.694e-08
4484.5, -3.238e-08
4486.5, -2.915e-08
4488.5, -2.614e-08
4490.5, -2.651e-08
4492.5, -2.622e-08
4494.5, -2.378e-08
4496.5, -2.213e-08
4498.5, -2.579e-08
4500.5, -2.644e-08
4502.5, -2.663e-08
4504.5, -2.569e-08
4506.5, -2.456e-08
4508.5, -2.455e-08
4510.5, -2.371e-08
4512.5, -2.499e-08
4514.5, -2.509e-08
4516.5, -2.708e-08
4518.5, -3.031e-08
4520.5, -2.697e-08
4522.5, -2.419e-08
4524.5, -2.582e-08
4526.5, -2.622e-08
4528.5, -2.154e-08
4530.5, -2.558e-08
4532.5, -2.405e-08
4534.5, -2.387e-08
4536.5, -2.421e-08
4538.5, -2.767e-08
4540.5, -2.593e-08
4542.5, -2.721e-08
4544.5, -2.731e-08
4546.5, -2.689e-08
4548.5, -2.992e-08
4550.5, -2.685e-08
4552.5, -2.72e-08
4554.5, -2.533e-08
4556.6, -2.783e-08
4558.6, -2.856e-08
4560.6, -3.037e-08
4562.6, -2.839e-08
4564.6, -2.505e-08
4566.6, -2.672e-08
4568.6, -2.325e-08
4570.6, -2.527e-08
4572.6, -2.137e-08
4574.6, -2.566e-08
4576.6, -2.3e-08
4578.6, -2.534e-08
4580.6, -2.582e-08
4582.6, -2.413e-08
4584.6, -2.545e-08
4586.6, -2.936e-08
4588.6, -2.836e-08
4590.6, -2.853e-08
4592.6, -2.82e-08
4594.6, -2.726e-08
4596.6, -3.08e-08
4598.6, -2.956e-08
4600.6, -2.907e-08
4602.6, -2.911e-08
4604.6, -2.858e-08
4606.6, -3.069e-08
4608.6, -2.675e-08
4610.6, -3.187e-08
4612.6, -3.222e-08
4614.6, -3.217e-08
4616.6, -2.991e-08
4618.6, -2.905e-08
4620.6, -2.897e-08
4622.6, -3.039e-08
4624.6, -2.96e-08
4626.6, -2.841e-08
4628.6, -3.091e-08
4630.6, -2.69e-08
4632.6, -3.06e-08
4634.6, -3.077e-08
4636.6, -2.565e-08
4638.6, -2.763e-08
4640.6, -2.909e-08
4642.6, -2.757e-08
4644.6, -2.826e-08
4646.6, -2.965e-08
4648.6, -2.973e-08
4650.6, -3.076e-08
4652.6, -2.888e-08
4654.6, -2.856e-08
4656.7, -2.829e-08
4658.7, -2.869e-08
4660.7, -2.465e-08
4662.7, -2.675e-08
4664.7, -2.61e-08
4666.7, -2.625e-08
4668.7, -2.957e-08
4670.7, -2.527e-08
4672.7, -2.566e-08
4674.7, -2.662e-08
4676.7, -2.807e-08
4678.7, -2.548e-08
4680.7, -2.914e-08
4682.7, -2.808e-08
4684.7, -2.921e-08
4686.7, -2.979e-08
4688.7, -2.734e-08
4690.7, -2.932e-08
4692.7, -2.882e-08
4694.7, -2.847e-08
4696.7, -2.909e-08
4698.7, -3.036e-08
4700.7, -2.772e-08
4702.7, -3.08e-08
4704.7, -2.948e-08
4706.7, -3.31e-08
4708.7, -2.929e-08
4710.7, -3.021e-08
4712.7, -2.924e-08
4714.7, -3.08e-08
4716.7, -2.928e-08
4718.7, -3.212e-08
4720.7, -3.512e-08
4722.7, -2.862e-08
4724.7, -2.778e-08
4726.7, -2.954e-08
4728.7, -3.242e-08
4730.7, -3.288e-08
4732.7, -2.844e-08
4734.7, -2.902e-08
4736.7, -3.071e-08
4738.7, -2.579e-08
4740.7, -2.99e-08
4742.7, -3.183e-08
4744.7, -3.062e-08
4746.7, -2.968e-08
4748.7, -2.788e-08
4750.7, -2.88e-08
4752.7, -2.784e-08
4754.7, -2.963e-08
4756.8, -3.459e-08
4758.8, -2.86e-08
4760.8, -3.139e-08
4762.8, -2.824e-08
4764.8, -3.342e-08
4766.8, -3.164e-08
4768.8, -2.96e-08
4770.8, -3.176e-08
4772.8, -3.089e-08
4774.8, -2.835e-08
4776.8, -2.842e-08
4778.8, -2.916e-08
4780.8, -3.252e-08
4782.8, -2.998e-08
4784.8, -2.943e-08
4786.8, -3.056e-08
4788.8, -3.088e-08
4790.8, -3.093e-08
4792.8, -2.704e-08
4794.8, -2.853e-08
4796.8, -3.036e-08
4798.8, -2.899e-08
4800.8, -2.705e-08
4802.8, -3.107e-08
4804.8, -2.764e-08
4806.8, -2.806e-08
4808.8, -3.087e-08
4810.8, -2.979e-08
4812.8, -2.801e-08
4814.8, -2.781e-08
4816.8, -2.697e-08
4818.8, -2.446e-08
4820.8, -2.827e-08
4822.8, -2.978e-08
4824.8, -2.326e-08
4826.8, -2.654e-08
4828.8, -2.888e-08
4830.8, -2.771e-08
4832.8, -2.77e-08
4834.8, -3.012e-08
4836.8, -2.683e-08
4838.8, -2.958e-08
4840.8, -2.987e-08
4842.8, -2.621e-08
4844.8, -2.906e-08
4846.8, -2.807e-08
4848.8, -2.931e-08
4850.8, -2.863e-08
4852.8, -2.928e-08
4854.8, -2.703e-08
4856.9, -2.336e-08
4858.9, -2.539e-08
4860.9, -2.287e-08
4862.9, -2.963e-08
4864.9, -2.56e-08
4866.9, -2.503e-08
4868.9, -2.388e-08
4870.9, -2.285e-08
4872.9, -2.761e-08
4874.9, -1.973e-08
4876.9, -2.269e-08
4878.9, -2.038e-08
4880.9, -2.57e-08
4882.9, -2.516e-08
4884.9, -2.064e-08
4886.9, -2.303e-08
4888.9, -2.202e-08
4890.9, -2.758e-08
4892.9, -2.416e-08
4894.9, -2.145e-08
4896.9, -2.455e-08
4898.9, -2.774e-08
4900.9, -2.337e-08
4902.9, -2.659e-08
4904.9, -2.498e-08
4906.9, -2.494e-08
4908.9, -2.539e-08
4910.9, -2.703e-08
4912.9, -2.951e-08
4914.9, -2.719e-08
4916.9, -2.575e-08
4918.9, -2.981e-08
4920.9, -2.999e-08
4922.9, -3.056e-08
4924.9, -2.993e-08
4926.9, -2.599e-08
4928.9, -2.854e-08
4930.9, -2.566e-08
4932.9, -2.492e-08
4934.9, -2.681e-08
4936.9, -2.835e-08
4938.9, -3.046e-08
4940.9, -3e-08
4942.9, -2.873e-08
4944.9, -2.875e-08
4946.9, -3.023e-08
4948.9, -3.176e-08
4950.9, -2.865e-08
4952.9, -3.14e-08
4954.9, -3.177e-08
4957.0, -3.12e-08
4959.0, -2.922e-08
4961.0, -2.602e-08
4963.0, -2.856e-08
4965.0, -3.093e-08
4967.0, -3.272e-08
4969.0, -2.862e-08
4971.0, -2.79e-08
4973.0, -2.797e-08
4975.0, -2.651e-08
4977.0, -3.14e-08
4979.0, -3.043e-08
4981.0, -2.864e-08
4983.0, -3.15e-08
4985.0, -3.097e-08
4987.0, -2.955e-08
4989.0, -2.654e-08
4991.0, -2.785e-08
4993.0, -2.639e-08
4995.0, -3.085e-08
4997.0, -3.089e-08
4999.0, -3.235e-08
5001.0, -2.976e-08
5003.0, -2.878e-08
5005.0, -2.96e-08
5007.0, -2.703e-08
5009.0, -3.134e-08
5011.0, -2.902e-08
5013.0, -2.87e-08
5015.0, -2.912e-08
5017.0, -2.738e-08
5019.0, -2.822e-08
5021.0, -2.777e-08
5023.0, -3.265e-08
5025.0, -2.709e-08
5027.0, -3.173e-08
5029.0, -3.136e-08
5031.0, -3.274e-08
5033.0, -3.18e-08
5035.0, -3.212e-08
5037.0, -3.353e-08
5039.0, -3.321e-08
5041.0, -3.26e-08
5043.0, -3.466e-08
5045.0, -3.211e-08
5047.0, -3.119e-08
5049.0, -3.285e-08
5051.0, -2.815e-08
5053.0, -3.178e-08
5055.0, -2.979e-08
5057.1, -2.919e-08
5059.1, -3.112e-08
5061.1, -3.215e-08
5063.1, -3.133e-08
5065.1, -2.895e-08
5067.1, -2.764e-08
5069.1, -2.87e-08
5071.1, -3.228e-08
5073.1, -3.125e-08
5075.1, -3.175e-08
5077.1, -3.212e-08
5079.1, -3.193e-08
5081.1, -3.305e-08
5083.1, -3.115e-08
5085.1, -3.332e-08
5087.1, -3.028e-08
5089.1, -3.115e-08
5091.1, -2.947e-08
5093.1, -2.944e-08
5095.1, -3.187e-08
5097.1, -3.251e-08
5099.1, -3.122e-08
5101.1, -3.142e-08
5103.1, -3.013e-08
5105.1, -2.911e-08
5107.1, -2.736e-08
5109.1, -2.851e-08
5111.1, -3.167e-08
5113.1, -3.214e-08
5115.1, -3.151e-08
5117.1, -2.957e-08
5119.1, -2.888e-08
5121.1, -2.809e-08
5123.1, -3.247e-08
5125.1, -3.316e-08
5127.1, -3.147e-08
5129.1, -3.293e-08
5131.1, -3.069e-08
5133.1, -2.589e-08
5135.1, -2.903e-08
5137.1, -2.707e-08
5139.1, -2.988e-08
5141.1, -2.639e-08
5143.1, -2.806e-08
5145.1, -2.976e-08
5147.1, -3.115e-08
5149.1, -2.807e-08
5151.1, -2.783e-08
5153.1, -2.909e-08
5155.1, -2.723e-08
5157.2, -2.457e-08
5159.2, -2.721e-08
5161.2, -2.567e-08
5163.2, -2.843e-08
5165.2, -2.951e-08
5167.2, -2.688e-08
5169.2, -2.799e-08
5171.2, -2.674e-08
5173.2, -2.663e-08
5175.2, -2.531e-08
5177.2, -2.901e-08
5179.2, -2.693e-08
5181.2, -2.707e-08
5183.2, -2.534e-08
5185.2, -2.697e-08
5187.2, -2.548e-08
5189.2, -2.991e-08
5191.2, -2.794e-08
5193.2, -2.556e-08
5195.2, -2.554e-08
5197.2, -2.762e-08
5199.2, -2.96e-08
5201.2, -3.248e-08
5203.2, -2.686e-08
5205.2, -2.578e-08
5207.2, -2.942e-08
5209.2, -3.128e-08
5211.2, -2.617e-08
5213.2, -2.683e-08
5215.2, -2.642e-08
5217.2, -2.741e-08
5219.2, -2.786e-08
5221.2, -2.666e-08
5223.2, -2.549e-08
5225.2, -3.078e-08
5227.2, -3.186e-08
5229.2, -3.015e-08
5231.2, -3.355e-08
5233.2, -2.964e-08
5235.2, -2.842e-08
5237.2, -2.988e-08
5239.2, -3.29e-08
5241.2, -2.936e-08
5243.2, -3.123e-08
5245.2, -3.16e-08
5247.2, -3.465e-08
5249.2, -3.04e-08
5251.2, -3.14e-08
5253.2, -3.166e-08
5255.2, -2.843e-08
5257.3, -3.189e-08
5259.3, -2.847e-08
5261.3, -2.809e-08
5263.3, -3.018e-08
5265.3, -2.717e-08
5267.3, -2.912e-08
5269.3, -2.825e-08
5271.3, -2.813e-08
5273.3, -3.189e-08
5275.3, -3.094e-08
5277.3, -3.118e-08
5279.3, -3.229e-08
5281.3, -3.112e-08
5283.3, -3.167e-08
5285.3, -3.551e-08
5287.3, -3.485e-08
5289.3, -3.48e-08
5291.3, -3.253e-08
5293.3, -3.16e-08
5295.3, -3.493e-08
5297.3, -3.305e-08
5299.3, -3.498e-08
5301.3, -3.177e-08
5303.3, -3.12e-08
5305.3, -3.058e-08
5307.3, -2.965e-08
5309.3, -3.071e-08
5311.3, -3.111e-08
5313.3, -3.532e-08
5315.3, -3.59e-08
5317.3, -3.151e-08
5319.3, -3.445e-08
5321.3, -3.119e-08
5323.3, -3.083e-08
5325.3, -3.131e-08
5327.3, -3.057e-08
5329.3, -3.266e-08
5331.3, -3.264e-08
5333.3, -2.975e-08
5335.3, -3.007e-08
5337.3, -3.198e-08
5339.3, -2.716e-08
5341.3, -2.494e-08
5343.3, -2.831e-08
5345.3, -3.081e-08
5347.3, -2.747e-08
5349.3, -2.853e-08
5351.3, -2.659e-08
5353.3, -2.645e-08
5355.3, -2.926e-08
5357.4, -3.375e-08
5359.4, -3.003e-08
5361.4, -3.02e-08
5363.4, -2.837e-08
5365.4, -2.664e-08
5367.4, -3.182e-08
5369.4, -3.254e-08
5371.4, -2.879e-08
5373.4, -2.85e-08
5375.4, -2.762e-08
5377.4, -3.009e-08
5379.4, -3.148e-08
5381.4, -2.857e-08
5383.4, -3.049e-08
5385.4, -3.151e-08
5387.4, -3.358e-08
5389.4, -3.229e-08
5391.4, -3.138e-08
5393.4, -3.231e-08
5395.4, -3.146e-08
5397.4, -3.211e-08
5399.4, -3.171e-08
5401.4, -2.844e-08
5403.4, -3.044e-08
5405.4, -3.222e-08
5407.4, -3.139e-08
5409.4, -2.972e-08
5411.4, -2.919e-08
5413.4, -2.859e-08
5415.4, -3.247e-08
5417.4, -3.262e-08
5419.4, -3.035e-08
5421.4, -3.165e-08
5423.4, -2.717e-08
5425.4, -2.884e-08
5427.4, -3.179e-08
5429.4, -2.944e-08
5431.4, -3.032e-08
5433.4, -3.159e-08
5435.4, -2.929e-08
5437.4, -2.846e-08
5439.4, -3.068e-08
5441.4, -3.214e-08
5443.4, -3.147e-08
5445.4, -3.084e-08
5447.4, -3.477e-08
5449.4, -2.964e-08
5451.4, -3.073e-08
5453.4, -2.708e-08
5455.4, -3.037e-08
5457.5, -2.841e-08
5459.5, -2.69e-08
5461.5, -2.965e-08
5463.5, -3.039e-08
5465.5, -2.669e-08
5467.5, -3.122e-08
5469.5, -3.048e-08
5471.5, -3.554e-08
5473.5, -3.155e-08
5475.5, -3.176e-08
5477.5, -2.866e-08
5479.5, -3.214e-08
5481.5, -2.877e-08
5483.5, -2.856e-08
5485.5, -2.874e-08
5487.5, -3.168e-08
5489.5, -2.75e-08
5491.5, -2.636e-08
5493.5, -2.882e-08
5495.5, -3.023e-08
5497.5, -3.312e-08
5499.5, -3.226e-08
5501.5, -2.992e-08
5503.5, -3.147e-08
5505.5, -2.975e-08
5507.5, -3.032e-08
5509.5, -2.982e-08
5511.5, -2.998e-08
5513.5, -2.978e-08
5515.5, -2.926e-08
5517.5, -2.961e-08
5519.5, -2.975e-08
5521.5, -3.218e-08
5523.5, -3.195e-08
5525.5, -2.892e-08
5527.5, -2.715e-08
5529.5, -2.813e-08
5531.5, -2.704e-08
5533.5, -3.004e-08
5535.5, -2.934e-08
5537.5, -2.92e-08
5539.5, -3.121e-08
5541.5, -2.844e-08
5543.5, -3.191e-08
5545.5, -2.937e-08
5547.5, -3.223e-08
5549.5, -3.398e-08
5551.5, -2.898e-08
5553.5, -3.231e-08
5555.5, -3.147e-08
5557.6, -2.832e-08
5559.6, -2.895e-08
5561.6, -3.141e-08
5563.6, -3.021e-08
5565.6, -3.2e-08
5567.6, -3.132e-08
5569.6, -2.851e-08
5571.6, -2.77e-08
5573.6, -2.868e-08
5575.6, -2.85e-08
5577.6, -2.81e-08
5579.6, -3.147e-08
5581.6, -3.018e-08
5583.6, -3.001e-08
5585.6, -2.764e-08
5587.6, -3.07e-08
5589.6, -3.481e-08
5591.6, -2.913e-08
5593.6, -2.959e-08
5595.6, -2.994e-08
5597.6, -3.237e-08
5599.6, -3.062e-08
5601.6, -3.053e-08
5603.6, -2.872e-08
5605.6, -2.561e-08
5607.6, -3.035e-08
5609.6, -3.263e-08
5611.6, -3.182e-08
5613.6, -3.384e-08
5615.6, -3.077e-08
5617.6, -2.881e-08
5619.6, -2.956e-08
5621.6, -3.416e-08
5623.6, -3.108e-08
5625.6, -2.963e-08
5627.6, -3.182e-08
5629.6, -3.456e-08
5631.6, -3.155e-08
5633.6, -2.958e-08
5635.6, -3.022e-08
5637.6, -3.02e-08
5639.6, -3.216e-08
5641.6, -3.416e-08
5643.6, -3.19e-08
5645.6, -2.9e-08
5647.6, -3.105e-08
5649.6, -2.894e-08
5651.6, -2.95e-08
5653.6, -3.027e-08
5655.6, -2.796e-08
5657.7, -2.833e-08
5659.7, -2.766e-08
5661.7, -2.924e-08
5663.7, -2.974e-08
5665.7, -3.373e-08
5667.7, -3.151e-08
5669.7, -3.342e-08
5671.7, -3.212e-08
5673.7, -3.215e-08
5675.7, -3.215e-08
5677.7, -3.096e-08
5679.7, -3.334e-08
5681.7, -3.402e-08
5683.7, -3.247e-08
5685.7, -3.295e-08
5687.7, -3.131e-08
5689.7, -3.087e-08
5691.7, -3.303e-08
5693.7, -3.446e-08
5695.7, -3.344e-08
5697.7, -3.336e-08
5699.7, -3.169e-08
5701.7, -3.124e-08
5703.7, -3.182e-08
5705.7, -3.201e-08
5707.7, -3.051e-08
5709.7, -3.184e-08
5711.7, -3.484e-08
5713.7, -2.838e-08
5715.7, -2.48e-08
5717.7, -2.61e-08
5719.7, -3.095e-08
5721.7, -3.28e-08
5723.7, -3.296e-08
5725.7, -3.34e-08
5727.7, -3.221e-08
5729.7, -2.937e-08
5731.7, -3.126e-08
5733.7, -2.593e-08
5735.7, -2.925e-08
5737.7, -2.672e-08
5739.7, -3.21e-08
5741.7, -3.009e-08
5743.7, -2.877e-08
5745.7, -3.073e-08
5747.7, -3.059e-08
5749.7, -2.87e-08
5751.7, -3.016e-08
5753.7, -2.874e-08
5755.7, -2.751e-08
5757.8, -2.532e-08
5759.8, -2.982e-08
5761.8, -3.016e-08
5763.8, -2.807e-08
5765.8, -2.75e-08
5767.8, -3.129e-08
5769.8, -3.185e-08
5771.8, -3.035e-08
5773.8, -2.917e-08
5775.8, -2.821e-08
5777.8, -2.711e-08
5779.8, -3.11e-08
5781.8, -2.535e-08
5783.8, -2.514e-08
5785.8, -2.668e-08
5787.8, -3.071e-08
5789.8, -3.012e-08
5791.8, -3.308e-08
5793.8, -3.148e-08
5795.8, -3.235e-08
5797.8, -3.562e-08
5799.8, -3.273e-08
5801.8, -3.326e-08
5803.8, -3.093e-08
5805.8, -3.037e-08
5807.8, -3.248e-08
5809.8, -3.14e-08
5811.8, -3.177e-08
5813.8, -3.041e-08
5815.8, -3.205e-08
5817.8, -2.788e-08
5819.8, -3.14e-08
5821.8, -2.916e-08
5823.8, -2.903e-08
5825.8, -3.209e-08
5827.8, -3.251e-08
5829.8, -3.261e-08
5831.8, -3.371e-08
5833.8, -3.178e-08
5835.8, -3.393e-08
5837.8, -3.343e-08
5839.8, -3.013e-08
5841.8, -3.133e-08
5843.8, -2.681e-08
5845.8, -2.894e-08
5847.8, -3.258e-08
5849.8, -2.875e-08
5851.8, -2.626e-08
5853.8, -3.097e-08
5855.8, -2.693e-08
5857.9, -2.791e-08
5859.9, -3.144e-08
5861.9, -2.977e-08
5863.9, -2.665e-08
5865.9, -3.256e-08
5867.9, -2.867e-08
5869.9, -2.959e-08
5871.9, -2.801e-08
5873.9, -2.967e-08
5875.9, -2.895e-08
5877.9, -2.851e-08
5879.9, -2.907e-08
5881.9, -2.763e-08
5883.9, -3.261e-08
5885.9, -3.04e-08
5887.9, -3.146e-08
5889.9, -3.193e-08
5891.9, -2.901e-08
5893.9, -3.046e-08
5895.9, -3.084e-08
5897.9, -3.146e-08
5899.9, -2.771e-08
5901.9, -3.193e-08
5903.9, -2.605e-08
5905.9, -3.061e-08
5907.9, -2.9e-08
5909.9, -3.205e-08
5911.9, -2.966e-08
5913.9, -2.947e-08
5915.9, -2.714e-08
5917.9, -3.069e-08
5919.9, -2.748e-08
5921.9, -2.784e-08
5923.9, -2.982e-08
5925.9, -2.813e-08
5927.9, -2.738e-08
5929.9, -2.605e-08
5931.9, -2.93e-08
5933.9, -2.89e-08
5935.9, -2.783e-08
5937.9, -2.55e-08
5939.9, -2.971e-08
5941.9, -2.592e-08
5943.9, -2.923e-08
5945.9, -2.652e-08
5947.9, -2.57e-08
5949.9, -2.735e-08
5951.9, -2.832e-08
5953.9, -2.932e-08
5955.9, -3.28e-08
5958.0, -2.927e-08
5960.0, -3.216e-08
5962.0, -2.841e-08
5964.0, -3.427e-08
5966.0, -2.939e-08
5968.0, -3.101e-08
5970.0, -3.019e-08
5972.0, -3.118e-08
5974.0, -2.84e-08
5976.0, -3.264e-08
5978.0, -3.616e-08
5980.0, -3.1e-08
5982.0, -3.227e-08
5984.0, -3.417e-08
5986.0, -3.209e-08
5988.0, -3.487e-08
5990.0, -3.426e-08
5992.0, -3.444e-08
5994.0, -3.164e-08
5996.0, -3.212e-08
5998.0, -3.19e-08
6000.0, -3.019e-08
6002.0, -3.063e-08
6004.0, -3.125e-08
6006.0, -3.535e-08
6008.0, -3.223e-08
6010.0, -3.474e-08
6012.0, -3.221e-08
6014.0, -3.254e-08
6016.0, -3.038e-08
6018.0, -3.368e-08
6020.0, -3.235e-08
6022.0, -3.113e-08
6024.0, -2.799e-08
6026.0, -3.023e-08
6028.0, -2.634e-08
6030.0, -3.032e-08
6032.0, -2.787e-08
6034.0, -3.172e-08
6036.0, -3.144e-08
6038.0, -3.402e-08
6040.0, -3.28e-08
6042.0, -3.292e-08
6044.0, -3.311e-08
6046.0, -3.157e-08
6048.0, -3.433e-08
6050.0, -3.007e-08
6052.0, -2.971e-08
6054.0, -3.309e-08
6056.0, -3.217e-08
6058.1, -3.102e-08
6060.1, -3.483e-08
6062.1, -3.235e-08
6064.1, -3.037e-08
6066.1, -2.961e-08
6068.1, -2.826e-08
6070.1, -2.908e-08
6072.1, -3.09e-08
6074.1, -3.273e-08
6076.1, -3.317e-08
6078.1, -3.853e-08
6080.1, -3.4e-08
6082.1, -2.906e-08
6084.1, -3.036e-08
6086.1, -3.28e-08
6088.1, -3.445e-08
6090.1, -3.308e-08
6092.1, -2.965e-08
6094.1, -3.183e-08
6096.1, -2.722e-08
6098.1, -3.263e-08
6100.1, -3.056e-08
6102.1, -3.069e-08
6104.1, -3.223e-08
6106.1, -2.948e-08
6108.1, -2.852e-08
6110.1, -3.158e-08
6112.1, -2.862e-08
6114.1, -2.9e-08
6116.1, -3.193e-08
6118.1, -2.906e-08
6120.1, -3.354e-08
6122.1, -3.264e-08
6124.1, -3.451e-08
6126.1, -3.183e-08
6128.1, -3.168e-08
6130.1, -2.957e-08
6132.1, -2.997e-08
6134.1, -2.987e-08
6136.1, -3.004e-08
6138.1, -2.866e-08
6140.1, -3.122e-08
6142.1, -2.822e-08
6144.1, -2.641e-08
6146.1, -2.822e-08
6148.1, -2.711e-08
6150.1, -3.127e-08
6152.1, -2.824e-08
6154.1, -2.468e-08
6156.1, -3.186e-08
6158.2, -2.77e-08
6160.2, -3.101e-08
6162.2, -2.963e-08
6164.2, -2.97e-08
6166.2, -3.175e-08
6168.2, -3.514e-08
6170.2, -3.608e-08
6172.2, -3.62e-08
6174.2, -3.423e-08
6176.2, -3.329e-08
6178.2, 4.8186e-06
6180.2, 4.765e-06
6182.2, 4.7789e-06
6184.2, 4.8283e-06
6186.2, 4.8214e-06
6188.2, 4.7453e-06
6190.2, 4.7764e-06
6192.2, 4.7364e-06
6194.2, 4.8737e-06
6196.2, 4.8566e-06
6198.2, 4.7624e-06
6200.2, 4.7932e-06
6202.2, 4.8822e-06
6204.2, 4.874e-06
6206.2, 4.889e-06
6208.2, 4.8691e-06
6210.2, 4.7507e-06
6212.2, 4.9066e-06
6214.2, 4.9155e-06
6216.2, 4.7264e-06
6218.2, 4.855e-06
6220.2, 4.8648e-06
6222.2, 4.8779e-06
6224.2, 4.8736e-06
6226.2, 4.9547e-06
6228.2, 4.8593e-06
6230.2, 4.8652e-06
6232.2, 4.9751e-06
6234.2, 4.9019e-06
6236.2, 4.7179e-06
6238.2, 4.7162e-06
6240.2, 4.9351e-06
6242.2, 4.9364e-06
6244.2, 4.8713e-06
6246.2, 4.8239e-06
6248.2, 4.8792e-06
6250.2, 4.6741e-06
6252.2, 4.8558e-06
6254.2, 4.9899e-06
6256.2, 4.8644e-06
6258.3, 4.9226e-06
6260.3, 4.8989e-06
6262.3, 4.8749e-06
6264.3, 4.8967e-06
6266.3, 4.8399e-06
6268.3, 4.956e-06
6270.3, 4.9301e-06
6272.3, 4.9009e-06
6274.3, 4.8537e-06
6276.3, 4.9128e-06
6278.3, 4.9769e-06
6280.3, 4.9081e-06
6282.3, 4.9347e-06
6284.3, 4.8412e-06
6286.3, 4.9402e-06
6288.3, 4.9503e-06
6290.3, 5.0137e-06
6292.3, 4.9112e-06
6294.3, 5.0462e-06
6296.3, 4.8533e-06
6298.3, 4.8671e-06
6300.3, 4.8572e-06
6302.3, 4.8928e-06
6304.3, 4.966e-06
6306.3, 4.8564e-06
6308.3, 4.7504e-06
6310.3, 4.8042e-06
6312.3, 4.9081e-06
6314.3, 4.8944e-06
6316.3, 5.0082e-06
6318.3, 4.9939e-06
6320.3, 4.8973e-06
6322.3, 4.9968e-06
6324.3, 4.8013e-06
6326.3, 4.9571e-06
6328.3, 4.9223e-06
6330.3, 4.9856e-06
6332.3, 4.9881e-06
6334.3, 4.93e-06
6336.3, 4.933e-06
6338.3, 4.9194e-06
6340.3, 4.8442e-06
6342.3, 5.0869e-06
6344.3, 4.9687e-06
6346.3, 5.0865e-06
6348.3, 4.849e-06
6350.3, 4.8884e-06
6352.3, 5.0249e-06
6354.3, 4.9911e-06
6356.3, 4.8657e-06
6358.4, 4.9299e-06
6360.4, 4.916e-06
6362.4, 4.9357e-06
6364.4, 4.9452e-06
6366.4, 4.9498e-06
6368.4, 4.9852e-06
6370.4, 5.0154e-06
6372.4, 4.9802e-06
6374.4, 4.9327e-06
6376.4, 4.8021e-06
6378.4, 4.9459e-06
6380.4, 4.9249e-06
6382.4, 4.8236e-06
6384.4, 4.9057e-06
6386.4, 4.9799e-06
6388.4, 4.9953e-06
6390.4, 5.021e-06
6392.4, 4.9904e-06
6394.4, 4.9384e-06
6396.4, 5.002e-06
6398.4, 5.0557e-06
6400.4, 4.969e-06
6402.4, 5.0166e-06
6404.4, 5.0108e-06
6406.4, 4.9503e-06
6408.4, 4.973e-06
6410.4, 4.9995e-06
6412.4, 4.9271e-06
6414.4, 4.9754e-06
6416.4, 5.0283e-06
6418.4, 4.9866e-06
6420.4, 5.0012e-06
6422.4, 4.8912e-06
6424.4, 4.9395e-06
6426.4, 4.9233e-06
6428.4, 4.9082e-06
6430.4, 4.9374e-06
6432.4, 5.0045e-06
6434.4, 5.0167e-06
6436.4, 4.8967e-06
6438.4, 4.9659e-06
6440.4, 4.9709e-06
6442.4, 5.0705e-06
6444.4, 5.1388e-06
6446.4, 5.0357e-06
6448.4, 4.9849e-06
6450.4, 4.9882e-06
6452.4, 4.9512e-06
6454.4, 5.037e-06
6456.4, 4.984e-06
6458.5, 5.0928e-06
6460.5, 4.9483e-06
6462.5, 5.12e-06
6464.5, 5.0062e-06
6466.5, 5.0151e-06
6468.5, 4.9622e-06
6470.5, 5.0315e-06
6472.5, 4.9882e-06
6474.5, 5.1169e-06
6476.5, 4.9848e-06
6478.5, 5.1155e-06
6480.5, 4.9805e-06
6482.5, 4.9903e-06
6484.5, 4.8496e-06
6486.5, 4.993e-06
6488.5, 4.9169e-06
6490.5, 4.9512e-06
6492.5, 4.9105e-06
6494.5, 4.914e-06
6496.5, 5.1036e-06
6498.5, 5.0154e-06
6500.5, 4.9176e-06
6502.5, 5.0889e-06
6504.5, 4.9336e-06
6506.5, 5.1059e-06
6508.5, 4.9907e-06
6510.5, 4.9954e-06
6512.5, 5.0339e-06
6514.5, 4.9482e-06
6516.5, 4.9365e-06
6518.5, 5.0583e-06
6520.5, 5.1004e-06
6522.5, 5.0103e-06
6524.5, 4.9643e-06
6526.5, 4.9992e-06
6528.5, 4.9463e-06
6530.5, 5.0603e-06
6532.5, 5.0496e-06
6534.5, 5.0661e-06
6536.5, 4.9855e-06
6538.5, 4.9536e-06
6540.5, 4.9048e-06
6542.5, 5.0525e-06
6544.5, 4.9209e-06
6546.5, 5.0895e-06
6548.5, 4.9878e-06
6550.5, 4.959e-06
6552.5, 4.8583e-06
6554.5, 4.8964e-06
6556.5, 5.0833e-06
6558.6, 4.9363e-06
6560.6, 5.1975e-06
6562.6, 4.9477e-06
6564.6, 5.1098e-06
6566.6, 5.0396e-06
6568.6, 5.096e-06
6570.6, 5.0825e-06
6572.6, 5.1606e-06
6574.6, 4.9429e-06
6576.6, 4.9559e-06
6578.6, 5.017e-06
6580.6, 5.0604e-06
6582.6, 5.1372e-06
6584.6, 5.0143e-06
6586.6, 5.0509e-06
6588.6, 5.0298e-06
6590.6, 5.0024e-06
6592.6, 5.0691e-06
6594.6, 4.9062e-06
6596.6, 5.1017e-06
6598.6, 4.972e-06
6600.6, 5.0333e-06
6602.6, 4.9834e-06
6604.6, 5.0373e-06
6606.6, 5.0208e-06
6608.6, 4.9327e-06
6610.6, 5.2082e-06
6612.6, 4.9474e-06
6614.6, 5.0145e-06
6616.6, 5.0051e-06
6618.6, 5.0003e-06
6620.6, 4.991e-06
6622.6, 5.0389e-06
6624.6, 5.0318e-06
6626.6, 5.2114e-06
6628.6, 5.1137e-06
6630.6, 5.0815e-06
6632.6, 4.9103e-06
6634.6, 5.0753e-06
6636.6, 5.0994e-06
6638.6, 4.9812e-06
6640.6, 5.0797e-06
6642.6, 5.0243e-06
6644.6, 5.0201e-06
6646.6, 5.1604e-06
6648.6, 5.0862e-06
6650.6, 4.8758e-06
6652.6, 5.0719e-06
6654.6, 5.0331e-06
6656.6, 4.9389e-06
6658.7, 4.8853e-06
6660.7, 5.0142e-06
6662.7, 4.8718e-06
6664.7, 5.0416e-06
6666.7, 4.9444e-06
6668.7, 5.1392e-06
6670.7, 5.111e-06
6672.7, 5.0005e-06
6674.7, 5.104e-06
6676.7, 4.9808e-06
6678.7, 5.044e-06
6680.7, 5.1392e-06
6682.7, 5.1993e-06
6684.7, 4.9268e-06
6686.7, 5.0445e-06
6688.7, 4.9621e-06
6690.7, 5.0373e-06
6692.7, 4.909e-06
6694.7, 5.0618e-06
6696.7, 5.0588e-06
6698.7, 5.0135e-06
6700.7, 4.9939e-06
6702.7, 5.0688e-06
6704.7, 5.0495e-06
6706.7, 5.0539e-06
6708.7, 5.0303e-06
6710.7, 5.1027e-06
6712.7, 5.062e-06
6714.7, 5.0457e-06
6716.7, 4.9624e-06
6718.7, 5.0029e-06
6720.7, 5.0526e-06
6722.7, 4.9393e-06
6724.7, 4.9977e-06
6726.7, 5.1682e-06
6728.7, 4.9001e-06
6730.7, 5.163e-06
6732.7, 5.0111e-06
6734.7, 5.1739e-06
6736.7, 4.8189e-06
6738.7, 5.0978e-06
6740.7, 5.1757e-06
6742.7, 5.0505e-06
6744.7, 4.9409e-06
6746.7, 5.1286e-06
6748.7, 5.0995e-06
6750.7, 5.0923e-06
6752.7, 5.0656e-06
6754.7, 5.0452e-06
6756.7, 5.0423e-06
6758.8, 4.9767e-06
6760.8, 5.0053e-06
6762.8, 5.0743e-06
6764.8, 5.0723e-06
6766.8, 5.1968e-06
6768.8, 5.1497e-06
6770.8, 4.993e-06
6772.8, 5.157e-06
6774.8, 5.0306e-06
6776.8, 5.072e-06
6778.8, 4.8869e-06
6780.8, 5.1253e-06
6782.8, 5.1062e-06
6784.8, 5.1646e-06
6786.8, 5.0396e-06
6788.8, 4.977e-06
6790.8, 5.123e-06
6792.8, 5.0341e-06
6794.8, 5.1136e-06
6796.8, 4.8472e-06
6798.8, 5.0994e-06
6800.8, 5.0693e-06
6802.8, 5.0439e-06
6804.8, 5.0387e-06
6806.8, 5.0624e-06
6808.8, 5.0939e-06
6810.8, 5.1346e-06
6812.8, 5.1096e-06
6814.8, 5.0874e-06
6816.8, 4.9464e-06
6818.8, 5.0618e-06
6820.8, 4.9818e-06
6822.8, 5.0813e-06
6824.8, 5.0847e-06
6826.8, 5.104e-06
6828.8, 5.1144e-06
6830.8, 5.0368e-06
6832.8, 5.0099e-06
6834.8, 5.086e-06
6836.8, 5.0647e-06
6838.8, 5.1247e-06
6840.8, 4.9402e-06
6842.8, 5.176e-06
6844.8, 5.0694e-06
6846.8, 5.0697e-06
6848.8, 5.0373e-06
6850.8, 5.0646e-06
6852.8, 5.0756e-06
6854.8, 5.0395e-06
6856.8, 5.0028e-06
6858.9, 5.0915e-06
6860.9, 4.9102e-06
6862.9, 5.0424e-06
6864.9, 5.1796e-06
6866.9, 5.0856e-06
6868.9, 5.0781e-06
6870.9, 4.9962e-06
6872.9, 5.006e-06
6874.9, 5.0579e-06
6876.9, 5.1569e-06
6878.9, 5.0422e-06
6880.9, 5.0213e-06
6882.9, 5.1269e-06
6884.9, 5.0641e-06
6886.9, 5.0491e-06
6888.9, 5.2291e-06
6890.9, 4.974e-06
6892.9, 4.9429e-06
6894.9, 5.1205e-06
6896.9, 5.0087e-06
6898.9, 5.076e-06
6900.9, 4.9495e-06
6902.9, 5.0641e-06
6904.9, 5.0665e-06
6906.9, 5.0074e-06
6908.9, 5.0865e-06
6910.9, 5.0721e-06
6912.9, 5.225e-06
6914.9, 5.032e-06
6916.9, 5.0659e-06
6918.9, 5.1379e-06
6920.9, 5.0518e-06
6922.9, 5.0339e-06
6924.9, 4.9725e-06
6926.9, 5.0447e-06
6928.9, 5.0007e-06
6930.9, 5.0751e-06
6932.9, 5.0604e-06
6934.9, 5.095e-06
6936.9, 4.9529e-06
6938.9, 5.1278e-06
6940.9, 4.9518e-06
6942.9, 5.0417e-06
6944.9, 5.1669e-06
6946.9, 5.1076e-06
6948.9, 5.0804e-06
6950.9, 5.1155e-06
6952.9, 4.9203e-06
6954.9, 5.0901e-06
6956.9, 5.0658e-06
6959.0, 5.0493e-06
6961.0, 5.2162e-06
6963.0, 5.0017e-06
6965.0, 5.0258e-06
6967.0, 4.9552e-06
6969.0, 5.1317e-06
6971.0, 5.033e-06
6973.0, 4.9771e-06
6975.0, 5.1263e-06
6977.0, 4.9342e-06
6979.0, 5.1281e-06
6981.0, 4.9931e-06
6983.0, 5.1574e-06
6985.0, 4.9843e-06
6987.0, 5.1715e-06
6989.0, 5.0178e-06
6991.0, 4.902e-06
6993.0, 5.1919e-06
6995.0, 5.2078e-06
6997.0, 5.1391e-06
6999.0, 5.1107e-06
7001.0, 5.1448e-06
7003.0, 4.8614e-06
7005.0, 5.1614e-06
7007.0, 5.0489e-06
7009.0, 4.9578e-06
7011.0, 5.0647e-06
7013.0, 5.1394e-06
7015.0, 4.9756e-06
7017.0, 5.0684e-06
7019.0, 5.0856e-06
7021.0, 5.0688e-06
7023.0, 5.0482e-06
7025.0, 5.0227e-06
7027.0, 5.1974e-06
7029.0, 4.9014e-06
7031.0, 5.1212e-06
7033.0, 4.954e-06
7035.0, 5.0263e-06
7037.0, 5.0647e-06
7039.0, 5.0029e-06
7041.0, 5.0039e-06
7043.0, 5.1178e-06
7045.0, 5.0059e-06
7047.0, 5.1346e-06
7049.0, 5.0216e-06
7051.0, 5.2018e-06
7053.0, 5.2182e-06
7055.0, 4.9804e-06
7057.0, 5.1737e-06
7059.1, 5.0886e-06
7061.1, 5.2242e-06
7063.1, 5.0137e-06
7065.1, 5.0033e-06
7067.1, 5.0597e-06
7069.1, 4.9546e-06
7071.1, 5.2227e-06
7073.1, 5.0491e-06
7075.1, 5.1322e-06
7077.1, 5.0456e-06
7079.1, 5.1626e-06
7081.1, 5.2758e-06
7083.1, 4.9667e-06
7085.1, 5.0321e-06
7087.1, 5.0565e-06
7089.1, 4.9839e-06
7091.1, 5.0975e-06
7093.1, 5.1741e-06
7095.1, 5.0066e-06
7097.1, 5.0868e-06
7099.1, 4.9991e-06
7101.1, 4.9749e-06
7103.1, 4.9299e-06
7105.1, 5.0105e-06
7107.1, 5.0583e-06
7109.1, 4.9491e-06
7111.1, 5.0574e-06
7113.1, 4.9662e-06
7115.1, 5.0613e-06
7117.1, 5.0765e-06
7119.1, 5.1458e-06
7121.1, 5.036e-06
7123.1, 5.0361e-06
7125.1, 5.0593e-06
7127.1, 5.1259e-06
7129.1, 5.0276e-06
7131.1, 5.0095e-06
7133.1, 5.1455e-06
7135.1, 5.1201e-06
7137.1, 5.0213e-06
7139.1, 5.2831e-06
7141.1, 5.0505e-06
7143.1, 5.1371e-06
7145.1, 5.0068e-06
7147.1, 5.187e-06
7149.1, 5.1272e-06
7151.1, 5.2029e-06
7153.1, 5.0734e-06
7155.1, 4.8927e-06
7157.1, 5.0185e-06
7159.2, 5.0515e-06
7161.2, 5.2034e-06
7163.2, 5.0291e-06
7165.2, 5.1321e-06
7167.2, 5.1196e-06
7169.2, 5.0323e-06
7171.2, 5.2857e-06
7173.2, 5.0563e-06
7175.2, 5.0913e-06
7177.2, 5.3082e-06
7179.2, -1.2859e-07
7181.2, -2.644e-08
7183.2, -2.994e-08
7185.2, -2.892e-08
7187.2, -2.877e-08
7189.2, -2.644e-08
7191.2, -2.634e-08
7193.2, -2.809e-08
7195.2, -2.833e-08
7197.2, -2.869e-08
7199.2, -2.752e-08
7201.2, -2.924e-08
7203.2, -3.211e-08
7205.2, -2.906e-08
7207.2, -3.001e-08
7209.2, -3.102e-08
7211.2, -2.827e-08
7213.2, -2.74e-08
7215.2, -2.668e-08
7217.2, -2.73e-08
7219.2, -2.557e-08
7221.2, -2.967e-08
7223.2, -2.984e-08
7225.2, -2.866e-08
7227.2, -2.65e-08
7229.2, -2.724e-08
7231.2, -2.681e-08
7233.2, -2.465e-08
7235.2, -2.58e-08
7237.2, -2.823e-08
7239.2, -2.82e-08
7241.2, -2.86e-08
7243.2, -3.313e-08
7245.2, -2.78e-08
7247.2, -2.883e-08
7249.2, -3.108e-08
7251.2, -3.175e-08
7253.2, -2.868e-08
7255.2, -3.195e-08
7257.2, -3.056e-08
7259.3, -3.173e-08
7261.3, -3.113e-08
7263.3, -3.066e-08
7265.3, -3.117e-08
7267.3, -2.774e-08
7269.3, -3.036e-08
7271.3, -2.973e-08
7273.3, -3.257e-08
7275.3, -2.909e-08
7277.3, -2.894e-08
7279.3, -2.98e-08
7281.3, -2.598e-08
7283.3, -2.819e-08
7285.3, -2.923e-08
7287.3, -2.818e-08
7289.3, -2.837e-08
7291.3, -3.076e-08
7293.3, -3.04e-08
7295.3, -2.968e-08
7297.3, -2.757e-08
7299.3, -2.901e-08
7301.3, -3.231e-08
7303.3, -2.579e-08
7305.3, -2.88e-08
7307.3, -2.847e-08
7309.3, -3.039e-08
7311.3, -2.95e-08
7313.3, -2.812e-08
7315.3, -2.707e-08
7317.3, -2.383e-08
7319.3, -2.329e-08
7321.3, -2.528e-08
7323.3, -2.015e-08
7325.3, -2.553e-08
7327.3, -2.612e-08
7329.3, -2.634e-08
7331.3, -2.889e-08
7333.3, -2.548e-08
7335.3, -2.251e-08
7337.3, -2.736e-08
7339.3, -2.646e-08
7341.3, -2.649e-08
7343.3, -2.651e-08
7345.3, -2.674e-08
7347.3, -2.768e-08
7349.3, -2.827e-08
7351.3, -3.003e-08
7353.3, -2.426e-08
7355.3, -2.688e-08
7357.3, -2.764e-08
7359.4, -2.618e-08
7361.4, -2.561e-08
7363.4, -2.791e-08
7365.4, -2.418e-08
7367.4, -2.679e-08
7369.4, -2.553e-08
7371.4, -2.778e-08
7373.4, -2.884e-08
7375.4, -2.616e-08
7377.4, -2.452e-08
7379.4, -2.357e-08
7381.4, -2.502e-08
7383.4, -2.258e-08
7385.4, -2.606e-08
7387.4, -2.494e-08
7389.4, -2.679e-08
7391.4, -2.617e-08
7393.4, -2.57e-08
7395.4, -2.598e-08
7397.4, -2.631e-08
7399.4, -2.77e-08
7401.4, -2.678e-08
7403.4, -2.465e-08
7405.4, -2.761e-08
7407.4, -2.473e-08
7409.4, -2.537e-08
7411.4, -2.557e-08
7413.4, -2.933e-08
7415.4, -2.637e-08
7417.4, -2.739e-08
7419.4, -3.08e-08
7421.4, -2.636e-08
7423.4, -2.647e-08
7425.4, -2.818e-08
7427.4, -3.199e-08
7429.4, -2.769e-08
7431.4, -3.075e-08
7433.4, -3.151e-08
7435.4, -2.931e-08
7437.4, -2.54e-08
7439.4, -2.79e-08
7441.4, -2.959e-08
7443.4, -2.903e-08
7445.4, -2.625e-08
7447.4, -2.87e-08
7449.4, -2.751e-08
7451.4, -2.863e-08
7453.4, -2.836e-08
7455.4, -2.666e-08
7457.4, -2.788e-08
7459.5, -2.64e-08
7461.5, -2.888e-08
7463.5, -2.469e-08
7465.5, -2.789e-08
7467.5, -2.53e-08
7469.5, -2.396e-08
7471.5, -3.036e-08
7473.5, -2.394e-08
7475.5, -2.267e-08
7477.5, -2.496e-08
7479.5, -2.393e-08
7481.5, -2.421e-08
7483.5, -2.596e-08
7485.5, -2.622e-08
7487.5, -2.789e-08
7489.5, -2.558e-08
7491.5, -2.87e-08
7493.5, -2.925e-08
7495.5, -2.715e-08
7497.5, -2.7e-08
7499.5, -2.825e-08
7501.5, -2.794e-08
7503.5, -2.899e-08
7505.5, -2.756e-08
7507.5, -2.812e-08
7509.5, -2.683e-08
7511.5, -2.774e-08
7513.5, -2.557e-08
7515.5, -3.037e-08
7517.5, -2.687e-08
7519.5, -3.055e-08
7521.5, -2.579e-08
7523.5, -2.9e-08
7525.5, -2.789e-08
7527.5, -2.985e-08
7529.5, -3.166e-08
7531.5, -2.935e-08
7533.5, -3.189e-08
7535.5, -2.694e-08
7537.5, -2.629e-08
7539.5, -2.865e-08
7541.5, -3.097e-08
7543.5, -2.866e-08
7545.5, -2.917e-08
7547.5, -3.138e-08
7549.5, -3.103e-08
7551.5, -3.128e-08
7553.5, -2.97e-08
7555.5, -3.038e-08
7557.5, -3.212e-08
7559.6, -3.339e-08
7561.6, -3.166e-08
7563.6, -3.382e-08
7565.6, -3.066e-08
7567.6, -2.718e-08
7569.6, -2.989e-08
7571.6, -3.027e-08
7573.6, -2.765e-08
7575.6, -2.782e-08
7577.6, -2.809e-08
7579.6, -2.458e-08
7581.6, -2.716e-08
7583.6, -2.61e-08
7585.6, -2.649e-08
7587.6, -2.538e-08
7589.6, -2.605e-08
7591.6, -2.664e-08
7593.6, -2.846e-08
7595.6, -2.85e-08
7597.6, -2.964e-08
7599.6, -3.011e-08
7601.6, -3.09e-08
7603.6, -3.241e-08
7605.6, -2.989e-08
7607.6, -3.032e-08
7609.6, -3.075e-08
7611.6, -2.989e-08
7613.6, -3.371e-08
7615.6, -3.073e-08
7617.6, -2.937e-08
7619.6, -2.986e-08
7621.6, -2.707e-08
7623.6, -3.325e-08
7625.6, -2.673e-08
7627.6, -3.083e-08
7629.6, -2.918e-08
7631.6, -3.114e-08
7633.6, -3.379e-08
7635.6, -3.15e-08
7637.6, -3.006e-08
7639.6, -3.301e-08
7641.6, -3.055e-08
7643.6, -3.009e-08
7645.6, -2.997e-08
7647.6, -2.741e-08
7649.6, -2.756e-08
7651.6, -3.232e-08
7653.6, -2.879e-08
7655.6, -2.862e-08
7657.6, -2.755e-08
7659.7, -2.742e-08
7661.7, -3.043e-08
7663.7, -3.169e-08
7665.7, -3.036e-08
7667.7, -2.71e-08
7669.7, -2.402e-08
7671.7, -2.674e-08
7673.7, -3.193e-08
7675.7, -2.582e-08
7677.7, -2.389e-08
7679.7, -2.718e-08
7681.7, -2.577e-08
7683.7, -2.507e-08
7685.7, -2.415e-08
7687.7, -2.478e-08
7689.7, -2.583e-08
7691.7, -2.585e-08
7693.7, -2.982e-08
7695.7, -2.538e-08
7697.7, -2.722e-08
7699.7, -2.898e-08
7701.7, -2.839e-08
7703.7, -2.814e-08
7705.7, -2.761e-08
7707.7, -2.74e-08
7709.7, -3.036e-08
7711.7, -2.43e-08
7713.7, -2.853e-08
7715.7, -2.818e-08
7717.7, -2.755e-08
7719.7, -2.663e-08
7721.7, -2.883e-08
7723.7, -3.021e-08
7725.7, -2.479e-08
7727.7, -2.711e-08
7729.7, -3.057e-08
7731.7, -3.06e-08
7733.7, -2.869e-08
7735.7, -2.911e-08
7737.7, -3.181e-08
7739.7, -2.792e-08
7741.7, -2.74e-08
7743.7, -3.024e-08
7745.7, -2.612e-08
7747.7, -2.962e-08
7749.7, -2.938e-08
7751.7, -2.806e-08
7753.7, -2.594e-08
7755.7, -2.839e-08
7757.7, -2.838e-08
7759.8, -2.926e-08
7761.8, -2.914e-08
7763.8, -3.189e-08
7765.8, -3.44e-08
7767.8, -2.932e-08
7769.8, -2.914e-08
7771.8, -2.914e-08
7773.8, -3.247e-08
7775.8, -2.905e-08
7777.8, -2.916e-08
7779.8, -3.14e-08
7781.8, -3.361e-08
7783.8, -2.979e-08
7785.8, -3.033e-08
7787.8, -2.963e-08
7789.8, -2.825e-08
7791.8, -2.834e-08
7793.8, -3.164e-08
7795.8, -2.974e-08
7797.8, -2.99e-08
7799.8, -2.72e-08
7801.8, -2.831e-08
7803.8, -2.839e-08
7805.8, -2.805e-08
7807.8, -2.834e-08
7809.8, -2.822e-08
7811.8, -2.57e-08
7813.8, -2.849e-08
7815.8, -2.997e-08
7817.8, -3.159e-08
7819.8, -2.87e-08
7821.8, -3.158e-08
7823.8, -2.889e-08
7825.8, -3.246e-08
7827.8, -3.117e-08
7829.8, -2.843e-08
7831.8, -3.191e-08
7833.8, -2.68e-08
7835.8, -2.781e-08
7837.8, -3.12e-08
7839.8, -2.848e-08
7841.8, -3.189e-08
7843.8, -2.934e-08
7845.8, -3.1e-08
7847.8, -3.201e-08
7849.8, -2.588e-08
7851.8, -2.996e-08
7853.8, -2.926e-08
7855.8, -3.45e-08
7857.8, -2.916e-08
7859.9, -2.911e-08
7861.9, -3.189e-08
7863.9, -2.862e-08
7865.9, -3.231e-08
7867.9, -3.05e-08
7869.9, -3.033e-08
7871.9, -2.929e-08
7873.9, -2.733e-08
7875.9, -3.213e-08
7877.9, -2.95e-08
7879.9, -3.116e-08
7881.9, -2.943e-08
7883.9, -3.145e-08
7885.9, -3.003e-08
7887.9, -2.836e-08
7889.9, -3.081e-08
7891.9, -3.026e-08
7893.9, -3.138e-08
7895.9, -3.191e-08
7897.9, -3.152e-08
7899.9, -3.261e-08
7901.9, -3.491e-08
7903.9, -3.156e-08
7905.9, -3.054e-08
7907.9, -2.835e-08
7909.9, -2.845e-08
7911.9, -2.591e-08
7913.9, -2.872e-08
7915.9, -3.139e-08
7917.9, -3.235e-08
7919.9, -3.186e-08
7921.9, -3.063e-08
7923.9, -3.014e-08
7925.9, -2.921e-08
7927.9, -3.05e-08
7929.9, -3.174e-08
7931.9, -3.427e-08
7933.9, -3.559e-08
7935.9, -3.184e-08
7937.9, -3.1e-08
7939.9, -3.064e-08
7941.9, -3.063e-08
7943.9, -2.975e-08
7945.9, -3.291e-08
7947.9, -2.847e-08
7949.9, -3.199e-08
7951.9, -3.268e-08
7953.9, -3.163e-08
7955.9, -2.956e-08
7957.9, -2.754e-08
7960.0, -3.142e-08
7962.0, -3.025e-08
7964.0, -3.164e-08
7966.0, -2.911e-08
7968.0, -3.007e-08
7970.0, -3.333e-08
7972.0, -2.993e-08
7974.0, -2.976e-08
7976.0, -2.957e-08
7978.0, -2.713e-08
7980.0, -3.026e-08
7982.0, -3.089e-08
7984.0, -3.083e-08
7986.0, -3.091e-08
7988.0, -2.727e-08
7990.0, -3.075e-08
7992.0, -3.118e-08
7994.0, -3.184e-08
7996.0, -2.512e-08
7998.0, -2.86e-08
8000.0, -2.92e-08
8002.0, -3.15e-08
8004.0, -2.779e-08
8006.0, -2.738e-08
8008.0, -2.733e-08
8010.0, -2.945e-08
8012.0, -2.865e-08
8014.0, -2.843e-08
8016.0, -2.824e-08
8018.0, -2.974e-08
8020.0, -3.205e-08
8022.0, -2.955e-08
8024.0, -3.172e-08
8026.0, -3.32e-08
8028.0, -3.07e-08
8030.0, -2.964e-08
8032.0, -3.006e-08
8034.0, -3.094e-08
8036.0, -2.893e-08
8038.0, -3.338e-08
8040.0, -3.201e-08
8042.0, -3.534e-08
8044.0, -3.709e-08
8046.0, -3.169e-08
8048.0, -3.277e-08
8050.0, -3.314e-08
8052.0, -3.148e-08
8054.0, -3.369e-08
8056.0, -3.167e-08
8058.0, -3.364e-08
8060.1, -3.409e-08
8062.1, -3.454e-08
8064.1, -3.165e-08
8066.1, -3.227e-08
8068.1, -3.593e-08
8070.1, -3.207e-08
8072.1, -3.55e-08
8074.1, -3.408e-08
8076.1, -3.511e-08
8078.1, -2.959e-08
8080.1, -3.54e-08
8082.1, -3.336e-08
8084.1, -3.419e-08
8086.1, -3.137e-08
8088.1, -3.469e-08
8090.1, -3.43e-08
8092.1, -3.484e-08
8094.1, -3.71e-08
8096.1, -3.884e-08
8098.1, -3.779e-08
8100.1, -3.98e-08
8102.1, -3.872e-08
8104.1, -3.623e-08
8106.1, -3.158e-08
8108.1, -3.354e-08
8110.1, -3.367e-08
8112.1, -3.262e-08
8114.1, -3.64e-08
8116.1, -3.633e-08
8118.1, -3.688e-08
8120.1, -3.567e-08
8122.1, -3.628e-08
8124.1, -3.544e-08
8126.1, -3.604e-08
8128.1, -3.655e-08
8130.1, -3.513e-08
8132.1, -3.071e-08
8134.1, -3.773e-08
8136.1, -3.764e-08
8138.1, -3.079e-08
8140.1, -3.446e-08
8142.1, -3.179e-08
8144.1, -2.943e-08
8146.1, -3.4e-08
8148.1, -3.251e-08
8150.1, -3.26e-08
8152.1, -3.224e-08
8154.1, -3.448e-08
8156.1, -3.212e-08
8158.1, -3.177e-08
8160.2, -3.546e-08
8162.2, -3.436e-08
8164.2, -3.567e-08
8166.2, -3.445e-08
8168.2, -3.06e-08
8170.2, -3.447e-08
8172.2, -3.27e-08
8174.2, -2.866e-08
8176.2, -3.175e-08
8178.2, -3.313e-08
8180.2, -2.89e-08
8182.2, -3.357e-08
8184.2, -3.312e-08
8186.2, -3.286e-08
8188.2, -3.292e-08
8190.2, -3.043e-08
8192.2, -3.169e-08
8194.2, -3.272e-08
8196.2, -3.281e-08
8198.2, -3.151e-08
8200.2, -3.19e-08
8202.2, -2.869e-08
8204.2, -2.694e-08
8206.2, -2.859e-08
8208.2, -2.76e-08
8210.2, -2.58e-08
8212.2, -3.081e-08
8214.2, -2.845e-08
8216.2, -3.141e-08
8218.2, -3.263e-08
8220.2, -2.905e-08
8222.2, -2.676e-08
8224.2, -3.155e-08
8226.2, -2.996e-08
8228.2, -2.844e-08
8230.2, -3.234e-08
8232.2, -3.332e-08
8234.2, -3.226e-08
8236.2, -2.804e-08
8238.2, -3.126e-08
8240.2, -3.431e-08
8242.2, 2.4531e-06
8244.2, 4.7232e-06
8246.2, 4.7367e-06
8248.2, 4.8471e-06
8250.2, 4.8838e-06
8252.2, 4.9622e-06
8254.2, 4.8742e-06
8256.2, 4.8534e-06
8258.2, 5.0385e-06
8260.3, 4.9179e-06
8262.3, 4.9805e-06
8264.3, 4.9667e-06
8266.3, 4.8075e-06
8268.3, 4.8322e-06
8270.3, 5.0638e-06
8272.3, 5.0365e-06
8274.3, 4.8312e-06
8276.3, 5.0529e-06
8278.3, 4.7108e-06
8280.3, 4.9325e-06
8282.3, 5.0151e-06
8284.3, 4.7494e-06
8286.3, 5.0665e-06
8288.3, 4.7863e-06
8290.3, 4.7103e-06
8292.3, 4.9886e-06
8294.3, 5.0821e-06
8296.3, 4.8936e-06
8298.3, 4.9163e-06
8300.3, 4.9671e-06
8302.3, 4.9604e-06
8304.3, 4.968e-06
8306.3, 5.149e-06
8308.3, 4.9348e-06
8310.3, 4.9643e-06
8312.3, 4.9628e-06
8314.3, 4.9161e-06
8316.3, 4.9859e-06
8318.3, 5.1168e-06
8320.3, 4.9191e-06
8322.3, 4.9981e-06
8324.3, 5.0591e-06
8326.3, 5.0951e-06
8328.3, 4.9311e-06
8330.3, 4.8652e-06
8332.3, 5.056e-06
8334.3, 4.9392e-06
8336.3, 4.9619e-06
8338.3, 5.0889e-06
8340.3, 4.9486e-06
8342.3, 5.0192e-06
8344.3, 4.9587e-06
8346.3, 5.0711e-06
8348.3, 4.9497e-06
8350.3, 5.0199e-06
8352.3, 4.8854e-06
8354.3, 5.0721e-06
8356.3, 4.9708e-06
8358.3, 4.8569e-06
8360.4, 4.9417e-06
8362.4, 5.0465e-06
8364.4, 5.0298e-06
8366.4, 4.9904e-06
8368.4, 5.0508e-06
8370.4, 4.9554e-06
8372.4, 4.9458e-06
8374.4, 4.9862e-06
8376.4, 5.0548e-06
8378.4, 5.0976e-06
8380.4, 4.8332e-06
8382.4, 4.9694e-06
8384.4, 4.9667e-06
8386.4, 4.9444e-06
8388.4, 5.042e-06
8390.4, 4.9569e-06
8392.4, 5.0681e-06
8394.4, 5.0598e-06
8396.4, 5.0695e-06
8398.4, 4.8958e-06
8400.4, 5.1202e-06
8402.4, 5.0748e-06
8404.4, 5.0435e-06
8406.4, 5.0417e-06
8408.4, 5.0601e-06
8410.4, 5.0159e-06
8412.4, 5.0294e-06
8414.4, 5.0009e-06
8416.4, 5.077e-06
8418.4, 5.068e-06
8420.4, 5.029e-06
8422.4, 4.9619e-06
8424.4, 5.0397e-06
8426.4, 4.8559e-06
8428.4, 5.0591e-06
8430.4, 5.0213e-06
8432.4, 4.7611e-06
8434.4, 4.9356e-06
8436.4, 5.0061e-06
8438.4, 5.0279e-06
8440.4, 4.9181e-06
8442.4, 5.0206e-06
8444.4, 5.1366e-06
8446.4, 5.0012e-06
8448.4, 5.1368e-06
8450.4, 4.9194e-06
8452.4, 4.9571e-06
8454.4, 5.0293e-06
8456.4, 5.1009e-06
8458.4, 5.1577e-06
8460.5, 5.0716e-06
8462.5, 5.0256e-06
8464.5, 5.0076e-06
8466.5, 4.9671e-06
8468.5, 4.9454e-06
8470.5, 4.9937e-06
8472.5, 5.0369e-06
8474.5, 5.0058e-06
8476.5, 4.953e-06
8478.5, 4.9537e-06
8480.5, 4.9798e-06
8482.5, 4.895e-06
8484.5, 5.0473e-06
8486.5, 5.012e-06
8488.5, 5.0343e-06
8490.5, 5.0682e-06
8492.5, 4.9922e-06
8494.5, 5.1181e-06
8496.5, 5.1498e-06
8498.5, 5.0821e-06
8500.5, 5.0762e-06
8502.5, 4.9621e-06
8504.5, 5.0931e-06
8506.5, 5.1006e-06
8508.5, 4.9745e-06
8510.5, 5.0646e-06
8512.5, 4.8946e-06
8514.5, 5.0908e-06
8516.5, 5.1274e-06
8518.5, 4.9985e-06
8520.5, 4.9766e-06
8522.5, 5.0664e-06
8524.5, 5.131e-06
8526.5, 5.0363e-06
8528.5, 5.0338e-06
8530.5, 5.1371e-06
8532.5, 4.9618e-06
8534.5, 5.1021e-06
8536.5, 5.0643e-06
8538.5, 4.9437e-06
8540.5, 5.0771e-06
8542.5, 5.0784e-06
8544.5, 5.0855e-06
8546.5, 5.0059e-06
8548.5, 5.0594e-06
8550.5, 5.0723e-06
8552.5, 5.0103e-06
8554.5, 5.0688e-06
8556.5, 5.1037e-06
8558.5, 5.222e-06
8560.6, 5.1225e-06
8562.6, 4.9612e-06
8564.6, 5.1132e-06
8566.6, 5.0115e-06
8568.6, 5.0471e-06
8570.6, 5.0012e-06
8572.6, 5.022e-06
8574.6, 4.9552e-06
8576.6, 5.0374e-06
8578.6, 5.0505e-06
8580.6, 5.08e-06
8582.6, 5.1739e-06
8584.6, 5.0138e-06
8586.6, 5.1572e-06
8588.6, 5.2583e-06
8590.6, 5.1657e-06
8592.6, 4.9351e-06
8594.6, 5.064e-06
8596.6, 5.1047e-06
8598.6, 5.1165e-06
8600.6, 5.1397e-06
8602.6, 4.9822e-06
8604.6, 5.2416e-06
8606.6, 5.1375e-06
8608.6, 5.0215e-06
8610.6, 5.1477e-06
8612.6, 5.0399e-06
8614.6, 5.0735e-06
8616.6, 5.0382e-06
8618.6, 5.1338e-06
8620.6, 5.0365e-06
8622.6, 5.0764e-06
8624.6, 5.1764e-06
8626.6, 5.0186e-06
8628.6, 5.0201e-06
8630.6, 5.0121e-06
8632.6, 5.1241e-06
8634.6, 5.1014e-06
8636.6, 5.096e-06
8638.6, 5.1264e-06
8640.6, 5.0711e-06
8642.6, 5.0534e-06
8644.6, 5.0588e-06
8646.6, 5.0275e-06
8648.6, 5.1388e-06
8650.6, 5.0143e-06
8652.6, 4.9806e-06
8654.6, 5.2242e-06
8656.6, 5.1895e-06
8658.6, 5.0062e-06
8660.7, 5.0475e-06
8662.7, 5.1747e-06
8664.7, 5.0206e-06
8666.7, 5.0214e-06
8668.7, 5.1314e-06
8670.7, 5.1291e-06
8672.7, 5.04e-06
8674.7, 4.9372e-06
8676.7, 5.1148e-06
8678.7, 5.0059e-06
8680.7, 5.0663e-06
8682.7, 4.9416e-06
8684.7, 5.0252e-06
8686.7, 5.0646e-06
8688.7, 5.1019e-06
8690.7, 5.1329e-06
8692.7, 4.9762e-06
8694.7, 5.2482e-06
8696.7, 5.0645e-06
8698.7, 5.0418e-06
8700.7, 5.026e-06
8702.7, 5.1473e-06
8704.7, 5.1503e-06
8706.7, 5.0765e-06
8708.7, 5.0257e-06
8710.7, 5.1174e-06
8712.7, 5.044e-06
8714.7, 5.0503e-06
8716.7, 5.0358e-06
8718.7, 5.0302e-06
8720.7, 5.0922e-06
8722.7, 5.0516e-06
8724.7, 5.0567e-06
8726.7, 5.0614e-06
8728.7, 5.0531e-06
8730.7, 5.1826e-06
8732.7, 5.1004e-06
8734.7, 5.0518e-06
8736.7, 5.1573e-06
8738.7, 5.0956e-06
8740.7, 5.0489e-06
8742.7, 5.1566e-06
8744.7, 5.1956e-06
8746.7, 5.21e-06
8748.7, 5.0454e-06
8750.7, 4.9069e-06
8752.7, 5.0723e-06
8754.7, 5.1394e-06
8756.7, 5.1087e-06
8758.7, 4.974e-06
8760.8, 5.1164e-06
8762.8, 5.012e-06
8764.8, 5.0936e-06
8766.8, 5.0395e-06
8768.8, 5.025e-06
8770.8, 5.0235e-06
8772.8, 5.1277e-06
8774.8, 5.0606e-06
8776.8, 5.1909e-06
8778.8, 5.0501e-06
8780.8, 5.0136e-06
8782.8, 4.9997e-06
8784.8, 5.0315e-06
8786.8, 5.1198e-06
8788.8, 5.0292e-06
8790.8, 5.0335e-06
8792.8, 5.1344e-06
8794.8, 5.0403e-06
8796.8, 5.1527e-06
8798.8, 5.1575e-06
8800.8, 5.062e-06
8802.8, 5.2119e-06
8804.8, 5.0318e-06
8806.8, 5.0095e-06
8808.8, 5.0986e-06
8810.8, 5.1235e-06
8812.8, 5.1554e-06
8814.8, 5.0382e-06
8816.8, 5.2114e-06
8818.8, 5.0404e-06
8820.8, 5.0805e-06
8822.8, 5.0524e-06
8824.8, 5.0863e-06
8826.8, 5.0902e-06
8828.8, 5.1738e-06
8830.8, 5.1295e-06
8832.8, 5.0832e-06
8834.8, 5.1259e-06
8836.8, 5.0802e-06
8838.8, 5.209e-06
8840.8, 5.1081e-06
8842.8, 5.0932e-06
8844.8, 5.0226e-06
8846.8, 5.078e-06
8848.8, 5.0339e-06
8850.8, 5.0451e-06
8852.8, 5.1482e-06
8854.8, 5.0382e-06
8856.8, 5.1599e-06
8858.8, 5.2084e-06
8860.9, 5.028e-06
8862.9, 5.1571e-06
8864.9, 5.0221e-06
8866.9, 5.1425e-06
8868.9, 5.1144e-06
8870.9, 5.1164e-06
8872.9, 5.2029e-06
8874.9, 5.0365e-06
8876.9, 5.1807e-06
8878.9, 5.0055e-06
8880.9, 5.1525e-06
8882.9, 5.0437e-06
8884.9, 5.0674e-06
8886.9, 5.0594e-06
8888.9, 5.1563e-06
8890.9, 4.9928e-06
8892.9, 5.1062e-06
8894.9, 5.076e-06
8896.9, 5.1369e-06
8898.9, 5.0696e-06
8900.9, 5.131e-06
8902.9, 5.0593e-06
8904.9, 5.1246e-06
8906.9, 5.1169e-06
8908.9, 5.0926e-06
8910.9, 5.1075e-06
8912.9, 5.2084e-06
8914.9, 5.0573e-06
8916.9, 5.0301e-06
8918.9, 5.0769e-06
8920.9, 5.0578e-06
8922.9, 5.1648e-06
8924.9, 5.0212e-06
8926.9, 5.0131e-06
8928.9, 5.1152e-06
8930.9, 5.1231e-06
8932.9, 5.0834e-06
8934.9, 5.1041e-06
8936.9, 5.1621e-06
8938.9, 5.0949e-06
8940.9, 5.072e-06
8942.9, 5.0617e-06
8944.9, 5.0934e-06
8946.9, 5.1711e-06
8948.9, 5.1249e-06
8950.9, 5.2606e-06
8952.9, 5.0762e-06
8954.9, 5.0773e-06
8956.9, 5.1736e-06
8958.9, 5.1687e-06
8961.0, 4.9977e-06
8963.0, 5.1332e-06
8965.0, 5.1508e-06
8967.0, 5.0488e-06
8969.0, 5.0753e-06
8971.0, 5.0471e-06
8973.0, 5.199e-06
8975.0, 5.0317e-06
8977.0, 5.1673e-06
8979.0, 5.1436e-06
8981.0, 5.0757e-06
8983.0, 5.0433e-06
8985.0, 5.0805e-06
8987.0, 5.1572e-06
8989.0, 5.0467e-06
8991.0, 5.0111e-06
8993.0, 5.2078e-06
8995.0, 5.0186e-06
8997.0, 5.0003e-06
8999.0, 5.1514e-06
9001.0, 5.0588e-06
9003.0, 5.2506e-06
9005.0, 4.9253e-06
9007.0, 5.0414e-06
9009.0, 5.0668e-06
9011.0, 4.9826e-06
9013.0, 5.1294e-06
9015.0, 4.9847e-06
9017.0, 5.1718e-06
9019.0, 5.0773e-06
9021.0, 5.0693e-06
9023.0, 5.2498e-06
9025.0, 5.066e-06
9027.0, 5.137e-06
9029.0, 5.1718e-06
9031.0, 5.0638e-06
9033.0, 4.9213e-06
9035.0, 5.1703e-06
9037.0, 5.1229e-06
9039.0, 5.0601e-06
9041.0, 5.146e-06
9043.0, 5.0192e-06
9045.0, 5.0757e-06
9047.0, 5.1285e-06
9049.0, 5.0161e-06
9051.0, 5.1678e-06
9053.0, 5.0248e-06
9055.0, 5.0899e-06
9057.0, 5.0748e-06
9059.0, 5.0526e-06
9061.1, 5.049e-06
9063.1, 5.0891e-06
9065.1, 5.1497e-06
9067.1, 5.1065e-06
9069.1, 5.1111e-06
9071.1, 5.1116e-06
9073.1, 5.1456e-06
9075.1, 5.1229e-06
9077.1, 4.9911e-06
9079.1, 5.0336e-06
9081.1, 5.072e-06
9083.1, 5.0573e-06
9085.1, 5.1072e-06
9087.1, 4.9633e-06
9089.1, 5.0539e-06
9091.1, 5.0151e-06
9093.1, 5.1684e-06
9095.1, 5.046e-06
9097.1, 5.2238e-06
9099.1, 5.0275e-06
9101.1, 5.0748e-06
9103.1, 5.1094e-06
9105.1, 5.0866e-06
9107.1, 5.0526e-06
9109.1, 5.0033e-06
9111.1, 5.111e-06
9113.1, 4.968e-06
9115.1, 5.1404e-06
9117.1, 5.1537e-06
9119.1, 5.1115e-06
9121.1, 5.0709e-06
9123.1, 5.0973e-06
9125.1, 5.1703e-06
9127.1, 5.1481e-06
9129.1, 5.1417e-06
9131.1, 5.1757e-06
9133.1, 5.213e-06
9135.1, 5.124e-06
9137.1, 5.1648e-06
9139.1, 5.2148e-06
9141.1, 5.1951e-06
9143.1, 5.1769e-06
9145.1, 5.0713e-06
9147.1, 5.0375e-06
9149.1, 5.0275e-06
9151.1, 5.2672e-06
9153.1, 5.1392e-06
9155.1, 5.1652e-06
9157.1, 5.0832e-06
9159.1, 5.0715e-06
9161.2, 5.1878e-06
9163.2, 5.0386e-06
9165.2, 5.0992e-06
9167.2, 5.1766e-06
9169.2, 5.2201e-06
9171.2, 5.1379e-06
9173.2, 5.1204e-06
9175.2, 5.0579e-06
9177.2, 5.0913e-06
9179.2, 5.171e-06
9181.2, 5.0762e-06
9183.2, 4.9836e-06
9185.2, 5.1427e-06
9187.2, 5.0146e-06
9189.2, 5.1485e-06
9191.2, 5.0866e-06
9193.2, 5.246e-06
9195.2, 5.218e-06
9197.2, 5.1527e-06
9199.2, 5.102e-06
9201.2, 5.076e-06
9203.2, 5.1759e-06
9205.2, 5.1659e-06
9207.2, 5.2374e-06
9209.2, 5.1711e-06
9211.2, 5.1851e-06
9213.2, 5.1633e-06
9215.2, 5.1092e-06
9217.2, 5.123e-06
9219.2, 5.1427e-06
9221.2, 5.112e-06
9223.2, 5.0703e-06
9225.2, 5.043e-06
9227.2, 5.1983e-06
9229.2, 5.0995e-06
9231.2, 5.1673e-06
9233.2, 5.2684e-06
9235.2, 5.1148e-06
9237.2, 5.0822e-06
9239.2, 5.1117e-06
9241.2, 5.1895e-06
9243.2, 2.5055e-06
9245.2, -2.688e-08
9247.2, -2.802e-08
9249.2, -2.592e-08
9251.2, -3e-08
9253.2, -2.808e-08
9255.2, -2.667e-08
9257.2, -2.662e-08
9259.2, -2.939e-08
9261.3, -3.137e-08
9263.3, -3.664e-08
9265.3, -3.166e-08
9267.3, -3.052e-08
9269.3, -3.464e-08
9271.3, -3.214e-08
9273.3, -3.374e-08
9275.3, -2.761e-08
9277.3, -2.795e-08
9279.3, -2.984e-08
9281.3, -3.348e-08
9283.3, -3.007e-08
9285.3, -3.376e-08
9287.3, -3.36e-08
9289.3, -3.658e-08
9291.3, -3.008e-08
9293.3, -3.39e-08
9295.3, -3.07e-08
9297.3, -3.216e-08
9299.3, -3.046e-08
9301.3, -3.211e-08
9303.3, -3.218e-08
9305.3, -3.476e-08
9307.3, -3.315e-08
9309.3, -3.301e-08
9311.3, -3.083e-08
9313.3, -3.027e-08
9315.3, -2.872e-08
9317.3, -3.25e-08
9319.3, -2.938e-08
9321.3, -3.109e-08
9323.3, -3.231e-08
9325.3, -3.32e-08
9327.3, -3.058e-08
9329.3, -3.11e-08
9331.3, -3.211e-08
9333.3, -3.186e-08
9335.3, -3.013e-08
9337.3, -3.349e-08
9339.3, -3.324e-08
9341.3, -3.516e-08
9343.3, -3.143e-08
9345.3, -3.426e-08
9347.3, -3.507e-08
9349.3, -3.496e-08
9351.3, -3.29e-08
9353.3, -3.319e-08
9355.3, -3.139e-08
9357.3, -3.249e-08
9359.3, -3.439e-08
9361.4, -2.93e-08
9363.4, -3.342e-08
9365.4, -3.248e-08
9367.4, -3.324e-08
9369.4, -3.261e-08
9371.4, -3.121e-08
9373.4, -3.528e-08
9375.4, -2.964e-08
9377.4, -3.617e-08
9379.4, -3.151e-08
9381.4, -3.087e-08
9383.4, -3.115e-08
9385.4, -3.472e-08
9387.4, -3.643e-08
9389.4, -3.456e-08
9391.4, -3.422e-08
9393.4, -2.928e-08
9395.4, -3.17e-08
9397.4, -3.347e-08
9399.4, -3.226e-08
9401.4, -3.284e-08
9403.4, -3.307e-08
9405.4, -3.376e-08
9407.4, -3.393e-08
9409.4, -3.223e-08
9411.4, -3.478e-08
9413.4, -3.456e-08
9415.4, -3.411e-08
9417.4, -3.491e-08
9419.4, -3.311e-08
9421.4, -3.566e-08
9423.4, -3.162e-08
9425.4, -3.557e-08
9427.4, -2.912e-08
9429.4, -3.117e-08
9431.4, -3.716e-08
9433.4, -3.707e-08
9435.4, -3.428e-08
9437.4, -3.288e-08
9439.4, -3.251e-08
9441.4, -3.612e-08
9443.4, -3.741e-08
9445.4, -3.314e-08
9447.4, -3.291e-08
9449.4, -3.475e-08
9451.4, -3.426e-08
9453.4, -3.513e-08
9455.4, -3.544e-08
9457.4, -3.447e-08
9459.4, -3.391e-08
9461.5, -3.414e-08
9463.5, -3.657e-08
9465.5, -3.49e-08
9467.5, -3.58e-08
9469.5, -3.763e-08
9471.5, -3.373e-08
9473.5, -3.408e-08
9475.5, -3.326e-08
9477.5, -3.698e-08
9479.5, -3.164e-08
9481.5, -3.59e-08
9483.5, -3.792e-08
9485.5, -3.483e-08
9487.5, -3.782e-08
9489.5, -3.703e-08
9491.5, -3.666e-08
9493.5, -3.627e-08
9495.5, -4.096e-08
9497.5, -3.807e-08
9499.5, -4.082e-08
9501.5, -3.842e-08
9503.5, -3.753e-08
9505.5, -3.79e-08
9507.5, -3.339e-08
9509.5, -3.522e-08
9511.5, -3.606e-08
9513.5, -3.49e-08
9515.5, -3.742e-08
9517.5, -3.868e-08
9519.5, -3.679e-08
9521.5, -4.294e-08
9523.5, -3.893e-08
9525.5, -3.772e-08
9527.5, -3.8e-08
9529.5, -3.823e-08
9531.5, -3.595e-08
9533.5, -3.599e-08
9535.5, -3.741e-08
9537.5, -3.53e-08
9539.5, -3.828e-08
9541.5, -3.259e-08
9543.5, -3.585e-08
9545.5, -3.465e-08
9547.5, -3.59e-08
9549.5, -3.258e-08
9551.5, -3.386e-08
9553.5, -3.824e-08
9555.5, -3.462e-08
9557.5, -3.78e-08
9559.5, -3.5e-08
9561.6, -3.253e-08
9563.6, -3.795e-08
9565.6, -3.695e-08
9567.6, -3.849e-08
9569.6, -3.841e-08
9571.6, -3.638e-08
9573.6, -3.524e-08
9575.6, -3.481e-08
9577.6, -3.427e-08
9579.6, -3.281e-08
9581.6, -3.424e-08
9583.6, -3.504e-08
9585.6, -3.327e-08
9587.6, -3.223e-08
9589.6, -3.478e-08
9591.6, -3.494e-08
9593.6, -3.867e-08
9595.6, -3.158e-08
9597.6, -3.273e-08
9599.6, -3.406e-08
9601.6, -3.293e-08
9603.6, -3.088e-08
9605.6, -3.472e-08
9607.6, -3.365e-08
9609.6, -3.352e-08
9611.6, -3.608e-08
9613.6, -3.377e-08
9615.6, -3.509e-08
9617.6, -3.55e-08
9619.6, -3.429e-08
9621.6, -3.476e-08
9623.6, -3.653e-08
9625.6, -3.484e-08
9627.6, -3.34e-08
9629.6, -3.38e-08
9631.6, -3.523e-08
9633.6, -3.357e-08
9635.6, -3.62e-08
9637.6, -3.711e-08
9639.6, -3.743e-08
9641.6, -3.391e-08
9643.6, -3.489e-08
9645.6, -3.538e-08
9647.6, -3.331e-08
9649.6, -3.179e-08
9651.6, -2.994e-08
9653.6, -3.129e-08
9655.6, -3.377e-08
9657.6, -3.477e-08
9659.6, -3.491e-08
9661.7, -3.199e-08
9663.7, -3.116e-08
9665.7, -3.389e-08
9667.7, -3.631e-08
9669.7, -3.467e-08
9671.7, -3.707e-08
9673.7, -3.378e-08
9675.7, -3.207e-08
9677.7, -3.253e-08
9679.7, -3.197e-08
9681.7, -2.973e-08
9683.7, -3.466e-08
9685.7, -3.654e-08
9687.7, -3.415e-08
9689.7, -3.443e-08
9691.7, -3.586e-08
9693.7, -3.03e-08
9695.7, -3.593e-08
9697.7, -3.257e-08
9699.7, -3.626e-08
9701.7, -3.53e-08
9703.7, -3.676e-08
9705.7, -3.574e-08
9707.7, -3.658e-08
9709.7, -3.722e-08
9711.7, -3.79e-08
9713.7, -3.72e-08
9715.7, -3.504e-08
9717.7, -3.541e-08
9719.7, -3.441e-08
9721.7, -3.479e-08
9723.7, -4.096e-08
9725.7, -3.551e-08
9727.7, -3.708e-08
9729.7, -3.339e-08
9731.7, -3.662e-08
9733.7, -3.713e-08
9735.7, -3.612e-08
9737.7, -3.475e-08
9739.7, -3.24e-08
9741.7, -3.48e-08
9743.7, -3.646e-08
9745.7, -3.513e-08
9747.7, -3.056e-08
9749.7, -3.375e-08
9751.7, -3.49e-08
9753.7, -3.173e-08
9755.7, -3.443e-08
9757.7, -3.457e-08
9759.7, -3.077e-08
9761.8, -3.595e-08
9763.8, -3.775e-08
9765.8, -3.616e-08
9767.8, -3.487e-08
9769.8, -3.485e-08
9771.8, -3.463e-08
9773.8, -3.414e-08
9775.8, -3.612e-08
9777.8, -3.391e-08
9779.8, -3.502e-08
9781.8, -3.572e-08
9783.8, -3.797e-08
9785.8, -3.373e-08
9787.8, -3.419e-08
9789.8, -3.495e-08
9791.8, -3.602e-08
9793.8, -3.633e-08
9795.8, -3.543e-08
9797.8, -3.45e-08
9799.8, -3.394e-08
9801.8, -3.293e-08
9803.8, -3.71e-08
9805.8, -3.954e-08
9807.8, -3.65e-08
9809.8, -3.557e-08
9811.8, -3.41e-08
9813.8, -3.266e-08
9815.8, -3.58e-08
9817.8, -3.127e-08
9819.8, -3.261e-08
9821.8, -3.516e-08
9823.8, -3.229e-08
9825.8, -3.488e-08
9827.8, -3.822e-08
9829.8, -3.683e-08
9831.8, -3.718e-08
9833.8, -3.664e-08
9835.8, -3.278e-08
9837.8, -3.611e-08
9839.8, -3.563e-08
9841.8, -3.397e-08
9843.8, -3.41e-08
9845.8, -3.498e-08
9847.8, -3.483e-08
9849.8, -3.587e-08
9851.8, -3.723e-08
9853.8, -3.435e-08
9855.8, -3.453e-08
9857.8, -4.075e-08
9859.8, -3.729e-08
9861.9, -3.906e-08
9863.9, -3.305e-08
9865.9, -3.55e-08
9867.9, -3.775e-08
9869.9, -3.818e-08
9871.9, -3.812e-08
9873.9, -3.829e-08
9875.9, -3.933e-08
9877.9, -3.49e-08
9879.9, -3.435e-08
9881.9, -3.597e-08
9883.9, -3.522e-08
9885.9, -3.472e-08
9887.9, -3.609e-08
9889.9, -3.72e-08
9891.9, -3.757e-08
9893.9, -3.576e-08
9895.9, -4.121e-08
9897.9, -3.744e-08
9899.9, -3.702e-08
9901.9, -3.675e-08
9903.9, -3.561e-08
9905.9, -3.8e-08
9907.9, -4.083e-08
9909.9, -3.857e-08
9911.9, -4.044e-08
9913.9, -3.881e-08
9915.9, -3.55e-08
9917.9, -3.531e-08
9919.9, -3.755e-08
9921.9, -3.757e-08
9923.9, -3.765e-08
9925.9, -3.661e-08
9927.9, -3.58e-08
9929.9, -3.823e-08
9931.9, -3.815e-08
9933.9, -3.806e-08
9935.9, -3.842e-08
9937.9, -3.872e-08
9939.9, -3.874e-08
9941.9, -3.512e-08
9943.9, -3.544e-08
9945.9, -3.551e-08
9947.9, -3.404e-08
9949.9, -3.692e-08
9951.9, -3.986e-08
9953.9, -3.914e-08
9955.9, -3.795e-08
9957.9, -3.926e-08
9959.9, -3.739e-08
9962.0, -3.529e-08
9964.0, -4.001e-08
9966.0, -3.669e-08
9968.0, -3.518e-08
9970.0, -3.971e-08
9972.0, -3.599e-08
9974.0, -3.473e-08
9976.0, -3.362e-08
9978.0, -3.584e-08
9980.0, -3.243e-08
9982.0, -3.821e-08
9984.0, -4.011e-08
9986.0, -3.706e-08
9988.0, -3.48e-08
9990.0, -3.484e-08
9992.0, -3.762e-08
9994.0, -3.984e-08
9996.0, -4.161e-08
9998.0, -3.933e-08
10000.0, -3.832e-08
10002.0, -4e-08
10004.0, -4.048e-08
10006.0, -3.405e-08
10008.0, -3.816e-08
10010.0, -3.718e-08
10012.0, -3.971e-08
10014.0, -3.798e-08
10016.0, -3.754e-08
10018.0, -3.944e-08
10020.0, -4.149e-08
10022.0, -4.24e-08
10024.0, -4.564e-08
10026.0, -4.137e-08
10028.0, -3.773e-08
10030.0, -4.268e-08
10032.0, -3.852e-08
10034.0, -4.171e-08
10036.0, -3.759e-08
10038.0, -3.681e-08
10040.0, -3.672e-08
10042.0, -3.72e-08
10044.0, -3.864e-08
10046.0, -3.974e-08
10048.0, -3.695e-08
10050.0, -3.604e-08
10052.0, -3.515e-08
10054.0, -3.545e-08
10056.0, -3.933e-08
10058.0, -3.941e-08
10060.0, -3.812e-08
10062.0, -3.654e-08
10064.0, -3.944e-08
10066.0, -3.621e-08
10068.0, -3.572e-08
10070.0, -3.495e-08
10072.0, -3.734e-08
10074.0, -3.966e-08
10076.0, -3.785e-08
10078.0, -3.688e-08
10080.0, -3.856e-08
10082.0, -3.498e-08
10084.0, -3.696e-08
10086.0, -3.906e-08
10088.0, -3.633e-08
10090.0, -3.631e-08
10092.0, -3.742e-08
10094.0, -3.882e-08
10096.0, -3.535e-08
10098.0, -3.882e-08
10100.0, -4.006e-08
10102.0, -3.923e-08
10104.0, -3.9e-08
10106.0, -3.696e-08
10108.0, -3.627e-08
10110.0, -3.676e-08
10112.0, -3.448e-08
10114.0, -3.7e-08
10116.0, -3.835e-08
10118.0, -3.796e-08
10120.0, -4.261e-08
10122.0, -4.288e-08
10124.0, -3.711e-08
10126.0, -3.843e-08
10128.0, -3.954e-08
10130.0, -4.026e-08
10132.0, -3.875e-08
10134.0, -4.256e-08
10136.0, -3.95e-08
10138.0, -3.834e-08
10140.0, -3.612e-08
10142.0, -3.987e-08
10144.0, -3.647e-08
10146.0, -3.444e-08
10148.0, -3.25e-08
10150.0, -3.583e-08
10152.0, -3.534e-08
10154.0, -3.756e-08
10156.0, -3.552e-08
10158.0, -3.439e-08
10160.0, -3.538e-08
10162.0, -3.826e-08
10164.0, -3.82e-08
10166.0, -3.657e-08
10168.0, -4.027e-08
10170.0, -3.877e-08
10172.0, -3.947e-08
10174.0, -3.783e-08
10176.0, -3.854e-08
10178.0, -3.962e-08
10180.0, -3.735e-08
10182.0, -3.714e-08
10184.0, -3.547e-08
10186.0, -3.569e-08
10188.0, -3.661e-08
10190.0, -3.557e-08
10192.0, -4.087e-08
10194.0, -3.87e-08
10196.0, -3.817e-08
10198.0, -3.671e-08
10200.0, -3.541e-08
10202.0, -3.799e-08
10204.0, -4.054e-08
10206.0, -3.877e-08
10208.0, -3.625e-08
10210.0, -3.856e-08
10212.0, -3.808e-08
10214.0, -3.938e-08
10216.0, -4.09e-08
10218.0, -3.825e-08
10220.0, -3.496e-08
10222.0, -3.77e-08
10224.0, -4.099e-08
10226.0, -3.546e-08
10228.0, -3.708e-08
10230.0, -3.732e-08
10232.0, -3.908e-08
10234.0, -3.873e-08
10236.0, -4.01e-08
10238.0, -3.655e-08
10240.0, -3.736e-08
10242.0, -3.581e-08
10244.0, -3.949e-08
10246.0, -3.695e-08
10248.0, -3.651e-08
10250.0, -3.706e-08
10252.0, -3.702e-08
10254.0, -3.614e-08
10256.0, -3.694e-08
10258.0, -3.729e-08
10260.0, -3.524e-08
10262.0, -3.52e-08
10264.0, -3.506e-08
10266.0, -3.879e-08
10268.0, -3.913e-08
10270.0, -3.385e-08
10272.0, -3.428e-08
10274.0, -3.534e-08
10276.0, -3.385e-08
10278.0, -3.682e-08
10280.0, -3.551e-08
10282.0, -3.691e-08
10284.0, -3.381e-08
10286.0, -3.884e-08
10288.0, -3.752e-08
10290.0, -3.298e-08
10292.0, -3.571e-08
10294.0, -3.487e-08
10296.0, -3.66e-08
10298.0, -3.557e-08
10300.0, -3.669e-08
10302.0, -3.298e-08
10304.0, -3.204e-08
10306.0, -3.817e-08
10308.0, -3.52e-08
10310.0, -3.517e-08
10312.0, -3.862e-08
10314.0, -3.76e-08
10316.0, -3.624e-08
10318.0, -3.114e-08
10320.0, -3.268e-08
10322.0, -3.503e-08
10324.0, -3.497e-08
10326.0, -3.654e-08
10328.0, -3.832e-08
10330.0, -3.585e-08
10332.0, -3.651e-08
10334.0, -3.514e-08
10336.0, -3.584e-08
10338.0, -3.149e-08
10340.0, -3.534e-08
10342.0, -3.413e-08
10344.0, -3.412e-08
10346.0, -3.602e-08
10348.0, -3.666e-08
10350.0, -3.929e-08
10352.0, -3.833e-08
10354.0, -3.243e-08
10356.0, -3.553e-08
10358.0, -2.976e-08
10360.0, -3.468e-08
10362.0, -3.247e-08
10364.0, -3.353e-08
10366.0, -3.453e-08
10368.0, -3.299e-08
10370.0, -3.666e-08
10372.0, -3.361e-08
10374.0, -2.831e-08
10376.0, -2.954e-08
10378.0, -3.235e-08
10380.0, -2.99e-08
10382.0, -3.045e-08
10384.0, -3.179e-08
10386.0, -3.21e-08
10388.0, -3.123e-08
10390.0, -3.124e-08
10392.0, -3.179e-08
10394.0, -3.54e-08
10396.0, -3.037e-08
10398.0, -3.247e-08
10400.0, -3.26e-08
10402.0, -3.781e-08
10404.0, -3.891e-08
10406.0, -3.223e-08
10408.0, -3.252e-08
10410.0, -3.17e-08
10412.0, -3.395e-08
10414.0, -3.263e-08
10416.0, -3.538e-08
10418.0, -3.063e-08
10420.0, -3.037e-08
10422.0, -3.374e-08
10424.0, -3.036e-08
10426.0, -2.899e-08
10428.0, -3.214e-08
10430.0, -3.168e-08
10432.0, -3.109e-08
10434.0, -3.181e-08
10436.0, -3.161e-08
10438.0, -2.892e-08
10440.0, -3.289e-08
10442.0, -3.131e-08
10444.0, -3.32e-08
10446.0, -3.516e-08
10448.0, -3.246e-08
10450.0, -3.257e-08
10452.0, -3.078e-08
10454.0, -3.272e-08
10456.0, -3.365e-08
10458.0, -3.232e-08
10460.0, -3.707e-08
10462.0, -3.185e-08
10464.0, -3.117e-08
10466.0, -3.076e-08
10468.0, -3.089e-08
10470.0, -3.259e-08
10472.0, -3.329e-08
10474.0, -3.396e-08
10476.0, -3.354e-08
10478.0, -3.143e-08
10480.0, -2.873e-08
10482.0, -2.999e-08
10484.0, -3.094e-08
10486.0, -3.414e-08
10488.0, -3.012e-08
10490.0, -3.231e-08
10492.0, -3.346e-08
10494.0, -3.438e-08
10496.0, -3.085e-08
10498.0, -3.606e-08
10500.0, -2.941e-08
10502.0, -3.842e-08
10504.0, -3.295e-08
10506.0, -3.731e-08
10508.0, -3.148e-08
10510.0, -3.232e-08
10513.0, -3.216e-08
10515.0, -3.37e-08
10517.0, -3.59e-08
10519.0, -3.3e-08
10521.0, -3.259e-08
10523.0, -3.117e-08
10525.0, -3.061e-08
10527.0, -3.257e-08
10529.0, -3.392e-08
10531.0, -3.203e-08
10533.0, -3.924e-08
10535.0, -3.335e-08
10537.0, -3.134e-08
10539.0, -3.106e-08
10541.0, -2.986e-08
10543.0, -3.274e-08
10545.0, -3.453e-08
10547.0, -3.139e-08
10549.0, -3.018e-08
10551.0, -3.225e-08
10553.0, -3.564e-08
10555.0, -3.538e-08
10557.0, -3.334e-08
10559.0, -3.669e-08
10561.0, -3.292e-08
10563.0, -3.515e-08
10565.0, -3.516e-08
10567.0, -3.398e-08
10569.0, -3.318e-08
10571.0, -3.145e-08
10573.0, -3.182e-08
10575.0, -3.206e-08
10577.0, -3.153e-08
10579.0, -3.129e-08
10581.0, -3.264e-08
10583.0, -3.296e-08
10585.0, -2.899e-08
10587.0, -2.975e-08
10589.0, -3.478e-08
10591.0, -3.049e-08
10593.0, -3.105e-08
10595.0, -2.96e-08
10597.0, -2.87e-08
10599.0, -2.968e-08
10601.0, -2.73e-08
10603.0, -2.892e-08
10605.0, -2.819e-08
10607.0, -3.212e-08
10609.0, -2.826e-08
10611.0, -2.997e-08
10613.0, -2.895e-08
10615.0, -2.982e-08
10617.0, -2.814e-08
10619.0, -3.01e-08
10621.0, -3.048e-08
10623.0, -3.394e-08
10625.0, -3.077e-08
10627.0, -2.985e-08
10629.0, -2.928e-08
10631.0, -2.999e-08
10633.0, -3.039e-08
10635.0, -3.427e-08
10637.0, -3.243e-08
10639.0, -3.393e-08
10641.0, -3.027e-08
10643.0, -3.509e-08
10645.0, -3.209e-08
10647.0, -3.327e-08
10649.0, -3.536e-08
10651.0, -3.211e-08
10653.0, -3.45e-08
10655.0, -3.224e-08
10657.0, -3.202e-08
10659.0, -3.209e-08
10661.0, -3.203e-08
10663.0, -3.733e-08
10665.0, -3.462e-08
10667.0, -3.67e-08
10669.0, -3.604e-08
10671.0, -3.162e-08
10673.0, -3.546e-08
10675.0, -3.472e-08
10677.0, -3.331e-08
10679.0, -3.085e-08
10681.0, -3.245e-08
10683.0, -3.028e-08
10685.0, -3.413e-08
10687.0, -3.273e-08
10689.0, -3.482e-08
10691.0, -3.414e-08
10693.0, -3.546e-08
10695.0, -3.326e-08
10697.0, -3.344e-08
10699.0, -3.276e-08
10701.0, -3.525e-08
10703.0, -3.479e-08
10705.0, -3.262e-08
10707.0, -3.242e-08
10709.0, -3.292e-08
10711.0, -3.174e-08
10713.0, -3.391e-08
10715.0, -3.515e-08
10717.0, -3.447e-08
10719.0, -3.242e-08
10721.0, -3.398e-08
10723.0, -3.489e-08
10725.0, -3.422e-08
10727.0, -3.775e-08
10729.0, -3.381e-08
10731.0, -3.635e-08
10733.0, -3.35e-08
10735.0, -3.64e-08
10737.0, -3.129e-08
10739.0, -3.168e-08
10741.0, -3.209e-08
10743.0, -3.131e-08
10745.0, -3.463e-08
10747.0, -3.218e-08
10749.0, -3.137e-08
10751.0, -3.076e-08
10753.0, -3.342e-08
10755.0, -3.141e-08
10757.0, -3.319e-08
10759.0, -3.372e-08
10761.0, -3.479e-08
10763.0, -3.579e-08
10765.0, -3.475e-08
10767.0, -3.39e-08
10769.0, -3.488e-08
10771.0, -3.341e-08
10773.0, -3.734e-08
10775.0, -3.392e-08
10777.0, -3.537e-08
10779.0, -3.306e-08
10781.0, -3.56e-08
10783.0, -3.674e-08
10785.0, -3.498e-08
10787.0, -3.253e-08
10789.0, -3.284e-08
10791.0, -3.499e-08
10793.0, -3.269e-08
10795.0, -3.435e-08
10797.0, -3.352e-08
10799.0, -3.492e-08
10801.0, -3.409e-08
10803.0, -3.26e-08
10805.0, -3.374e-08
10807.0, -3.289e-08
10809.0, -3.187e-08
10811.0, -3.225e-08
10813.0, -3.42e-08
10815.0, -3.426e-08
10817.0, -3.033e-08
10819.0, -2.726e-08
10821.0, -2.907e-08
10823.0, -3.293e-08
10825.0, -3.609e-08
10827.0, -3.496e-08
10829.0, -3.349e-08
10831.0, -3.227e-08
10833.0, -3.069e-08
10835.0, -3.383e-08
10837.0, -3.693e-08
10839.0, -3.025e-08
10841.0, -3.775e-08
10843.0, -3.341e-08
10845.0, -3.309e-08
10847.0, -3.452e-08
10849.0, -3.445e-08
10851.0, -3.18e-08
10853.0, -3.532e-08
10855.0, -3.732e-08
10857.0, -3.878e-08
10859.0, -3.612e-08
10861.0, -3.616e-08
10863.0, -3.639e-08
10865.0, -3.846e-08
10867.0, -3.785e-08
10869.0, -3.56e-08
10871.0, -3.382e-08
10873.0, -3.913e-08
10875.0, -3.43e-08
10877.0, -3.453e-08
10879.0, -3.472e-08
10881.0, -3.522e-08
10883.0, -3.562e-08
10885.0, -3.273e-08
10887.0, -3.441e-08
10889.0, -3.455e-08
10891.0, -3.717e-08
10893.0, -3.881e-08
10895.0, -3.341e-08
10897.0, -3.343e-08
10899.0, -3.442e-08
10901.0, -3.25e-08
10903.0, -3.148e-08
10905.0, -3.321e-08
10907.0, -3.22e-08
10909.0, -3.349e-08
10911.0, -3.612e-08
10913.0, -3.503e-08
10915.0, -3.284e-08
10917.0, -3.069e-08
10919.0, -3.37e-08
10921.0, -3.516e-08
10923.0, -3.784e-08
10925.0, -3.465e-08
10927.0, -3.587e-08
10929.0, -3.385e-08
10931.0, -3.628e-08
10933.0, -3.645e-08
10935.0, -3.517e-08
10937.0, -3.432e-08
10939.0, -3.319e-08
10941.0, -3.574e-08
10943.0, -3.365e-08
10945.0, -3.44e-08
10947.0, -3.477e-08
10949.0, -3.27e-08
10951.0, -3.285e-08
10953.0, -3.666e-08
10955.0, -3.427e-08
10957.0, -3.335e-08
10959.0, -3.538e-08
10961.0, -3.455e-08
10963.0, -3.617e-08
10965.0, -3.17e-08
10967.0, -3.483e-08
10969.0, -3.574e-08
10971.0, -3.441e-08
10973.0, -3.611e-08
10975.0, -3.732e-08
10977.0, -3.911e-08
10979.0, -3.787e-08
10981.0, -3.348e-08
10983.0, -3.651e-08
10985.0, -3.775e-08
10987.0, -3.276e-08
10989.0, -3.457e-08
10991.0, -3.398e-08
10993.0, -3.606e-08
10995.0, -3.778e-08
10997.0, -3.831e-08
10999.0, -3.664e-08
11001.0, -3.553e-08
11003.0, -3.451e-08
11005.0, -3.505e-08
11007.0, -3.778e-08
11009.0, -3.446e-08
