Time sep (ms?), Current (A)
0.0, -3.793e-08
2.002, -4.119e-08
4.004, -3.761e-08
6.006, -3.628e-08
8.008, -3.687e-08
10.01, -3.963e-08
12.012, -3.775e-08
14.014, -3.655e-08
16.016, -3.763e-08
18.018, -3.771e-08
20.02, -3.926e-08
22.022, -3.923e-08
24.024, -3.698e-08
26.026, -3.653e-08
28.028, -3.763e-08
30.03, -4.15e-08
32.032, -3.937e-08
34.034, -3.967e-08
36.036, -4.212e-08
38.038, -3.828e-08
40.04, -3.604e-08
42.042, -4.051e-08
44.044, -3.677e-08
46.046, -4.002e-08
48.048, -3.654e-08
50.05, -4.021e-08
52.052, -4.086e-08
54.054, -3.796e-08
56.056, -3.701e-08
58.058, -3.91e-08
60.06, -3.426e-08
62.062, -3.844e-08
64.064, -3.453e-08
66.066, -3.609e-08
68.068, -3.715e-08
70.07, -3.894e-08
72.072, -4.019e-08
74.074, -3.742e-08
76.076, -3.63e-08
78.078, -4.046e-08
80.08, -3.902e-08
82.082, -4.107e-08
84.084, -3.991e-08
86.086, -3.983e-08
88.088, -3.944e-08
90.09, -3.893e-08
92.092, -4.071e-08
94.094, -3.852e-08
96.096, -3.806e-08
98.098, -4.019e-08
100.1, -3.906e-08
102.1, -4.138e-08
104.1, -4.186e-08
106.11, -3.935e-08
108.11, -3.889e-08
110.11, -3.943e-08
112.11, -3.908e-08
114.11, -4.102e-08
116.12, -4.054e-08
118.12, -3.915e-08
120.12, -3.583e-08
122.12, -3.849e-08
124.12, -3.965e-08
126.13, -3.723e-08
128.13, -3.701e-08
130.13, -3.531e-08
132.13, -3.831e-08
134.13, -3.91e-08
136.14, -3.876e-08
138.14, -3.976e-08
140.14, -3.422e-08
142.14, -3.912e-08
144.14, -3.638e-08
146.15, -4.011e-08
148.15, -3.805e-08
150.15, -4.006e-08
152.15, -3.787e-08
154.15, -3.553e-08
156.16, -3.949e-08
158.16, -3.57e-08
160.16, -3.514e-08
162.16, -3.556e-08
164.16, -3.4e-08
166.17, -3.68e-08
168.17, -3.567e-08
170.17, -3.866e-08
172.17, -4.024e-08
174.17, -4.08e-08
176.18, -3.565e-08
178.18, -3.491e-08
180.18, -3.631e-08
182.18, -3.482e-08
184.18, -3.454e-08
186.19, -3.791e-08
188.19, -3.768e-08
190.19, -3.773e-08
192.19, -3.43e-08
194.19, -3.956e-08
196.2, -3.97e-08
198.2, -3.373e-08
200.2, -3.438e-08
202.2, -3.83e-08
204.2, -3.53e-08
206.21, -3.951e-08
208.21, -3.91e-08
210.21, -3.708e-08
212.21, -3.705e-08
214.21, -3.781e-08
216.22, -3.621e-08
218.22, -3.683e-08
220.22, -3.633e-08
222.22, -3.159e-08
224.22, -3.721e-08
226.23, -3.526e-08
228.23, -3.746e-08
230.23, -3.271e-08
232.23, -3.37e-08
234.23, -3.847e-08
236.24, -3.766e-08
238.24, -3.839e-08
240.24, -3.839e-08
242.24, -3.981e-08
244.24, -4.084e-08
246.25, -4.223e-08
248.25, -3.768e-08
250.25, -3.91e-08
252.25, -3.851e-08
254.25, -4.061e-08
256.26, -4.279e-08
258.26, -3.689e-08
260.26, -3.692e-08
262.26, -3.797e-08
264.26, -3.723e-08
266.27, -3.9e-08
268.27, -3.393e-08
270.27, -3.956e-08
272.27, -3.889e-08
274.27, -3.504e-08
276.28, -3.881e-08
278.28, -3.723e-08
280.28, -3.457e-08
282.28, -4.044e-08
284.28, -3.967e-08
286.29, -3.415e-08
288.29, -3.611e-08
290.29, -3.89e-08
292.29, -3.513e-08
294.29, -3.604e-08
296.3, -3.415e-08
298.3, -3.576e-08
300.3, -3.868e-08
302.3, -3.723e-08
304.3, -3.678e-08
306.31, -3.486e-08
308.31, -3.361e-08
310.31, -3.208e-08
312.31, -3.326e-08
314.31, -3.382e-08
316.32, -2.996e-08
318.32, -3.201e-08
320.32, -3.204e-08
322.32, -3.444e-08
324.32, -3.536e-08
326.33, -3.643e-08
328.33, -3.351e-08
330.33, -3.638e-08
332.33, -3.366e-08
334.33, -3.608e-08
336.34, -3.599e-08
338.34, -3.096e-08
340.34, -3.537e-08
342.34, -3.485e-08
344.34, -3.137e-08
346.35, -3.196e-08
348.35, -3.349e-08
350.35, -3.201e-08
352.35, -3.44e-08
354.35, -3.495e-08
356.36, -3.612e-08
358.36, -3.744e-08
360.36, -3.392e-08
362.36, -3.85e-08
364.36, -3.664e-08
366.37, -3.477e-08
368.37, -3.476e-08
370.37, -3.82e-08
372.37, -3.777e-08
374.37, -3.471e-08
376.38, -3.572e-08
378.38, -3.866e-08
380.38, -3.746e-08
382.38, -3.525e-08
384.38, -3.684e-08
386.39, -3.744e-08
388.39, -3.565e-08
390.39, -3.826e-08
392.39, -3.658e-08
394.39, -3.484e-08
396.4, -3.832e-08
398.4, -3.783e-08
400.4, -3.564e-08
402.4, -3.846e-08
404.4, -3.868e-08
406.41, -3.586e-08
408.41, -3.395e-08
410.41, -3.369e-08
412.41, -3.676e-08
414.41, -3.813e-08
416.42, -3.945e-08
418.42, -3.871e-08
420.42, -3.618e-08
422.42, -3.847e-08
424.42, -3.718e-08
426.43, -3.738e-08
428.43, -3.69e-08
430.43, -3.668e-08
432.43, -3.809e-08
434.43, -3.909e-08
436.44, -3.819e-08
438.44, -3.78e-08
440.44, -3.596e-08
442.44, -3.711e-08
444.44, -3.772e-08
446.45, -3.927e-08
448.45, -3.184e-08
450.45, -3.717e-08
452.45, -3.741e-08
454.45, -3.483e-08
456.46, -3.25e-08
458.46, -3.359e-08
460.46, -3.198e-08
462.46, -3.288e-08
464.46, -3.257e-08
466.47, -3.222e-08
468.47, -3.405e-08
470.47, -3.489e-08
472.47, -3.454e-08
474.47, -3.339e-08
476.48, -3.287e-08
478.48, -3.556e-08
480.48, -3.782e-08
482.48, -3.409e-08
484.48, -3.392e-08
486.49, -3.246e-08
488.49, -3.628e-08
490.49, -3.732e-08
492.49, -3.586e-08
494.49, -3.58e-08
496.5, -3.732e-08
498.5, -3.631e-08
500.5, -3.766e-08
502.5, -3.681e-08
504.5, -3.268e-08
506.51, -3.782e-08
508.51, -3.779e-08
510.51, -3.457e-08
512.51, -4.129e-08
514.51, -3.641e-08
516.52, -3.668e-08
518.52, -4.009e-08
520.52, -3.583e-08
522.52, -3.449e-08
524.52, -3.816e-08
526.53, -3.238e-08
528.53, -4.006e-08
530.53, -3.625e-08
532.53, -4e-08
534.53, -3.523e-08
536.54, -3.912e-08
538.54, -3.66e-08
540.54, -3.508e-08
542.54, -3.599e-08
544.54, -4.025e-08
546.55, -3.85e-08
548.55, -3.926e-08
550.55, -3.652e-08
552.55, -3.765e-08
554.55, -3.865e-08
556.56, -3.754e-08
558.56, -3.819e-08
560.56, -3.8e-08
562.56, -3.797e-08
564.56, -3.788e-08
566.57, -3.372e-08
568.57, -3.726e-08
570.57, -3.503e-08
572.57, -3.849e-08
574.57, -3.785e-08
576.58, -3.6e-08
578.58, -3.844e-08
580.58, -4.061e-08
582.58, -3.438e-08
584.58, -3.736e-08
586.59, -3.54e-08
588.59, -3.79e-08
590.59, -3.581e-08
592.59, -3.392e-08
594.59, -3.594e-08
596.6, -3.847e-08
598.6, -3.516e-08
600.6, -3.198e-08
602.6, -3.272e-08
604.6, -3.492e-08
606.61, -3.516e-08
608.61, -3.653e-08
610.61, -3.665e-08
612.61, -3.609e-08
614.61, -3.579e-08
616.62, -3.603e-08
618.62, -3.348e-08
620.62, -3.666e-08
622.62, -3.706e-08
624.62, -3.489e-08
626.63, -3.373e-08
628.63, -3.267e-08
630.63, -3.483e-08
632.63, -3.64e-08
634.63, -3.586e-08
636.64, -3.711e-08
638.64, -3.599e-08
640.64, -3.783e-08
642.64, -3.817e-08
644.64, -3.522e-08
646.65, -3.597e-08
648.65, -3.58e-08
650.65, -3.675e-08
652.65, -3.609e-08
654.65, -3.57e-08
656.66, -3.5e-08
658.66, -3.362e-08
660.66, -3.22e-08
662.66, -3.726e-08
664.66, -3.201e-08
666.67, -3.962e-08
668.67, -3.257e-08
670.67, -3.431e-08
672.67, -3.744e-08
674.67, -3.832e-08
676.68, -3.347e-08
678.68, -3.536e-08
680.68, -3.351e-08
682.68, -3.604e-08
684.68, -3.258e-08
686.69, -3.299e-08
688.69, -3.027e-08
690.69, -3.398e-08
692.69, -3.089e-08
694.69, -3.131e-08
696.7, -3.231e-08
698.7, -3.485e-08
700.7, -3.574e-08
702.7, -3.8e-08
704.7, -3.4e-08
706.71, -3.598e-08
708.71, -3.766e-08
710.71, -3.576e-08
712.71, -3.574e-08
714.71, -3.592e-08
716.72, -4.006e-08
718.72, -3.574e-08
720.72, -3.358e-08
722.72, -3.564e-08
724.72, -3.52e-08
726.73, -3.542e-08
728.73, -3.601e-08
730.73, -3.671e-08
732.73, -3.571e-08
734.73, -3.559e-08
736.74, -3.315e-08
738.74, -3.464e-08
740.74, -3.737e-08
742.74, -4.023e-08
744.74, -3.901e-08
746.75, -3.67e-08
748.75, -3.775e-08
750.75, -3.984e-08
752.75, -3.735e-08
754.75, -4.211e-08
756.76, -3.796e-08
758.76, -3.958e-08
760.76, -3.946e-08
762.76, -4.021e-08
764.76, -3.387e-08
766.77, -3.679e-08
768.77, -3.275e-08
770.77, -3.79e-08
772.77, -3.493e-08
774.77, -3.872e-08
776.78, -3.562e-08
778.78, -3.641e-08
780.78, -3.358e-08
782.78, -3.75e-08
784.78, -3.83e-08
786.79, -3.358e-08
788.79, -3.477e-08
790.79, -3.431e-08
792.79, -3.33e-08
794.79, -3.993e-08
796.8, -3.783e-08
798.8, -3.55e-08
800.8, -3.624e-08
802.8, -3.663e-08
804.8, -3.678e-08
806.81, -3.591e-08
808.81, -3.657e-08
810.81, -3.402e-08
812.81, -3.627e-08
814.81, -3.58e-08
816.82, -3.413e-08
818.82, -3.629e-08
820.82, -3.441e-08
822.82, -4.015e-08
824.82, -3.745e-08
826.83, -3.373e-08
828.83, -3.467e-08
830.83, -3.213e-08
832.83, -3.85e-08
834.83, -3.308e-08
836.84, -3.373e-08
838.84, -3.334e-08
840.84, -3.156e-08
842.84, -3.294e-08
844.84, -3.338e-08
846.85, -3.484e-08
848.85, -3.542e-08
850.85, -3.326e-08
852.85, -3.298e-08
854.85, -3.408e-08
856.86, -3.58e-08
858.86, -3.39e-08
860.86, -3.207e-08
862.86, -3.03e-08
864.86, -3.471e-08
866.87, -3.38e-08
868.87, -3.537e-08
870.87, -3.374e-08
872.87, -3.527e-08
874.87, -3.576e-08
876.88, -3.382e-08
878.88, -3.522e-08
880.88, -3.272e-08
882.88, -3.811e-08
884.88, -3.472e-08
886.89, -3.451e-08
888.89, -3.28e-08
890.89, -3.264e-08
892.89, -3.258e-08
894.89, -3.675e-08
896.9, -4.032e-08
898.9, -3.464e-08
900.9, -3.753e-08
902.9, -3.526e-08
904.9, -4.061e-08
906.91, -3.512e-08
908.91, -3.446e-08
910.91, -3.576e-08
912.91, -3.542e-08
914.91, -3.623e-08
916.92, -3.357e-08
918.92, -3.074e-08
920.92, -3.426e-08
922.92, -3.795e-08
924.92, -3.509e-08
926.93, -3.643e-08
928.93, -3.202e-08
930.93, -3.384e-08
932.93, -3.868e-08
934.93, -3.727e-08
936.94, -3.643e-08
938.94, -3.818e-08
940.94, -3.572e-08
942.94, -3.628e-08
944.94, -3.91e-08
946.95, -3.739e-08
948.95, -3.331e-08
950.95, -3.835e-08
952.95, -3.734e-08
954.95, -3.81e-08
956.96, -4.198e-08
958.96, -3.759e-08
960.96, -3.961e-08
962.96, -3.885e-08
964.96, -3.863e-08
966.97, -3.912e-08
968.97, -3.796e-08
970.97, -3.878e-08
972.97, -4.341e-08
974.97, -3.589e-08
976.98, -3.905e-08
978.98, -3.614e-08
980.98, -3.578e-08
982.98, -3.637e-08
984.98, -3.395e-08
986.99, -3.511e-08
988.99, -3.721e-08
990.99, -3.708e-08
992.99, -3.597e-08
994.99, -3.833e-08
997.0, -3.78e-08
999.0, -3.739e-08
1001.0, -3.421e-08
1003.0, -3.853e-08
1005.0, -3.807e-08
1007.0, -3.775e-08
1009.0, -3.836e-08
1011.0, -3.86e-08
1013.0, -4.187e-08
1015.0, -3.945e-08
1017.0, -4.291e-08
1019.0, -4.272e-08
1021.0, -4.107e-08
1023.0, -4.244e-08
1025.0, -4.331e-08
1027.0, -4.408e-08
1029.0, -4.348e-08
1031.0, -4.274e-08
1033.0, -3.929e-08
1035.0, -3.645e-08
1037.0, -4.011e-08
1039.0, -4.176e-08
1041.0, -3.909e-08
1043.0, -4.167e-08
1045.0, 3.93e-09
1047.0, 3.65e-09
1049.0, 5.55e-09
1051.0, 3.87e-09
1053.1, 7.93e-09
1055.1, 2.82e-09
1057.1, 6.15e-09
1059.1, 3.55e-09
1061.1, 1.067e-08
1063.1, 9.32e-09
1065.1, 1.045e-08
1067.1, 7.61e-09
1069.1, 1.23e-08
1071.1, 1.02e-08
1073.1, 6.71e-09
1075.1, 6.44e-09
1077.1, 8.86e-09
1079.1, 3.37e-09
1081.1, 1.82e-09
1083.1, 1.18e-08
1085.1, 7.96e-09
1087.1, 8.07e-09
1089.1, 8.89e-09
1091.1, 4.56e-09
1093.1, 1.271e-08
1095.1, 1.276e-08
1097.1, 8.92e-09
1099.1, 1.353e-08
1101.1, 1.35e-09
1103.1, 8.92e-09
1105.1, 9.68e-09
1107.1, 5.86e-09
1109.1, 6.75e-09
1111.1, 6.35e-09
1113.1, 8.98e-09
1115.1, 8.34e-09
1117.1, 9.44e-09
1119.1, 8.14e-09
1121.1, 9.1e-09
1123.1, 4.54e-09
1125.1, 1.248e-08
1127.1, 7.6e-10
1129.1, 8.27e-09
1131.1, 7.65e-09
1133.1, 1.514e-08
1135.1, 6.96e-09
1137.1, 1.786e-08
1139.1, 1.267e-08
1141.1, 8.06e-09
1143.1, 1.23e-08
1145.1, 1.115e-08
1147.1, 1.309e-08
1149.1, 8.7e-09
1151.1, 1.071e-08
1153.2, 1.288e-08
1155.2, 1.344e-08
1157.2, 1.505e-08
1159.2, 8.9e-09
1161.2, 1.106e-08
1163.2, 9.42e-09
1165.2, 2.25e-09
1167.2, 3.01e-09
1169.2, 4.48e-09
1171.2, 1.777e-08
1173.2, 9.49e-09
1175.2, 8.82e-09
1177.2, 3.38e-09
1179.2, 6.71e-09
1181.2, 7.1e-09
1183.2, 1.21e-08
1185.2, 1.027e-08
1187.2, 8.48e-09
1189.2, 3.14e-09
1191.2, 5.3e-09
1193.2, 5e-09
1195.2, 9.23e-09
1197.2, 1.172e-08
1199.2, 8.27e-09
1201.2, 1.13e-08
1203.2, 1.278e-08
1205.2, 8.16e-09
1207.2, 5.1e-09
1209.2, 1.188e-08
1211.2, 1.257e-08
1213.2, 1.125e-08
1215.2, 1.012e-08
1217.2, 9.89e-09
1219.2, 1.12e-08
1221.2, 8.18e-09
1223.2, 2.8e-09
1225.2, 1.334e-08
1227.2, 1.189e-08
1229.2, 1.136e-08
1231.2, 9.37e-09
1233.2, 9.26e-09
1235.2, 6.01e-09
1237.2, 7.12e-09
1239.2, 9.09e-09
1241.2, 5.58e-09
1243.2, 4.08e-09
1245.2, 4.63e-09
1247.2, 6.17e-09
1249.2, 6.48e-09
1251.2, 1.164e-08
1253.3, 9.81e-09
1255.3, 8e-09
1257.3, 7.55e-09
1259.3, 1.024e-08
1261.3, 1.251e-08
1263.3, 1.587e-08
1265.3, 1.029e-08
1267.3, 1.537e-08
1269.3, 1.232e-08
1271.3, 1.337e-08
1273.3, 1.526e-08
1275.3, 1.013e-08
1277.3, 3.03e-09
1279.3, 1.488e-08
1281.3, 9.03e-09
1283.3, 1.049e-08
1285.3, 1.486e-08
1287.3, 1.158e-08
1289.3, 1.626e-08
1291.3, 1.43e-08
1293.3, 9.73e-09
1295.3, 1.263e-08
1297.3, 1.118e-08
1299.3, 1.153e-08
1301.3, 1.704e-08
1303.3, 1.437e-08
1305.3, 1.258e-08
1307.3, 1.169e-08
1309.3, 8.77e-09
1311.3, 1.744e-08
1313.3, 9.73e-09
1315.3, 1.556e-08
1317.3, 1.339e-08
1319.3, 1.106e-08
1321.3, 1.577e-08
1323.3, 1.727e-08
1325.3, 1.593e-08
1327.3, 1.254e-08
1329.3, 1.705e-08
1331.3, 1.632e-08
1333.3, 1.641e-08
1335.3, 1.213e-08
1337.3, 1.283e-08
1339.3, 1.542e-08
1341.3, 8.35e-09
1343.3, 1.146e-08
1345.3, 9.5e-09
1347.3, 2.029e-08
1349.3, 1.479e-08
1351.3, 1.357e-08
1353.4, 9.85e-09
1355.4, 8.36e-09
1357.4, 1.785e-08
1359.4, 1.338e-08
1361.4, 1.538e-08
1363.4, 1.64e-08
1365.4, 1.402e-08
1367.4, 1.321e-08
1369.4, 1.257e-08
1371.4, 1.234e-08
1373.4, 1.774e-08
1375.4, 8.06e-09
1377.4, 1.422e-08
1379.4, 1.69e-08
1381.4, 1.157e-08
1383.4, 1.273e-08
1385.4, 1.299e-08
1387.4, 1.131e-08
1389.4, 1.646e-08
1391.4, 1.341e-08
1393.4, 1.664e-08
1395.4, 1.784e-08
1397.4, 1.553e-08
1399.4, 1.536e-08
1401.4, 1.215e-08
1403.4, 1.501e-08
1405.4, 9.26e-09
1407.4, 1.229e-08
1409.4, 1.663e-08
1411.4, 1.519e-08
1413.4, 1.588e-08
1415.4, 1.509e-08
1417.4, 1.408e-08
1419.4, 1.085e-08
1421.4, 1.816e-08
1423.4, 1.519e-08
1425.4, 1.214e-08
1427.4, 1.198e-08
1429.4, 1.589e-08
1431.4, 1.83e-08
1433.4, 1.755e-08
1435.4, 9.36e-09
1437.4, 1.464e-08
1439.4, 1.252e-08
1441.4, 1.397e-08
1443.4, 1.588e-08
1445.4, 9.63e-09
1447.4, 1.539e-08
1449.4, 1.718e-08
1451.4, 1.418e-08
1453.5, 1.699e-08
1455.5, 9.91e-09
1457.5, 1.531e-08
1459.5, 1.898e-08
1461.5, 1.698e-08
1463.5, 1.633e-08
1465.5, 1.114e-08
1467.5, 1.743e-08
1469.5, 1.27e-08
1471.5, 1.427e-08
1473.5, 1.549e-08
1475.5, 1.285e-08
1477.5, 1.25e-08
1479.5, 1.222e-08
1481.5, 1.392e-08
1483.5, 1.832e-08
1485.5, 1.515e-08
1487.5, 1.359e-08
1489.5, 2.135e-08
1491.5, 1.402e-08
1493.5, 2.035e-08
1495.5, 2.136e-08
1497.5, 1.475e-08
1499.5, 1.753e-08
1501.5, 2.19e-08
1503.5, 1.685e-08
1505.5, 9.41e-09
1507.5, 1.86e-08
1509.5, 2.029e-08
1511.5, 1.246e-08
1513.5, 1.527e-08
1515.5, 1.283e-08
1517.5, 1.573e-08
1519.5, 1.338e-08
1521.5, 1.894e-08
1523.5, 1.833e-08
1525.5, 1.235e-08
1527.5, 1.593e-08
1529.5, 1.623e-08
1531.5, 1.864e-08
1533.5, 1.743e-08
1535.5, 1.544e-08
1537.5, 1.544e-08
1539.5, 1.777e-08
1541.5, 1.713e-08
1543.5, 1.863e-08
1545.5, 1.16e-08
1547.5, 1.6e-08
1549.5, 1.64e-08
1551.5, 2.412e-08
1553.6, 2.423e-08
1555.6, 2.245e-08
1557.6, 1.592e-08
1559.6, 2.037e-08
1561.6, 1.518e-08
1563.6, 1.646e-08
1565.6, 1.212e-08
1567.6, 1.381e-08
1569.6, 2.123e-08
1571.6, 2.231e-08
1573.6, 1.8e-08
1575.6, 1.71e-08
1577.6, 1.736e-08
1579.6, 1.621e-08
1581.6, 2.022e-08
1583.6, 1.13e-08
1585.6, 1.99e-08
1587.6, 1.646e-08
1589.6, 1.51e-08
1591.6, 1.499e-08
1593.6, 2.406e-08
1595.6, 1.73e-08
1597.6, 2.225e-08
1599.6, 2.327e-08
1601.6, 2.322e-08
1603.6, 2.295e-08
1605.6, 2.352e-08
1607.6, 1.39e-08
1609.6, 2.154e-08
1611.6, 2.435e-08
1613.6, 1.869e-08
1615.6, 1.44e-08
1617.6, 1.277e-08
1619.6, 1.884e-08
1621.6, 2.044e-08
1623.6, 2.005e-08
1625.6, 1.592e-08
1627.6, 1.642e-08
1629.6, 1.676e-08
1631.6, 1.629e-08
1633.6, 1.951e-08
1635.6, 1.257e-08
1637.6, 2.628e-08
1639.6, 2.547e-08
1641.6, 1.581e-08
1643.6, 2.163e-08
1645.6, 2.491e-08
1647.6, 2.119e-08
1649.6, 2.021e-08
1651.6, 1.271e-08
1653.7, 1.352e-08
1655.7, 1.612e-08
1657.7, 1.783e-08
1659.7, 1.817e-08
1661.7, 1.404e-08
1663.7, 1.736e-08
1665.7, 1.739e-08
1667.7, 1.608e-08
1669.7, 1.887e-08
1671.7, 2.012e-08
1673.7, 2.015e-08
1675.7, 2.181e-08
1677.7, 1.916e-08
1679.7, 1.538e-08
1681.7, 2.025e-08
1683.7, 1.773e-08
1685.7, 1.356e-08
1687.7, 1.686e-08
1689.7, 1.746e-08
1691.7, 1.514e-08
1693.7, 1.245e-08
1695.7, 2.156e-08
1697.7, 2.075e-08
1699.7, 1.826e-08
1701.7, 1.392e-08
1703.7, 1.823e-08
1705.7, 1.652e-08
1707.7, 1.517e-08
1709.7, 7.22e-09
1711.7, 1.736e-08
1713.7, 1.973e-08
1715.7, 1.301e-08
1717.7, 1.35e-08
1719.7, 1.893e-08
1721.7, 1.224e-08
1723.7, 1.85e-08
1725.7, 1.255e-08
1727.7, 1.722e-08
1729.7, 1.044e-08
1731.7, 1.481e-08
1733.7, 1.78e-08
1735.7, 1.536e-08
1737.7, 1.943e-08
1739.7, 1.288e-08
1741.7, 2.11e-08
1743.7, 1.453e-08
1745.7, 1.343e-08
1747.7, 1.634e-08
1749.7, 1.545e-08
1751.7, 1.801e-08
1753.8, 1.428e-08
1755.8, 1.122e-08
1757.8, 8.75e-09
1759.8, 1.312e-08
1761.8, 1.031e-08
1763.8, 1.918e-08
1765.8, 1.378e-08
1767.8, 2.183e-08
1769.8, 1.766e-08
1771.8, 1.384e-08
1773.8, 1.653e-08
1775.8, 1.641e-08
1777.8, 1.006e-08
1779.8, 1.429e-08
1781.8, 1.69e-08
1783.8, 1.377e-08
1785.8, 1.671e-08
1787.8, 2.165e-08
1789.8, 1.963e-08
1791.8, 1.57e-08
1793.8, 1.815e-08
1795.8, 8.56e-09
1797.8, 1.805e-08
1799.8, 2.201e-08
1801.8, 1.425e-08
1803.8, 2.07e-08
1805.8, 1.569e-08
1807.8, 1.874e-08
1809.8, 1.633e-08
1811.8, 1.809e-08
1813.8, 1.185e-08
1815.8, 1.442e-08
1817.8, 1.706e-08
1819.8, 1.428e-08
1821.8, 1.831e-08
1823.8, 2.225e-08
1825.8, 1.903e-08
1827.8, 1.668e-08
1829.8, 2.373e-08
1831.8, 1.69e-08
1833.8, 1.646e-08
1835.8, 2.141e-08
1837.8, 2.087e-08
1839.8, 2.065e-08
1841.8, 1.48e-08
1843.8, 1.872e-08
1845.8, 2.221e-08
1847.8, 2.77e-08
1849.8, 1.847e-08
1851.8, 2.197e-08
1853.9, 2.219e-08
1855.9, 2.131e-08
1857.9, 2.12e-08
1859.9, 2.678e-08
1861.9, 2.215e-08
1863.9, 2.49e-08
1865.9, 2.176e-08
1867.9, 2.537e-08
1869.9, 2.345e-08
1871.9, 1.599e-08
1873.9, 1.838e-08
1875.9, 1.534e-08
1877.9, 2.141e-08
1879.9, 1.719e-08
1881.9, 2.175e-08
1883.9, 2.233e-08
1885.9, 2.115e-08
1887.9, 9.99e-09
1889.9, 1.69e-08
1891.9, 2.361e-08
1893.9, 1.711e-08
1895.9, 2.089e-08
1897.9, 1.944e-08
1899.9, 1.309e-08
1901.9, 2.136e-08
1903.9, 2.028e-08
1905.9, 1.684e-08
1907.9, 2.161e-08
1909.9, 1.647e-08
1911.9, 2.305e-08
1913.9, 3.09e-08
1915.9, 2.412e-08
1917.9, 2.152e-08
1919.9, 1.943e-08
1921.9, 1.411e-08
1923.9, 1.955e-08
1925.9, 2.234e-08
1927.9, 1.824e-08
1929.9, 2.542e-08
1931.9, 1.937e-08
1933.9, 2.409e-08
1935.9, 2.356e-08
1937.9, 1.931e-08
1939.9, 2.952e-08
1941.9, 2.044e-08
1943.9, 2.491e-08
1945.9, 2.933e-08
1947.9, 2.59e-08
1949.9, 2.252e-08
1951.9, 2.498e-08
1954.0, 2.195e-08
1956.0, 1.958e-08
1958.0, 2.323e-08
1960.0, 2.087e-08
1962.0, 2.099e-08
1964.0, 2.634e-08
1966.0, 2.237e-08
1968.0, 2.125e-08
1970.0, 2.217e-08
1972.0, 2.26e-08
1974.0, 2.309e-08
1976.0, 2.1e-08
1978.0, 3.209e-08
1980.0, 1.838e-08
1982.0, 2.206e-08
1984.0, 2.723e-08
1986.0, 2.163e-08
1988.0, 1.751e-08
1990.0, 2.74e-08
1992.0, 2.187e-08
1994.0, 2.157e-08
1996.0, 1.885e-08
1998.0, 2.642e-08
2000.0, 2.056e-08
2002.0, 2.489e-08
2004.0, 2.12e-08
2006.0, 2.211e-08
2008.0, 1.917e-08
2010.0, 1.761e-08
2012.0, 2.461e-08
2014.0, 2.005e-08
2016.0, 1.417e-08
2018.0, 2.608e-08
2020.0, 2.378e-08
2022.0, 2.818e-08
2024.0, 2.39e-08
2026.0, 2.129e-08
2028.0, 1.54e-08
2030.0, 2.509e-08
2032.0, 2.878e-08
2034.0, 2.192e-08
2036.0, 2.294e-08
2038.0, 2.973e-08
2040.0, 2.437e-08
2042.0, 3.296e-08
2044.0, 2.499e-08
2046.0, -3.183e-08
2048.0, -2.97e-08
2050.0, -3.265e-08
2052.0, -3.382e-08
2054.1, -3.2e-08
2056.1, -3.511e-08
2058.1, -3.507e-08
2060.1, -3.336e-08
2062.1, -3.379e-08
2064.1, -3.494e-08
2066.1, -3.418e-08
2068.1, -3.514e-08
2070.1, -3.401e-08
2072.1, -3.384e-08
2074.1, -3.475e-08
2076.1, -3.447e-08
2078.1, -3.543e-08
2080.1, -3.487e-08
2082.1, -3.562e-08
2084.1, -3.767e-08
2086.1, -3.653e-08
2088.1, -3.59e-08
2090.1, -3.309e-08
2092.1, -3.449e-08
2094.1, -3.518e-08
2096.1, -3.765e-08
2098.1, -3.8e-08
2100.1, -3.529e-08
2102.1, -3.413e-08
2104.1, -3.47e-08
2106.1, -3.733e-08
2108.1, -3.611e-08
2110.1, -3.563e-08
2112.1, -3.649e-08
2114.1, -3.572e-08
2116.1, -3.737e-08
2118.1, -3.428e-08
2120.1, -3.701e-08
2122.1, -3.217e-08
2124.1, -3.659e-08
2126.1, -3.329e-08
2128.1, -3.473e-08
2130.1, -2.879e-08
2132.1, -3.329e-08
2134.1, -3.178e-08
2136.1, -3.253e-08
2138.1, -3.046e-08
2140.1, -3.27e-08
2142.1, -3.319e-08
2144.1, -3.512e-08
2146.1, -3.589e-08
2148.1, -3.562e-08
2150.1, -3.064e-08
2152.1, -3.454e-08
2154.2, -3.203e-08
2156.2, -3.121e-08
2158.2, -3.136e-08
2160.2, -3.315e-08
2162.2, -3.341e-08
2164.2, -3.139e-08
2166.2, -3.449e-08
2168.2, -3.674e-08
2170.2, -3.045e-08
2172.2, -3.288e-08
2174.2, -3.371e-08
2176.2, -3.313e-08
2178.2, -3.343e-08
2180.2, -3.252e-08
2182.2, -3.313e-08
2184.2, -3.458e-08
2186.2, -3.376e-08
2188.2, -3.443e-08
2190.2, -3.173e-08
2192.2, -3.53e-08
2194.2, -3.412e-08
2196.2, -3.642e-08
2198.2, -3.759e-08
2200.2, -3.603e-08
2202.2, -3.525e-08
2204.2, -3.572e-08
2206.2, -3.64e-08
2208.2, -3.519e-08
2210.2, -3.163e-08
2212.2, -3.423e-08
2214.2, -3.557e-08
2216.2, -3.359e-08
2218.2, -3.327e-08
2220.2, -3.759e-08
2222.2, -3.31e-08
2224.2, -3.06e-08
2226.2, -3.455e-08
2228.2, -3.295e-08
2230.2, -3.718e-08
2232.2, -3.548e-08
2234.2, -3.396e-08
2236.2, -3.43e-08
2238.2, -3.426e-08
2240.2, -3.697e-08
2242.2, -3.225e-08
2244.2, -3.411e-08
2246.2, -3.464e-08
2248.2, -3.509e-08
2250.2, -3.539e-08
2252.2, -3.691e-08
2254.3, -3.323e-08
2256.3, -3.38e-08
2258.3, -3.411e-08
2260.3, -3.229e-08
2262.3, -3.435e-08
2264.3, -3.323e-08
2266.3, -2.815e-08
2268.3, -3.421e-08
2270.3, -3.214e-08
2272.3, -3.05e-08
2274.3, -3.264e-08
2276.3, -3.144e-08
2278.3, -3.282e-08
2280.3, -3.094e-08
2282.3, -3.007e-08
2284.3, -3.393e-08
2286.3, -3.268e-08
2288.3, -3.134e-08
2290.3, -3.316e-08
2292.3, -3.223e-08
2294.3, -2.846e-08
2296.3, -3.303e-08
2298.3, -3.264e-08
2300.3, -2.979e-08
2302.3, -3.186e-08
2304.3, -2.813e-08
2306.3, -3.051e-08
2308.3, -3.282e-08
2310.3, -3.601e-08
2312.3, -2.945e-08
2314.3, -3.197e-08
2316.3, -3.407e-08
2318.3, -3.074e-08
2320.3, -3.059e-08
2322.3, -3.081e-08
2324.3, -3.027e-08
2326.3, -3.325e-08
2328.3, -3.138e-08
2330.3, -2.999e-08
2332.3, -3.228e-08
2334.3, -3.266e-08
2336.3, -3.243e-08
2338.3, -3.451e-08
2340.3, -3.182e-08
2342.3, -3.074e-08
2344.3, -3.348e-08
2346.3, -3.35e-08
2348.3, -3.213e-08
2350.3, -3.395e-08
2352.3, -2.958e-08
2354.4, -3.15e-08
2356.4, -3.118e-08
2358.4, -3.067e-08
2360.4, -3.026e-08
2362.4, -3.525e-08
2364.4, -3.132e-08
2366.4, -3.225e-08
2368.4, -3.372e-08
2370.4, -3.215e-08
2372.4, -3.091e-08
2374.4, -3.149e-08
2376.4, -3.696e-08
2378.4, -3.42e-08
2380.4, -3.319e-08
2382.4, -3.098e-08
2384.4, -3.237e-08
2386.4, -3.548e-08
2388.4, -3.602e-08
2390.4, -3.55e-08
2392.4, -3.28e-08
2394.4, -3.155e-08
2396.4, -3.114e-08
2398.4, -3.23e-08
2400.4, -3.331e-08
2402.4, -2.976e-08
2404.4, -3.175e-08
2406.4, -2.843e-08
2408.4, -3.398e-08
2410.4, -2.912e-08
2412.4, -3.183e-08
2414.4, -3.056e-08
2416.4, -3.193e-08
2418.4, -3.007e-08
2420.4, -3.092e-08
2422.4, -3.287e-08
2424.4, -3.172e-08
2426.4, -3.437e-08
2428.4, -3.159e-08
2430.4, -3.545e-08
2432.4, -3.389e-08
2434.4, -3.283e-08
2436.4, -3.77e-08
2438.4, -3.295e-08
2440.4, -3.335e-08
2442.4, -3.693e-08
2444.4, -3.5e-08
2446.4, -3.065e-08
2448.4, -3.403e-08
2450.4, -3.469e-08
2452.4, -3.458e-08
2454.5, -3.387e-08
2456.5, -3.381e-08
2458.5, -3.492e-08
2460.5, -3.5e-08
2462.5, -3.204e-08
2464.5, -3.565e-08
2466.5, -3.279e-08
2468.5, -3.632e-08
2470.5, -3.031e-08
2472.5, -3.065e-08
2474.5, -2.999e-08
2476.5, -3.219e-08
2478.5, -3.744e-08
2480.5, -3.406e-08
2482.5, -3.382e-08
2484.5, -3.542e-08
2486.5, -3.71e-08
2488.5, -3.355e-08
2490.5, -3.581e-08
2492.5, -3.376e-08
2494.5, -3.085e-08
2496.5, -3.231e-08
2498.5, -3.301e-08
2500.5, -2.801e-08
2502.5, -3.27e-08
2504.5, -3.291e-08
2506.5, -3.062e-08
2508.5, -3.002e-08
2510.5, -2.971e-08
2512.5, -3.147e-08
2514.5, -3.357e-08
2516.5, -3.273e-08
2518.5, -3.082e-08
2520.5, -3.209e-08
2522.5, -3.186e-08
2524.5, -3.301e-08
2526.5, -3.653e-08
2528.5, -3.234e-08
2530.5, -3.497e-08
2532.5, -3.393e-08
2534.5, -3.3e-08
2536.5, -3.618e-08
2538.5, -3.234e-08
2540.5, -3.555e-08
2542.5, -3.139e-08
2544.5, -3.124e-08
2546.5, -3.262e-08
2548.5, -3.357e-08
2550.5, -2.644e-08
2552.5, -3.345e-08
2554.6, -3.241e-08
2556.6, -3.365e-08
2558.6, -3.154e-08
2560.6, -3.415e-08
2562.6, -3.252e-08
2564.6, -3.426e-08
2566.6, -3.457e-08
2568.6, -3.503e-08
2570.6, -3.225e-08
2572.6, -3.153e-08
2574.6, -3.379e-08
2576.6, -3.236e-08
2578.6, -3.308e-08
2580.6, -3.406e-08
2582.6, -3.27e-08
2584.6, -3.497e-08
2586.6, -3.031e-08
2588.6, -3.615e-08
2590.6, -3.314e-08
2592.6, -3.413e-08
2594.6, -3.009e-08
2596.6, -3.39e-08
2598.6, -3.133e-08
2600.6, -2.924e-08
2602.6, -3.059e-08
2604.6, -3.066e-08
2606.6, -3.165e-08
2608.6, -3.215e-08
2610.6, -3.023e-08
2612.6, -3.177e-08
2614.6, -3.376e-08
2616.6, -3.405e-08
2618.6, -3.489e-08
2620.6, -3.238e-08
2622.6, -3.202e-08
2624.6, -3.32e-08
2626.6, -3.532e-08
2628.6, -3.852e-08
2630.6, -3.119e-08
2632.6, -3.333e-08
2634.6, -3.597e-08
2636.6, -3.396e-08
2638.6, -3.383e-08
2640.6, -3.576e-08
2642.6, -3.466e-08
2644.6, -3.734e-08
2646.6, -3.497e-08
2648.6, -3.747e-08
2650.6, -3.767e-08
2652.6, -3.162e-08
2654.7, -3.152e-08
2656.7, -3.089e-08
2658.7, -3.288e-08
2660.7, -3.192e-08
2662.7, -3.186e-08
2664.7, -3.248e-08
2666.7, -3.441e-08
2668.7, -3.092e-08
2670.7, -3.239e-08
2672.7, -3.069e-08
2674.7, -3.554e-08
2676.7, -3.43e-08
2678.7, -3.423e-08
2680.7, -3.758e-08
2682.7, -3.554e-08
2684.7, -3.684e-08
2686.7, -4.015e-08
2688.7, -3.481e-08
2690.7, -3.309e-08
2692.7, -3.967e-08
2694.7, -3.827e-08
2696.7, -3.556e-08
2698.7, -4.059e-08
2700.7, -3.762e-08
2702.7, -3.615e-08
2704.7, -3.479e-08
2706.7, -3.449e-08
2708.7, -3.882e-08
2710.7, -3.506e-08
2712.7, -3.618e-08
2714.7, -3.776e-08
2716.7, -4.029e-08
2718.7, -3.596e-08
2720.7, -3.742e-08
2722.7, -3.545e-08
2724.7, -3.695e-08
2726.7, -3.6e-08
2728.7, -3.516e-08
2730.7, -3.564e-08
2732.7, -3.953e-08
2734.7, -3.662e-08
2736.7, -3.458e-08
2738.7, -3.407e-08
2740.7, -3.542e-08
2742.7, -3.574e-08
2744.7, -3.518e-08
2746.7, -3.575e-08
2748.7, -3.499e-08
2750.7, -3.335e-08
2752.7, -3.656e-08
2754.8, -3.562e-08
2756.8, -3.637e-08
2758.8, -3.698e-08
2760.8, -3.489e-08
2762.8, -3.412e-08
2764.8, -3.549e-08
2766.8, -3.686e-08
2768.8, -3.537e-08
2770.8, -3.479e-08
2772.8, -3.411e-08
2774.8, -3.544e-08
2776.8, -3.551e-08
2778.8, -3.701e-08
2780.8, -3.68e-08
2782.8, -3.932e-08
2784.8, -3.814e-08
2786.8, -3.461e-08
2788.8, -3.969e-08
2790.8, -3.862e-08
2792.8, -3.934e-08
2794.8, -3.678e-08
2796.8, -3.593e-08
2798.8, -3.209e-08
2800.8, -3.318e-08
2802.8, -3.564e-08
2804.8, -3.563e-08
2806.8, -3.839e-08
2808.8, -3.6e-08
2810.8, -3.468e-08
2812.8, -3.469e-08
2814.8, -3.579e-08
2816.8, -3.624e-08
2818.8, -3.386e-08
2820.8, -3.978e-08
2822.8, -3.899e-08
2824.8, -3.751e-08
2826.8, -3.59e-08
2828.8, -3.797e-08
2830.8, -3.916e-08
2832.8, -3.85e-08
2834.8, -3.854e-08
2836.8, -3.716e-08
2838.8, -3.427e-08
2840.8, -3.518e-08
2842.8, -3.409e-08
2844.8, -3.561e-08
2846.8, -3.67e-08
2848.8, -3.974e-08
2850.8, -3.701e-08
2852.8, -3.674e-08
2854.9, -3.737e-08
2856.9, -3.64e-08
2858.9, -4.065e-08
2860.9, -3.806e-08
2862.9, -3.918e-08
2864.9, -3.845e-08
2866.9, -3.757e-08
2868.9, -3.986e-08
2870.9, -3.912e-08
2872.9, -3.789e-08
2874.9, -3.935e-08
2876.9, -3.566e-08
2878.9, -3.665e-08
2880.9, -3.852e-08
2882.9, -3.759e-08
2884.9, -3.441e-08
2886.9, -3.727e-08
2888.9, -3.435e-08
2890.9, -3.592e-08
2892.9, -3.781e-08
2894.9, -3.755e-08
2896.9, -3.909e-08
2898.9, -3.416e-08
2900.9, -3.441e-08
2902.9, -3.852e-08
2904.9, -3.867e-08
2906.9, -3.576e-08
2908.9, -3.752e-08
2910.9, -3.89e-08
2912.9, -3.938e-08
2914.9, -3.766e-08
2916.9, -3.691e-08
2918.9, -3.638e-08
2920.9, -3.494e-08
2922.9, -3.36e-08
2924.9, -3.267e-08
2926.9, -3.442e-08
2928.9, -3.723e-08
2930.9, -3.721e-08
2932.9, -3.728e-08
2934.9, -3.558e-08
2936.9, -3.492e-08
2938.9, -3.693e-08
2940.9, -3.799e-08
2942.9, -3.816e-08
2944.9, -3.882e-08
2946.9, -3.762e-08
2948.9, -3.951e-08
2950.9, -3.806e-08
2952.9, -3.763e-08
2955.0, -3.685e-08
2957.0, -3.911e-08
2959.0, -3.689e-08
2961.0, -4.077e-08
2963.0, -3.682e-08
2965.0, -3.595e-08
2967.0, -3.279e-08
2969.0, -3.865e-08
2971.0, -3.814e-08
2973.0, -3.486e-08
2975.0, -3.408e-08
2977.0, -3.143e-08
2979.0, -3.643e-08
2981.0, -3.596e-08
2983.0, -3.565e-08
2985.0, -3.873e-08
2987.0, -3.917e-08
2989.0, -3.794e-08
2991.0, -3.668e-08
2993.0, -3.723e-08
2995.0, -4.168e-08
2997.0, -3.674e-08
2999.0, -3.878e-08
3001.0, -3.895e-08
3003.0, -3.848e-08
3005.0, -3.713e-08
3007.0, -3.744e-08
3009.0, -3.891e-08
3011.0, -4.233e-08
3013.0, -3.816e-08
3015.0, -3.94e-08
3017.0, -3.802e-08
3019.0, -4.004e-08
3021.0, -4.123e-08
3023.0, -3.957e-08
3025.0, -3.569e-08
3027.0, -3.65e-08
3029.0, -3.832e-08
3031.0, -3.532e-08
3033.0, -3.452e-08
3035.0, -3.601e-08
3037.0, -3.596e-08
3039.0, -3.798e-08
3041.0, -3.803e-08
3043.0, -3.701e-08
3045.0, -3.672e-08
3047.0, -4.104e-08
3049.0, -4.13e-08
3051.0, -3.918e-08
3053.0, -3.827e-08
3055.1, -4.274e-08
3057.1, -4.318e-08
3059.1, -4.109e-08
3061.1, -4.002e-08
3063.1, -3.733e-08
3065.1, -4.218e-08
3067.1, -3.933e-08
3069.1, -3.781e-08
3071.1, 1.378e-08
3073.1, 1.279e-08
3075.1, 1.396e-08
3077.1, 4.85e-09
3079.1, 1.148e-08
3081.1, 8.2e-09
3083.1, 3.99e-09
3085.1, 1.45e-09
3087.1, 5.98e-09
3089.1, 1.58e-09
3091.1, 6.66e-09
3093.1, 1.425e-08
3095.1, 1.294e-08
3097.1, -3.8e-10
3099.1, 7.79e-09
3101.1, 1.092e-08
3103.1, 8.03e-09
3105.1, 1.733e-08
3107.1, 1.401e-08
3109.1, 1.586e-08
3111.1, 1.39e-08
3113.1, 1.144e-08
3115.1, 6.5e-09
3117.1, 8.66e-09
3119.1, 1.57e-09
3121.1, 4.71e-09
3123.1, 7.36e-09
3125.1, 8e-09
3127.1, 8.55e-09
3129.1, 1.075e-08
3131.1, 1.023e-08
3133.1, 1.309e-08
3135.1, 8.95e-09
3137.1, 1.058e-08
3139.1, 1.603e-08
3141.1, 1.199e-08
3143.1, 1.921e-08
3145.1, 1.552e-08
3147.1, 9.17e-09
3149.1, 1.242e-08
3151.1, 1.631e-08
3153.1, 1.489e-08
3155.2, 1.475e-08
3157.2, 1.453e-08
3159.2, 1.32e-08
3161.2, 1.655e-08
3163.2, 1.704e-08
3165.2, 1.013e-08
3167.2, 1.427e-08
3169.2, 1.753e-08
3171.2, 1.666e-08
3173.2, 1.458e-08
3175.2, 1.319e-08
3177.2, 1.269e-08
3179.2, 1.813e-08
3181.2, 1.584e-08
3183.2, 1.39e-08
3185.2, 1.112e-08
3187.2, 1.17e-08
3189.2, 1.256e-08
3191.2, 1.26e-08
3193.2, 1.577e-08
3195.2, 1.74e-08
3197.2, 1.084e-08
3199.2, 6.94e-09
3201.2, 1.447e-08
3203.2, 1.424e-08
3205.2, 1.256e-08
3207.2, 7.18e-09
3209.2, 1.376e-08
3211.2, 1.321e-08
3213.2, 1.377e-08
3215.2, 1.024e-08
3217.2, 1.658e-08
3219.2, 1.269e-08
3221.2, 1.231e-08
3223.2, 1.917e-08
3225.2, 1.041e-08
3227.2, 8.92e-09
3229.2, 1.226e-08
3231.2, 5.65e-09
3233.2, 8.97e-09
3235.2, 1.474e-08
3237.2, 1.071e-08
3239.2, 7.83e-09
3241.2, 1.019e-08
3243.2, 1.174e-08
3245.2, 1.069e-08
3247.2, 7.66e-09
3249.2, 1.426e-08
3251.2, 1.088e-08
3253.2, 1.953e-08
3255.3, 1.75e-08
3257.3, 1.359e-08
3259.3, 1.214e-08
3261.3, 1.455e-08
3263.3, 1.141e-08
3265.3, 1.969e-08
3267.3, 8.58e-09
3269.3, 1.252e-08
3271.3, 1.283e-08
3273.3, 1.086e-08
3275.3, 1.002e-08
3277.3, 2.37e-09
3279.3, 5.94e-09
3281.3, 3.45e-09
3283.3, 9.57e-09
3285.3, 1.582e-08
3287.3, 5.35e-09
3289.3, 1.467e-08
3291.3, 9.98e-09
3293.3, 1.304e-08
3295.3, 1.284e-08
3297.3, 1.089e-08
3299.3, 1.703e-08
3301.3, 1.495e-08
3303.3, 1.215e-08
3305.3, 1.204e-08
3307.3, 1.327e-08
3309.3, 1.594e-08
3311.3, 7.67e-09
3313.3, 1.508e-08
3315.3, 1.281e-08
3317.3, 1.156e-08
3319.3, 1.156e-08
3321.3, 1.392e-08
3323.3, 1.821e-08
3325.3, 1.791e-08
3327.3, 1.861e-08
3329.3, 1.798e-08
3331.3, 1.806e-08
3333.3, 1.615e-08
3335.3, 1.335e-08
3337.3, 1.1e-08
3339.3, 1.849e-08
3341.3, 1.549e-08
3343.3, 1.656e-08
3345.3, 2.009e-08
3347.3, 1.743e-08
3349.3, 1.343e-08
3351.3, 1.583e-08
3353.3, 1.821e-08
3355.4, 1.317e-08
3357.4, 1.531e-08
3359.4, 1.638e-08
3361.4, 6.82e-09
3363.4, 1.859e-08
3365.4, 1.908e-08
3367.4, 1.64e-08
3369.4, 1.724e-08
3371.4, 1.457e-08
3373.4, 1.802e-08
3375.4, 1.749e-08
3377.4, 2.004e-08
3379.4, 1.43e-08
3381.4, 1.554e-08
3383.4, 1.913e-08
3385.4, 2.006e-08
3387.4, 1.474e-08
3389.4, 1.321e-08
3391.4, 1.593e-08
3393.4, 1.554e-08
3395.4, 1.615e-08
3397.4, 1.182e-08
3399.4, 1.399e-08
3401.4, 1.367e-08
3403.4, 1.34e-08
3405.4, 2.007e-08
3407.4, 1.083e-08
3409.4, 1.805e-08
3411.4, 1.769e-08
3413.4, 1.552e-08
3415.4, 1.519e-08
3417.4, 2.14e-08
3419.4, 1.777e-08
3421.4, 1.605e-08
3423.4, 2.104e-08
3425.4, 2.016e-08
3427.4, 1.444e-08
3429.4, 1.936e-08
3431.4, 2.348e-08
3433.4, 1.635e-08
3435.4, 1.347e-08
3437.4, 1.023e-08
3439.4, 1.937e-08
3441.4, 2.345e-08
3443.4, 2.065e-08
3445.4, 1.65e-08
3447.4, 2.1e-08
3449.4, 1.759e-08
3451.4, 1.314e-08
3453.4, 1.847e-08
3455.5, 1.448e-08
3457.5, 1.274e-08
3459.5, 1.265e-08
3461.5, 1.802e-08
3463.5, 1.675e-08
3465.5, 2.009e-08
3467.5, 1.661e-08
3469.5, 1.75e-08
3471.5, 1.971e-08
3473.5, 1.635e-08
3475.5, 1.614e-08
3477.5, 2.068e-08
3479.5, 1.572e-08
3481.5, 2.161e-08
3483.5, 1.951e-08
3485.5, 1.868e-08
3487.5, 1.798e-08
3489.5, 1.757e-08
3491.5, 1.716e-08
3493.5, 1.375e-08
3495.5, 1.864e-08
3497.5, 1.488e-08
3499.5, 1.865e-08
3501.5, 1.653e-08
3503.5, 2.484e-08
3505.5, 1.969e-08
3507.5, 1.858e-08
3509.5, 1.585e-08
3511.5, 1.787e-08
3513.5, 2.176e-08
3515.5, 1.15e-08
3517.5, 1.398e-08
3519.5, 1.84e-08
3521.5, 2.004e-08
3523.5, 1.609e-08
3525.5, 1.835e-08
3527.5, 1.996e-08
3529.5, 1.432e-08
3531.5, 1.793e-08
3533.5, 1.599e-08
3535.5, 1.487e-08
3537.5, 2.136e-08
3539.5, 1.362e-08
3541.5, 1.877e-08
3543.5, 2.347e-08
3545.5, 1.992e-08
3547.5, 1.754e-08
3549.5, 2.291e-08
3551.5, 1.568e-08
3553.5, 2.115e-08
3555.6, 1.254e-08
3557.6, 1.263e-08
3559.6, 9.08e-09
3561.6, 1.591e-08
3563.6, 1.486e-08
3565.6, 1.328e-08
3567.6, 1.31e-08
3569.6, 1.146e-08
3571.6, 1.777e-08
3573.6, 1.977e-08
3575.6, 1.96e-08
3577.6, 1.705e-08
3579.6, 1.691e-08
3581.6, 1.307e-08
3583.6, 2.183e-08
3585.6, 1.739e-08
3587.6, 1.897e-08
3589.6, 2.262e-08
3591.6, 2.147e-08
3593.6, 1.963e-08
3595.6, 1.823e-08
3597.6, 2.201e-08
3599.6, 1.674e-08
3601.6, 1.89e-08
3603.6, 9.39e-09
3605.6, 1.967e-08
3607.6, 1.342e-08
3609.6, 1.334e-08
3611.6, 2.025e-08
3613.6, 1.72e-08
3615.6, 2.164e-08
3617.6, 1.446e-08
3619.6, 1.508e-08
3621.6, 2.095e-08
3623.6, 1.94e-08
3625.6, 2.535e-08
3627.6, 1.974e-08
3629.6, 1.744e-08
3631.6, 1.204e-08
3633.6, 1.525e-08
3635.6, 1.48e-08
3637.6, 2.373e-08
3639.6, 1.527e-08
3641.6, 1.663e-08
3643.6, 2.939e-08
3645.6, 1.573e-08
3647.6, 1.727e-08
3649.6, 2.099e-08
3651.6, 1.843e-08
3653.6, 1.359e-08
3655.7, 1.266e-08
3657.7, 1.575e-08
3659.7, 1.644e-08
3661.7, 1.605e-08
3663.7, 2.283e-08
3665.7, 1.785e-08
3667.7, 1.512e-08
3669.7, 1.609e-08
3671.7, 2.544e-08
3673.7, 1.652e-08
3675.7, 1.892e-08
3677.7, 1.964e-08
3679.7, 2.259e-08
3681.7, 1.703e-08
3683.7, 2.073e-08
3685.7, 8.65e-09
3687.7, 1.338e-08
3689.7, 1.067e-08
3691.7, 1.221e-08
3693.7, 1.888e-08
3695.7, 1.816e-08
3697.7, 1.632e-08
3699.7, 1.407e-08
3701.7, 1.538e-08
3703.7, 1.715e-08
3705.7, 1.429e-08
3707.7, 1.293e-08
3709.7, 1.345e-08
3711.7, 1.69e-08
3713.7, 1.199e-08
3715.7, 1.415e-08
3717.7, 1.87e-08
3719.7, 1.845e-08
3721.7, 1.708e-08
3723.7, 1.729e-08
3725.7, 1.752e-08
3727.7, 1.924e-08
3729.7, 1.935e-08
3731.7, 1.712e-08
3733.7, 1.92e-08
3735.7, 1.263e-08
3737.7, 2.208e-08
3739.7, 1.662e-08
3741.7, 1.785e-08
3743.7, 1.88e-08
3745.7, 1.792e-08
3747.7, 1.48e-08
3749.7, 2.294e-08
3751.7, 2.115e-08
3753.7, 1.404e-08
3755.8, 1.931e-08
3757.8, 2.504e-08
3759.8, 1.753e-08
3761.8, 2.254e-08
3763.8, 2.004e-08
3765.8, 7.13e-09
3767.8, 1.435e-08
3769.8, 1.5e-08
3771.8, 1.807e-08
3773.8, 1.662e-08
3775.8, 1.249e-08
3777.8, 1.367e-08
3779.8, 1.703e-08
3781.8, 1.248e-08
3783.8, 2.185e-08
3785.8, 1.263e-08
3787.8, 1.356e-08
3789.8, 1.981e-08
3791.8, 1.449e-08
3793.8, 1.081e-08
3795.8, 2e-08
3797.8, 1.815e-08
3799.8, 1.387e-08
3801.8, 1.5e-08
3803.8, 1.866e-08
3805.8, 1.743e-08
3807.8, 1.82e-08
3809.8, 1.304e-08
3811.8, 1.905e-08
3813.8, 2.132e-08
3815.8, 1.424e-08
3817.8, 1.48e-08
3819.8, 1.81e-08
3821.8, 1.88e-08
3823.8, 1.978e-08
3825.8, 1.701e-08
3827.8, 1.376e-08
3829.8, 1.738e-08
3831.8, 1.686e-08
3833.8, 2.367e-08
3835.8, 1.923e-08
3837.8, 1.213e-08
3839.8, 1.87e-08
3841.8, 1.275e-08
3843.8, 2.164e-08
3845.8, 2.429e-08
3847.8, 2.262e-08
3849.8, 1.673e-08
3851.8, 1.869e-08
3853.8, 1.359e-08
3855.9, 2.038e-08
3857.9, 2.253e-08
3859.9, 1.648e-08
3861.9, 1.759e-08
3863.9, 1.75e-08
3865.9, 2.51e-08
3867.9, 1.098e-08
3869.9, 1.921e-08
3871.9, 2.537e-08
3873.9, 1.561e-08
3875.9, 2.156e-08
3877.9, 2.513e-08
3879.9, 1.594e-08
3881.9, 1.931e-08
3883.9, 2.047e-08
3885.9, 1.719e-08
3887.9, 1.565e-08
3889.9, 2.211e-08
3891.9, 1.764e-08
3893.9, 1.709e-08
3895.9, 1.533e-08
3897.9, 1.668e-08
3899.9, 1.07e-08
3901.9, 1.878e-08
3903.9, 2.114e-08
3905.9, 1.611e-08
3907.9, 1.056e-08
3909.9, 1.299e-08
3911.9, 1.465e-08
3913.9, 1.612e-08
3915.9, 1.395e-08
3917.9, 1.832e-08
3919.9, 1.901e-08
3921.9, 2.166e-08
3923.9, 1.853e-08
3925.9, 1.912e-08
3927.9, 1.5e-08
3929.9, 1.573e-08
3931.9, 2.463e-08
3933.9, 2.03e-08
3935.9, 1.854e-08
3937.9, 1.835e-08
3939.9, 1.793e-08
3941.9, 1.809e-08
3943.9, 2.048e-08
3945.9, 1.806e-08
3947.9, 2.062e-08
3949.9, 1.679e-08
3951.9, 1.445e-08
3953.9, 1.208e-08
3956.0, 1.825e-08
3958.0, 1.516e-08
3960.0, 1.717e-08
3962.0, 1.695e-08
3964.0, 2.397e-08
3966.0, 1.471e-08
3968.0, 1.872e-08
3970.0, 1.798e-08
3972.0, 1.567e-08
3974.0, 1.813e-08
3976.0, 1.619e-08
3978.0, 2.337e-08
3980.0, 1.672e-08
3982.0, 1.929e-08
3984.0, 1.473e-08
3986.0, 1.22e-08
3988.0, 1.627e-08
3990.0, 1.48e-08
3992.0, 1.481e-08
3994.0, 1.705e-08
3996.0, 2.049e-08
3998.0, 1.715e-08
4000.0, 1.671e-08
4002.0, 1.404e-08
4004.0, 1.986e-08
4006.0, 1.669e-08
4008.0, 1.41e-08
4010.0, 1.612e-08
4012.0, 1.596e-08
4014.0, 1.558e-08
4016.0, 1.732e-08
4018.0, 1.869e-08
4020.0, 1.61e-08
4022.0, 1.596e-08
4024.0, 1.407e-08
4026.0, 1.48e-08
4028.0, 1.427e-08
4030.0, 1.014e-08
4032.0, 1.372e-08
4034.0, 2.631e-08
4036.0, 1.362e-08
4038.0, 1.86e-08
4040.0, 1.542e-08
4042.0, 1.819e-08
4044.0, 2.122e-08
4046.0, 1.319e-08
4048.0, 2.071e-08
4050.0, 1.387e-08
4052.0, 1.757e-08
4054.0, 2.079e-08
4056.1, 1.698e-08
4058.1, 1.117e-08
4060.1, 1.33e-08
4062.1, 1.716e-08
4064.1, 1.806e-08
4066.1, 2e-08
4068.1, 1.439e-08
4070.1, 1.652e-08
4072.1, -3.987e-08
4074.1, -3.816e-08
4076.1, -3.668e-08
4078.1, -3.554e-08
4080.1, -3.749e-08
4082.1, -3.628e-08
4084.1, -3.753e-08
4086.1, -3.599e-08
4088.1, -3.369e-08
4090.1, -3.479e-08
4092.1, -3.776e-08
4094.1, -3.769e-08
4096.1, -4.089e-08
4098.1, -3.686e-08
4100.1, -3.983e-08
4102.1, -3.586e-08
4104.1, -3.788e-08
4106.1, -3.579e-08
4108.1, -3.523e-08
4110.1, -3.492e-08
4112.1, -3.584e-08
4114.1, -3.793e-08
4116.1, -3.895e-08
4118.1, -3.493e-08
4120.1, -3.557e-08
4122.1, -3.319e-08
4124.1, -3.343e-08
4126.1, -3.301e-08
4128.1, -3.517e-08
4130.1, -3.874e-08
4132.1, -3.51e-08
4134.1, -3.619e-08
4136.1, -3.732e-08
4138.1, -3.701e-08
4140.1, -3.728e-08
4142.1, -3.784e-08
4144.1, -3.426e-08
4146.1, -3.6e-08
4148.1, -3.695e-08
4150.1, -2.954e-08
4152.1, -3.59e-08
4154.1, -3.794e-08
4156.2, -3.457e-08
4158.2, -3.591e-08
4160.2, -3.769e-08
4162.2, -3.692e-08
4164.2, -3.273e-08
4166.2, -3.376e-08
4168.2, -3.507e-08
4170.2, -3.641e-08
4172.2, -3.527e-08
4174.2, -3.676e-08
4176.2, -3.331e-08
4178.2, -3.795e-08
4180.2, -3.697e-08
4182.2, -3.703e-08
4184.2, -3.476e-08
4186.2, -3.357e-08
4188.2, -3.556e-08
4190.2, -3.507e-08
4192.2, -3.932e-08
4194.2, -3.368e-08
4196.2, -3.168e-08
4198.2, -3.41e-08
4200.2, -3.645e-08
4202.2, -3.841e-08
4204.2, -3.755e-08
4206.2, -3.377e-08
4208.2, -3.494e-08
4210.2, -3.701e-08
4212.2, -3.702e-08
4214.2, -3.453e-08
4216.2, -3.13e-08
4218.2, -3.423e-08
4220.2, -3.815e-08
4222.2, -3.68e-08
4224.2, -3.501e-08
4226.2, -4.02e-08
4228.2, -3.807e-08
4230.2, -4.031e-08
4232.2, -4.09e-08
4234.2, -4.071e-08
4236.2, -3.876e-08
4238.2, -3.815e-08
4240.2, -4.361e-08
4242.2, -3.999e-08
4244.2, -3.769e-08
4246.2, -3.823e-08
4248.2, -4.019e-08
4250.2, -3.879e-08
4252.2, -3.878e-08
4254.2, -4.036e-08
4256.3, -3.861e-08
4258.3, -3.686e-08
4260.3, -3.886e-08
4262.3, -3.759e-08
4264.3, -3.807e-08
4266.3, -4.128e-08
4268.3, -3.757e-08
4270.3, -4.179e-08
4272.3, -3.74e-08
4274.3, -3.744e-08
4276.3, -3.459e-08
4278.3, -3.715e-08
4280.3, -3.831e-08
4282.3, -3.945e-08
4284.3, -3.867e-08
4286.3, -4.014e-08
4288.3, -3.977e-08
4290.3, -3.648e-08
4292.3, -3.894e-08
4294.3, -3.7e-08
4296.3, -3.644e-08
4298.3, -3.804e-08
4300.3, -3.745e-08
4302.3, -4.111e-08
4304.3, -3.991e-08
4306.3, -3.82e-08
4308.3, -3.797e-08
4310.3, -3.843e-08
4312.3, -3.962e-08
4314.3, -4.034e-08
4316.3, -3.807e-08
4318.3, -3.974e-08
4320.3, -3.909e-08
4322.3, -4.004e-08
4324.3, -3.901e-08
4326.3, -3.679e-08
4328.3, -3.813e-08
4330.3, -3.984e-08
4332.3, -3.852e-08
4334.3, -3.764e-08
4336.3, -4.132e-08
4338.3, -4.092e-08
4340.3, -3.813e-08
4342.3, -4.022e-08
4344.3, -4.03e-08
4346.3, -3.931e-08
4348.3, -4.023e-08
4350.3, -3.783e-08
4352.3, -3.808e-08
4354.3, -3.765e-08
4356.4, -3.791e-08
4358.4, -3.658e-08
4360.4, -3.796e-08
4362.4, -3.791e-08
4364.4, -3.653e-08
4366.4, -3.95e-08
4368.4, -3.902e-08
4370.4, -4.187e-08
4372.4, -4.135e-08
4374.4, -4.269e-08
4376.4, -3.719e-08
4378.4, -4.062e-08
4380.4, -3.719e-08
4382.4, -3.713e-08
4384.4, -3.801e-08
4386.4, -3.764e-08
4388.4, -4.019e-08
4390.4, -4.002e-08
4392.4, -3.61e-08
4394.4, -3.895e-08
4396.4, -3.954e-08
4398.4, -4.066e-08
4400.4, -4.027e-08
4402.4, -3.962e-08
4404.4, -3.75e-08
4406.4, -3.91e-08
4408.4, -3.996e-08
4410.4, -3.931e-08
4412.4, -4.055e-08
4414.4, -4.313e-08
4416.4, -3.879e-08
4418.4, -4.062e-08
4420.4, -3.955e-08
4422.4, -4.009e-08
4424.4, -4.304e-08
4426.4, -4.11e-08
4428.4, -4.552e-08
4430.4, -4.41e-08
4432.4, -4.323e-08
4434.4, -4.174e-08
4436.4, -4.029e-08
4438.4, -4.135e-08
4440.4, -4.154e-08
4442.4, -4.296e-08
4444.4, -3.838e-08
4446.4, -3.891e-08
4448.4, -4.03e-08
4450.4, -4.501e-08
4452.4, -4.352e-08
4454.4, -4.286e-08
4456.5, -4.537e-08
4458.5, -4.389e-08
4460.5, -4.463e-08
4462.5, -4.042e-08
4464.5, -3.575e-08
4466.5, -4.061e-08
4468.5, -4.084e-08
4470.5, -4.185e-08
4472.5, -3.893e-08
4474.5, -3.765e-08
4476.5, -3.722e-08
4478.5, -3.949e-08
4480.5, -4.095e-08
4482.5, -4.219e-08
4484.5, -4.408e-08
4486.5, -4.259e-08
4488.5, -4.242e-08
4490.5, -3.934e-08
4492.5, -4.419e-08
4494.5, -4.481e-08
4496.5, -4.404e-08
4498.5, -4.011e-08
4500.5, -4.208e-08
4502.5, -3.794e-08
4504.5, -4.114e-08
4506.5, -4.252e-08
4508.5, -4.243e-08
4510.5, -3.99e-08
4512.5, -3.853e-08
4514.5, -3.753e-08
4516.5, -3.819e-08
4518.5, -4.191e-08
4520.5, -4.239e-08
4522.5, -3.774e-08
4524.5, -3.781e-08
4526.5, -3.786e-08
4528.5, -3.954e-08
4530.5, -4.019e-08
4532.5, -3.793e-08
4534.5, -3.821e-08
4536.5, -4.305e-08
4538.5, -4.02e-08
4540.5, -3.938e-08
4542.5, -4.302e-08
4544.5, -4.035e-08
4546.5, -4.232e-08
4548.5, -3.993e-08
4550.5, -3.955e-08
4552.5, -3.986e-08
4554.5, -3.804e-08
4556.6, -3.665e-08
4558.6, -4.204e-08
4560.6, -3.96e-08
4562.6, -3.943e-08
4564.6, -4.182e-08
4566.6, -4.02e-08
4568.6, -4.107e-08
4570.6, -4.564e-08
4572.6, -4.189e-08
4574.6, -3.793e-08
4576.6, -3.958e-08
4578.6, -3.879e-08
4580.6, -4.022e-08
4582.6, -4.171e-08
4584.6, -3.875e-08
4586.6, -3.933e-08
4588.6, -4.151e-08
4590.6, -4.107e-08
4592.6, -4.047e-08
4594.6, -3.865e-08
4596.6, -3.89e-08
4598.6, -3.725e-08
4600.6, -3.901e-08
4602.6, -4.024e-08
4604.6, -4.159e-08
4606.6, -4.065e-08
4608.6, -4e-08
4610.6, -3.773e-08
4612.6, -3.726e-08
4614.6, -3.84e-08
4616.6, -3.893e-08
4618.6, -3.959e-08
4620.6, -4.273e-08
4622.6, -4.365e-08
4624.6, -4.219e-08
4626.6, -4.495e-08
4628.6, -4.194e-08
4630.6, -3.891e-08
4632.6, -3.895e-08
4634.6, -3.693e-08
4636.6, -3.888e-08
4638.6, -4.175e-08
4640.6, -4.254e-08
4642.6, -4.467e-08
4644.6, -4.093e-08
4646.6, -4.217e-08
4648.6, -4.279e-08
4650.6, -4.361e-08
4652.6, -4.555e-08
4654.6, -4.281e-08
4656.7, -4.297e-08
4658.7, -4.104e-08
4660.7, -4.11e-08
4662.7, -4.472e-08
4664.7, -3.652e-08
4666.7, -4.34e-08
4668.7, -4.066e-08
4670.7, -4.348e-08
4672.7, -4.226e-08
4674.7, -4.226e-08
4676.7, -4.272e-08
4678.7, -4e-08
4680.7, -3.92e-08
4682.7, -4.174e-08
4684.7, -4.137e-08
4686.7, -4.174e-08
4688.7, -4.19e-08
4690.7, -4.371e-08
4692.7, -4.4e-08
4694.7, -3.814e-08
4696.7, -3.947e-08
4698.7, -3.964e-08
4700.7, -4.121e-08
4702.7, -3.912e-08
4704.7, -3.551e-08
4706.7, -3.607e-08
4708.7, -4.033e-08
4710.7, -4.38e-08
4712.7, -3.866e-08
4714.7, -3.763e-08
4716.7, -3.822e-08
4718.7, -3.937e-08
4720.7, -4.083e-08
4722.7, -3.761e-08
4724.7, -4.115e-08
4726.7, -3.908e-08
4728.7, -3.916e-08
4730.7, -3.775e-08
4732.7, -3.723e-08
4734.7, -3.801e-08
4736.7, -3.941e-08
4738.7, -3.976e-08
4740.7, -3.852e-08
4742.7, -4.166e-08
4744.7, -4.353e-08
4746.7, -4.109e-08
4748.7, -3.661e-08
4750.7, -4.147e-08
4752.7, -3.839e-08
4754.7, -3.813e-08
4756.8, -3.966e-08
4758.8, -3.973e-08
4760.8, -4.233e-08
4762.8, -4.423e-08
4764.8, -3.952e-08
4766.8, -3.901e-08
4768.8, -4.052e-08
4770.8, -3.988e-08
4772.8, -4.17e-08
4774.8, -3.645e-08
4776.8, -3.811e-08
4778.8, -3.951e-08
4780.8, -3.397e-08
4782.8, -3.729e-08
4784.8, -3.656e-08
4786.8, -3.726e-08
4788.8, -3.897e-08
4790.8, -3.899e-08
4792.8, -3.878e-08
4794.8, -3.736e-08
4796.8, -4.149e-08
4798.8, -4.163e-08
4800.8, -4.146e-08
4802.8, -4.129e-08
4804.8, -4.103e-08
4806.8, -3.978e-08
4808.8, -4.216e-08
4810.8, -4.126e-08
4812.8, -4.105e-08
4814.8, -4.017e-08
4816.8, -4.098e-08
4818.8, -4.35e-08
4820.8, -4.218e-08
4822.8, -4.474e-08
4824.8, -4.137e-08
4826.8, -4.315e-08
4828.8, -4.676e-08
4830.8, -4.113e-08
4832.8, -4.318e-08
4834.8, -4.456e-08
4836.8, -4.569e-08
4838.8, -4.27e-08
4840.8, -4.597e-08
4842.8, -4.188e-08
4844.8, -4.082e-08
4846.8, -4.314e-08
4848.8, -4.386e-08
4850.8, -4.223e-08
4852.8, -4.121e-08
4854.8, -3.853e-08
4856.9, -4.274e-08
4858.9, -4.227e-08
4860.9, -4.318e-08
4862.9, -4.491e-08
4864.9, -4.566e-08
4866.9, -4.613e-08
4868.9, -4.159e-08
4870.9, -4.779e-08
4872.9, -4.523e-08
4874.9, -4.392e-08
4876.9, -4.551e-08
4878.9, -4.186e-08
4880.9, -4.924e-08
4882.9, -4.961e-08
4884.9, -4.085e-08
4886.9, -4.313e-08
4888.9, -4.156e-08
4890.9, -3.813e-08
4892.9, -3.949e-08
4894.9, -4.024e-08
4896.9, -4.161e-08
4898.9, -4.299e-08
4900.9, -4.287e-08
4902.9, -4.506e-08
4904.9, -4.098e-08
4906.9, -4.561e-08
4908.9, -4.045e-08
4910.9, -4.19e-08
4912.9, -3.834e-08
4914.9, -3.614e-08
4916.9, -4.086e-08
4918.9, -4.246e-08
4920.9, -3.99e-08
4922.9, -3.447e-08
4924.9, -3.409e-08
4926.9, -3.409e-08
4928.9, -3.475e-08
4930.9, -3.711e-08
4932.9, -3.653e-08
4934.9, -3.615e-08
4936.9, -3.426e-08
4938.9, -3.974e-08
4940.9, -3.974e-08
4942.9, -3.935e-08
4944.9, -3.749e-08
4946.9, -3.71e-08
4948.9, -4.098e-08
4950.9, -3.716e-08
4952.9, -4.26e-08
4954.9, -3.813e-08
4957.0, -4.231e-08
4959.0, -4.04e-08
4961.0, -4.008e-08
4963.0, -3.831e-08
4965.0, -3.696e-08
4967.0, -3.837e-08
4969.0, -3.823e-08
4971.0, -3.918e-08
4973.0, -3.876e-08
4975.0, -4.234e-08
4977.0, -3.738e-08
4979.0, -3.948e-08
4981.0, -3.922e-08
4983.0, -4.048e-08
4985.0, -4.027e-08
4987.0, -4.137e-08
4989.0, -4.134e-08
4991.0, -3.732e-08
4993.0, -3.776e-08
4995.0, -3.959e-08
4997.0, -3.606e-08
4999.0, -3.67e-08
5001.0, -4.091e-08
5003.0, -4.061e-08
5005.0, -3.956e-08
5007.0, -3.941e-08
5009.0, -3.505e-08
5011.0, -3.876e-08
5013.0, -3.984e-08
5015.0, -3.877e-08
5017.0, -4.126e-08
5019.0, -3.532e-08
5021.0, -3.736e-08
5023.0, -4.017e-08
5025.0, -3.504e-08
5027.0, -3.756e-08
5029.0, -4.066e-08
5031.0, -4.059e-08
5033.0, -3.96e-08
5035.0, -3.882e-08
5037.0, -3.978e-08
5039.0, -4.162e-08
5041.0, -3.933e-08
5043.0, -4.063e-08
5045.0, -3.791e-08
5047.0, -3.84e-08
5049.0, -3.686e-08
5051.0, -3.698e-08
5053.0, -3.606e-08
5055.0, -3.586e-08
5057.1, -3.821e-08
5059.1, -3.806e-08
5061.1, -4.063e-08
5063.1, -3.713e-08
5065.1, -4.053e-08
5067.1, -3.948e-08
5069.1, -3.706e-08
5071.1, -3.731e-08
5073.1, -3.789e-08
5075.1, -4.161e-08
5077.1, -4.235e-08
5079.1, -3.916e-08
5081.1, -3.917e-08
5083.1, -4.273e-08
5085.1, -4.254e-08
5087.1, -4.032e-08
5089.1, -4.326e-08
5091.1, -3.697e-08
5093.1, -3.758e-08
5095.1, -3.797e-08
5097.1, -3.971e-08
5099.1, -3.97e-08
5101.1, -4.149e-08
5103.1, -4.048e-08
5105.1, -4.298e-08
5107.1, -4.032e-08
5109.1, -3.875e-08
5111.1, -4.027e-08
5113.1, -4.294e-08
5115.1, -3.878e-08
5117.1, -4.042e-08
5119.1, -3.947e-08
5121.1, -4.709e-08
5123.1, -4.458e-08
5125.1, -3.877e-08
5127.1, -3.856e-08
5129.1, -4.217e-08
5131.1, -4.244e-08
5133.1, -3.982e-08
5135.1, -4.198e-08
5137.1, -1.409e-08
5139.1, 3.01e-09
5141.1, -6e-11
5143.1, 4.78e-09
5145.1, 5.37e-09
5147.1, 4.41e-09
5149.1, 5.4e-09
5151.1, -3.5e-10
5153.1, 1.081e-08
5155.1, 6.26e-09
5157.2, 1.074e-08
5159.2, 6.21e-09
5161.2, 2.19e-09
5163.2, 1.335e-08
5165.2, 1.309e-08
5167.2, 2.44e-09
5169.2, 7.03e-09
5171.2, 6.52e-09
5173.2, 7.99e-09
5175.2, 1.294e-08
5177.2, 7.12e-09
5179.2, 3.15e-09
5181.2, 9.62e-09
5183.2, 1.67e-09
5185.2, 3.61e-09
5187.2, 5.1e-09
5189.2, 3.77e-09
5191.2, -1.17e-09
5193.2, 1.231e-08
5195.2, 2.99e-09
5197.2, 7.51e-09
5199.2, 1.075e-08
5201.2, 3.12e-09
5203.2, 1.518e-08
5205.2, 4.17e-09
5207.2, 3.67e-09
5209.2, -2.2e-10
5211.2, 2.53e-09
5213.2, 1.317e-08
5215.2, 1.68e-09
5217.2, 8.79e-09
5219.2, 9.7e-09
5221.2, 9.21e-09
5223.2, 9.72e-09
5225.2, 1.316e-08
5227.2, 1.342e-08
5229.2, 1.047e-08
5231.2, 7.49e-09
5233.2, 9.43e-09
5235.2, 1.555e-08
5237.2, 1.434e-08
5239.2, 1.244e-08
5241.2, 1.044e-08
5243.2, 5.35e-09
5245.2, 9.74e-09
5247.2, 1.334e-08
5249.2, 6.62e-09
5251.2, 1.184e-08
5253.2, 1.123e-08
5255.2, 7.54e-09
5257.3, 1.072e-08
5259.3, 1.088e-08
5261.3, 8.86e-09
5263.3, 1.258e-08
5265.3, 1.161e-08
5267.3, 7.62e-09
5269.3, 1.159e-08
5271.3, 1.215e-08
5273.3, 9.79e-09
5275.3, 1.087e-08
5277.3, 9.56e-09
5279.3, 1.011e-08
5281.3, 1.314e-08
5283.3, 9.74e-09
5285.3, 1.098e-08
5287.3, 1.456e-08
5289.3, 7.07e-09
5291.3, 1.36e-08
5293.3, 7.83e-09
5295.3, 6.47e-09
5297.3, 9.8e-09
5299.3, 7.55e-09
5301.3, 8.45e-09
5303.3, 8.51e-09
5305.3, 6.98e-09
5307.3, 1.055e-08
5309.3, 1.126e-08
5311.3, 8.6e-09
5313.3, 1.616e-08
5315.3, 1.591e-08
5317.3, 1.299e-08
5319.3, 9.79e-09
5321.3, 9.86e-09
5323.3, 1.247e-08
5325.3, 1.343e-08
5327.3, 1.407e-08
5329.3, 4.38e-09
5331.3, 1.038e-08
5333.3, 6.44e-09
5335.3, 1.245e-08
5337.3, 7.77e-09
5339.3, 1.977e-08
5341.3, 1.012e-08
5343.3, 1.165e-08
5345.3, 1.346e-08
5347.3, 2.234e-08
5349.3, 1.491e-08
5351.3, 1.819e-08
5353.3, 1.678e-08
5355.3, 1.314e-08
5357.4, 1.839e-08
5359.4, 1.527e-08
5361.4, 1.154e-08
5363.4, 4.95e-09
5365.4, 1.12e-08
5367.4, 7.63e-09
5369.4, 1.28e-08
5371.4, 2.02e-08
5373.4, 1.332e-08
5375.4, 1.27e-08
5377.4, 1.006e-08
5379.4, 1.769e-08
5381.4, 1.73e-08
5383.4, 1.65e-08
5385.4, 1.799e-08
5387.4, 1.114e-08
5389.4, 1.933e-08
5391.4, 1.137e-08
5393.4, 1.544e-08
5395.4, 1.022e-08
5397.4, 9.02e-09
5399.4, 1.792e-08
5401.4, 1.124e-08
5403.4, 6.48e-09
5405.4, 1.444e-08
5407.4, 1.838e-08
5409.4, 2.52e-08
5411.4, 1.616e-08
5413.4, 1.842e-08
5415.4, 1.874e-08
5417.4, 1.244e-08
5419.4, 9.21e-09
5421.4, 1.632e-08
5423.4, 1.464e-08
5425.4, 1.843e-08
5427.4, 2.204e-08
5429.4, 1.905e-08
5431.4, 9.77e-09
5433.4, 9.11e-09
5435.4, 1.25e-08
5437.4, 9e-09
5439.4, 1.5e-08
5441.4, 9.56e-09
5443.4, 8.55e-09
5445.4, 1.202e-08
5447.4, 1.553e-08
5449.4, 8.36e-09
5451.4, 6.63e-09
5453.4, 1.189e-08
5455.4, 1.498e-08
5457.5, 1.832e-08
5459.5, 1.093e-08
5461.5, 1.347e-08
5463.5, 1.403e-08
5465.5, 1.326e-08
5467.5, 1.313e-08
5469.5, 1.361e-08
5471.5, 1.493e-08
5473.5, 1.307e-08
5475.5, 2.114e-08
5477.5, 1.238e-08
5479.5, 1.593e-08
5481.5, 1.6e-08
5483.5, 1.667e-08
5485.5, 9.1e-09
5487.5, 1.502e-08
5489.5, 2.296e-08
5491.5, 1.601e-08
5493.5, 2.178e-08
5495.5, 1.717e-08
5497.5, 1.352e-08
5499.5, 2.018e-08
5501.5, 1.574e-08
5503.5, 1.943e-08
5505.5, 2.265e-08
5507.5, 1.667e-08
5509.5, 2.05e-08
5511.5, 1.615e-08
5513.5, 1.921e-08
5515.5, 1.776e-08
5517.5, 1.463e-08
5519.5, 2.27e-08
5521.5, 1.743e-08
5523.5, 2.2e-08
5525.5, 1.449e-08
5527.5, 1.492e-08
5529.5, 1.435e-08
5531.5, 1.218e-08
5533.5, 8.39e-09
5535.5, 1.676e-08
5537.5, 1.131e-08
5539.5, 1.923e-08
5541.5, 1.284e-08
5543.5, 2.266e-08
5545.5, 2.41e-08
5547.5, 2.386e-08
5549.5, 1.163e-08
5551.5, 1.075e-08
5553.5, 9.68e-09
5555.5, 1.254e-08
5557.6, 1.723e-08
5559.6, 9.45e-09
5561.6, 2.164e-08
5563.6, 1.776e-08
5565.6, 9.55e-09
5567.6, 1.159e-08
5569.6, 1.473e-08
5571.6, 1.162e-08
5573.6, 1.524e-08
5575.6, 8.36e-09
5577.6, 1.315e-08
5579.6, 1.178e-08
5581.6, 1.22e-08
5583.6, 2.289e-08
5585.6, 1.789e-08
5587.6, 1.538e-08
5589.6, 1.402e-08
5591.6, 9.26e-09
5593.6, 1.266e-08
5595.6, 1.252e-08
5597.6, 1.62e-08
5599.6, 1.204e-08
5601.6, 1.431e-08
5603.6, 1.758e-08
5605.6, 1.507e-08
5607.6, 1.261e-08
5609.6, 1.593e-08
5611.6, 1.29e-08
5613.6, 1.394e-08
5615.6, 1.008e-08
5617.6, 1.655e-08
5619.6, 1.448e-08
5621.6, 1.654e-08
5623.6, 2.117e-08
5625.6, 1.144e-08
5627.6, 1.293e-08
5629.6, 1.448e-08
5631.6, 1.564e-08
5633.6, 1.449e-08
5635.6, 1.313e-08
5637.6, 1.133e-08
5639.6, 1.061e-08
5641.6, 1.412e-08
5643.6, 7.04e-09
5645.6, 1.459e-08
5647.6, 1.003e-08
5649.6, 1.353e-08
5651.6, 1.581e-08
5653.6, 1.048e-08
5655.6, 1.244e-08
5657.7, 1.445e-08
5659.7, 8.23e-09
5661.7, 1.036e-08
5663.7, 1.238e-08
5665.7, 1.866e-08
5667.7, 1.258e-08
5669.7, 1.175e-08
5671.7, 1.154e-08
5673.7, 1.143e-08
5675.7, 1.189e-08
5677.7, 1.717e-08
5679.7, 1.448e-08
5681.7, 7.69e-09
5683.7, 1.485e-08
5685.7, 2.008e-08
5687.7, 1.333e-08
5689.7, 1.087e-08
5691.7, 1.404e-08
5693.7, 1.955e-08
5695.7, 1.733e-08
5697.7, 1.486e-08
5699.7, 1.385e-08
5701.7, 1.223e-08
5703.7, 1.42e-08
5705.7, 1.164e-08
5707.7, 8.73e-09
5709.7, 1.513e-08
5711.7, 6.28e-09
5713.7, 1.273e-08
5715.7, 1.181e-08
5717.7, 1.098e-08
5719.7, 1.916e-08
5721.7, 5.35e-09
5723.7, 6.92e-09
5725.7, 7.72e-09
5727.7, 1.157e-08
5729.7, 1.723e-08
5731.7, 1.416e-08
5733.7, 1.529e-08
5735.7, 1.456e-08
5737.7, 1.75e-08
5739.7, 1.154e-08
5741.7, 1.978e-08
5743.7, 1.787e-08
5745.7, 1.773e-08
5747.7, 1.681e-08
5749.7, 1.375e-08
5751.7, 1.832e-08
5753.7, 1.551e-08
5755.7, 1.65e-08
5757.8, 1.367e-08
5759.8, 1.574e-08
5761.8, 1.21e-08
5763.8, 7.43e-09
5765.8, 1.574e-08
5767.8, 1.547e-08
5769.8, 1.553e-08
5771.8, 1.474e-08
5773.8, 1.303e-08
5775.8, 1.132e-08
5777.8, 1.704e-08
5779.8, 1.679e-08
5781.8, 1.179e-08
5783.8, 1.077e-08
5785.8, 9.71e-09
5787.8, 1.021e-08
5789.8, 1.424e-08
5791.8, 1.838e-08
5793.8, 5.89e-09
5795.8, 1.272e-08
5797.8, 1.781e-08
5799.8, 1.518e-08
5801.8, 1.536e-08
5803.8, 1.425e-08
5805.8, 1.2e-08
5807.8, 1.447e-08
5809.8, 1.507e-08
5811.8, 2.234e-08
5813.8, 1.458e-08
5815.8, 1.701e-08
5817.8, 1.647e-08
5819.8, 1.863e-08
5821.8, 1.938e-08
5823.8, 1.694e-08
5825.8, 1.911e-08
5827.8, 1.686e-08
5829.8, 1.736e-08
5831.8, 2.334e-08
5833.8, 2.002e-08
5835.8, 9.95e-09
5837.8, 1.53e-08
5839.8, 1.806e-08
5841.8, 1.706e-08
5843.8, 1.45e-08
5845.8, 1.928e-08
5847.8, 1.179e-08
5849.8, 1.928e-08
5851.8, 1.433e-08
5853.8, 9.19e-09
5855.8, 1.522e-08
5857.9, 1.717e-08
5859.9, 1.35e-08
5861.9, 1.797e-08
5863.9, 1.592e-08
5865.9, 1.841e-08
5867.9, 1.443e-08
5869.9, 1.4e-08
5871.9, 1.702e-08
5873.9, 1.125e-08
5875.9, 1.559e-08
5877.9, 1.08e-08
5879.9, 1.773e-08
5881.9, 1.145e-08
5883.9, 9.1e-09
5885.9, 2.428e-08
5887.9, 1.466e-08
5889.9, 1.933e-08
5891.9, 1.173e-08
5893.9, 1.202e-08
5895.9, 1.069e-08
5897.9, 9.23e-09
5899.9, 1.64e-08
5901.9, 1.184e-08
5903.9, 8.25e-09
5905.9, 2.38e-08
5907.9, 1.29e-08
5909.9, 1.412e-08
5911.9, 1.141e-08
5913.9, 1.195e-08
5915.9, 1.146e-08
5917.9, 1.892e-08
5919.9, 1.547e-08
5921.9, 1.238e-08
5923.9, 1.277e-08
5925.9, 1.304e-08
5927.9, 1.272e-08
5929.9, 1.301e-08
5931.9, 4.23e-09
5933.9, 1.118e-08
5935.9, 1.626e-08
5937.9, 1.723e-08
5939.9, 1.476e-08
5941.9, 1.42e-08
5943.9, 1.889e-08
5945.9, 1.938e-08
5947.9, 1.273e-08
5949.9, 2.011e-08
5951.9, 1.104e-08
5953.9, 1.604e-08
5955.9, 1.852e-08
5958.0, 1.487e-08
5960.0, 1.454e-08
5962.0, 1.475e-08
5964.0, 1.725e-08
5966.0, 1.648e-08
5968.0, 1.019e-08
5970.0, 1.206e-08
5972.0, 1.652e-08
5974.0, 1.865e-08
5976.0, 1.985e-08
5978.0, 1.796e-08
5980.0, 1.822e-08
5982.0, 1.256e-08
5984.0, 1.381e-08
5986.0, 1.445e-08
5988.0, 1.606e-08
5990.0, 1.608e-08
5992.0, 1.553e-08
5994.0, 1.076e-08
5996.0, 2.065e-08
5998.0, 1.049e-08
6000.0, 1.745e-08
6002.0, 1.566e-08
6004.0, 1.103e-08
6006.0, 1.318e-08
6008.0, 1.147e-08
6010.0, 1.669e-08
6012.0, 8.74e-09
6014.0, 1.469e-08
6016.0, 8.86e-09
6018.0, 1.394e-08
6020.0, 1.563e-08
6022.0, 9.81e-09
6024.0, 1.005e-08
6026.0, 1.76e-08
6028.0, 1.503e-08
6030.0, 1.349e-08
6032.0, 1.636e-08
6034.0, 7.05e-09
6036.0, 1.34e-08
6038.0, 1.044e-08
6040.0, 1.473e-08
6042.0, 9.66e-09
6044.0, 2.038e-08
6046.0, 1.363e-08
6048.0, 1.881e-08
6050.0, 1.287e-08
6052.0, 1.75e-08
6054.0, 1.03e-08
6056.0, 1.341e-08
6058.1, 1.636e-08
6060.1, 1.301e-08
6062.1, 2.215e-08
6064.1, 1.786e-08
6066.1, 1.217e-08
6068.1, 1.058e-08
6070.1, 1.48e-08
6072.1, 1.43e-08
6074.1, 1.333e-08
6076.1, 1.448e-08
6078.1, 1.269e-08
6080.1, 1.532e-08
6082.1, 1.59e-08
6084.1, 1.374e-08
6086.1, 1.261e-08
6088.1, 2.093e-08
6090.1, 1.426e-08
6092.1, 1.187e-08
6094.1, 1.883e-08
6096.1, 7.04e-09
6098.1, 1.291e-08
6100.1, 1.795e-08
6102.1, 1.5e-08
6104.1, 2.24e-08
6106.1, 2.035e-08
6108.1, 1.688e-08
6110.1, 1.312e-08
6112.1, 1.316e-08
6114.1, 1.247e-08
6116.1, 1.385e-08
6118.1, 1.434e-08
6120.1, 2.465e-08
6122.1, 1.561e-08
6124.1, 1.937e-08
6126.1, 1.829e-08
6128.1, 1.619e-08
6130.1, 1.34e-08
6132.1, 1.482e-08
6134.1, 1.536e-08
6136.1, 2.056e-08
6138.1, -7.1e-09
6140.1, -3.84e-08
6142.1, -3.892e-08
6144.1, -4.133e-08
6146.1, -3.761e-08
6148.1, -3.775e-08
6150.1, -3.701e-08
6152.1, -3.939e-08
6154.1, -3.95e-08
6156.1, -3.671e-08
6158.2, -3.73e-08
6160.2, -3.628e-08
6162.2, -3.922e-08
6164.2, -4.013e-08
6166.2, -4.226e-08
6168.2, -3.743e-08
6170.2, -3.83e-08
6172.2, -3.475e-08
6174.2, -3.59e-08
6176.2, -3.875e-08
6178.2, -3.814e-08
6180.2, -3.783e-08
6182.2, -3.581e-08
6184.2, -3.88e-08
6186.2, -3.422e-08
6188.2, -3.548e-08
6190.2, -3.181e-08
6192.2, -3.402e-08
6194.2, -3.736e-08
6196.2, -3.578e-08
6198.2, -3.609e-08
6200.2, -3.422e-08
6202.2, -3.732e-08
6204.2, -3.87e-08
6206.2, -4.38e-08
6208.2, -3.807e-08
6210.2, -3.854e-08
6212.2, -3.779e-08
6214.2, -3.755e-08
6216.2, -3.973e-08
6218.2, -4.012e-08
6220.2, -4.084e-08
6222.2, -4.084e-08
6224.2, -4.125e-08
6226.2, -3.856e-08
6228.2, -3.728e-08
6230.2, -3.68e-08
6232.2, -4.148e-08
6234.2, -3.976e-08
6236.2, -3.656e-08
6238.2, -4.01e-08
6240.2, -4.169e-08
6242.2, -3.97e-08
6244.2, -4.386e-08
6246.2, -4.14e-08
6248.2, -4.237e-08
6250.2, -4.096e-08
6252.2, -3.816e-08
6254.2, -3.669e-08
6256.2, -3.805e-08
6258.3, -3.713e-08
6260.3, -3.348e-08
6262.3, -3.473e-08
6264.3, -3.482e-08
6266.3, -3.797e-08
6268.3, -3.914e-08
6270.3, -3.875e-08
6272.3, -4.122e-08
6274.3, -4.285e-08
6276.3, -3.755e-08
6278.3, -3.913e-08
6280.3, -3.955e-08
6282.3, -4.114e-08
6284.3, -4.04e-08
6286.3, -4.105e-08
6288.3, -3.867e-08
6290.3, -3.887e-08
6292.3, -3.908e-08
6294.3, -3.736e-08
6296.3, -3.806e-08
6298.3, -3.408e-08
6300.3, -3.542e-08
6302.3, -3.843e-08
6304.3, -3.86e-08
6306.3, -3.564e-08
6308.3, -4.006e-08
6310.3, -3.563e-08
6312.3, -3.583e-08
6314.3, -3.878e-08
6316.3, -3.629e-08
6318.3, -3.804e-08
6320.3, -4.112e-08
6322.3, -3.726e-08
6324.3, -3.965e-08
6326.3, -3.422e-08
6328.3, -3.97e-08
6330.3, -3.934e-08
6332.3, -4.012e-08
6334.3, -4.221e-08
6336.3, -4.04e-08
6338.3, -4.015e-08
6340.3, -3.873e-08
6342.3, -3.695e-08
6344.3, -3.481e-08
6346.3, -3.572e-08
6348.3, -3.69e-08
6350.3, -3.902e-08
6352.3, -3.874e-08
6354.3, -4.184e-08
6356.3, -4.602e-08
6358.4, -3.976e-08
6360.4, -4.083e-08
6362.4, -4.072e-08
6364.4, -3.768e-08
6366.4, -3.908e-08
6368.4, -3.612e-08
6370.4, -3.585e-08
6372.4, -3.939e-08
6374.4, -4.059e-08
6376.4, -3.855e-08
6378.4, -3.592e-08
6380.4, -3.482e-08
6382.4, -3.578e-08
6384.4, -3.675e-08
6386.4, -4.128e-08
6388.4, -3.818e-08
6390.4, -3.671e-08
6392.4, -3.614e-08
6394.4, -4.171e-08
6396.4, -3.878e-08
6398.4, -3.936e-08
6400.4, -3.741e-08
6402.4, -3.801e-08
6404.4, -3.889e-08
6406.4, -3.789e-08
6408.4, -3.821e-08
6410.4, -3.628e-08
6412.4, -4.186e-08
6414.4, -4.277e-08
6416.4, -3.715e-08
6418.4, -4.023e-08
6420.4, -4.074e-08
6422.4, -3.897e-08
6424.4, -4.143e-08
6426.4, -3.767e-08
6428.4, -3.605e-08
6430.4, -3.902e-08
6432.4, -3.84e-08
6434.4, -3.703e-08
6436.4, -3.482e-08
6438.4, -3.518e-08
6440.4, -3.654e-08
6442.4, -3.999e-08
6444.4, -3.84e-08
6446.4, -4.176e-08
6448.4, -3.854e-08
6450.4, -3.962e-08
6452.4, -3.834e-08
6454.4, -3.512e-08
6456.4, -3.745e-08
6458.5, -3.531e-08
6460.5, -3.658e-08
6462.5, -3.59e-08
6464.5, -3.489e-08
6466.5, -3.844e-08
6468.5, -3.288e-08
6470.5, -3.467e-08
6472.5, -3.654e-08
6474.5, -3.88e-08
6476.5, -3.831e-08
6478.5, -3.8e-08
6480.5, -3.745e-08
6482.5, -4.058e-08
6484.5, -3.691e-08
6486.5, -3.874e-08
6488.5, -3.751e-08
6490.5, -3.901e-08
6492.5, -4.001e-08
6494.5, -3.987e-08
6496.5, -3.663e-08
6498.5, -3.582e-08
6500.5, -3.857e-08
6502.5, -3.734e-08
6504.5, -3.677e-08
6506.5, -3.815e-08
6508.5, -3.72e-08
6510.5, -3.634e-08
6512.5, -3.633e-08
6514.5, -3.784e-08
6516.5, -3.632e-08
6518.5, -3.714e-08
6520.5, -3.473e-08
6522.5, -3.624e-08
6524.5, -3.763e-08
6526.5, -3.887e-08
6528.5, -3.725e-08
6530.5, -3.724e-08
6532.5, -3.488e-08
6534.5, -3.733e-08
6536.5, -3.509e-08
6538.5, -3.494e-08
6540.5, -3.326e-08
6542.5, -3.414e-08
6544.5, -3.498e-08
6546.5, -3.377e-08
6548.5, -3.497e-08
6550.5, -3.559e-08
6552.5, -3.772e-08
6554.5, -3.414e-08
6556.5, -3.184e-08
6558.6, -3.37e-08
6560.6, -3.595e-08
6562.6, -3.411e-08
6564.6, -3.502e-08
6566.6, -3.565e-08
6568.6, -3.514e-08
6570.6, -3.688e-08
6572.6, -3.874e-08
6574.6, -3.369e-08
6576.6, -3.525e-08
6578.6, -3.701e-08
6580.6, -3.586e-08
6582.6, -3.783e-08
6584.6, -3.728e-08
6586.6, -3.062e-08
6588.6, -3.709e-08
6590.6, -3.556e-08
6592.6, -3.279e-08
6594.6, -3.69e-08
6596.6, -3.388e-08
6598.6, -3.265e-08
6600.6, -3.35e-08
6602.6, -3.465e-08
6604.6, -3.664e-08
6606.6, -4.098e-08
6608.6, -3.722e-08
6610.6, -3.593e-08
6612.6, -4.084e-08
6614.6, -3.805e-08
6616.6, -3.573e-08
6618.6, -3.761e-08
6620.6, -3.872e-08
6622.6, -3.865e-08
6624.6, -4.158e-08
6626.6, -4.321e-08
6628.6, -4.131e-08
6630.6, -3.716e-08
6632.6, -3.894e-08
6634.6, -3.742e-08
6636.6, -3.61e-08
6638.6, -3.771e-08
6640.6, -3.594e-08
6642.6, -3.617e-08
6644.6, -3.727e-08
6646.6, -3.606e-08
6648.6, -3.649e-08
6650.6, -3.738e-08
6652.6, -4.009e-08
6654.6, -3.632e-08
6656.6, -3.853e-08
6658.7, -3.454e-08
6660.7, -3.789e-08
6662.7, -3.796e-08
6664.7, -3.667e-08
6666.7, -3.954e-08
6668.7, -3.839e-08
6670.7, -3.826e-08
6672.7, -4.027e-08
6674.7, -4.023e-08
6676.7, -3.763e-08
6678.7, -4.079e-08
6680.7, -3.529e-08
6682.7, -3.548e-08
6684.7, -3.727e-08
6686.7, -3.379e-08
6688.7, -3.582e-08
6690.7, -3.357e-08
6692.7, -3.847e-08
6694.7, -4.078e-08
6696.7, -3.821e-08
6698.7, -3.781e-08
6700.7, -3.653e-08
6702.7, -3.746e-08
6704.7, -3.861e-08
6706.7, -3.639e-08
6708.7, -3.717e-08
6710.7, -3.507e-08
6712.7, -3.647e-08
6714.7, -3.537e-08
6716.7, -3.618e-08
6718.7, -3.653e-08
6720.7, -3.74e-08
6722.7, -3.396e-08
6724.7, -3.69e-08
6726.7, -3.514e-08
6728.7, -3.239e-08
6730.7, -3.389e-08
6732.7, -3.532e-08
6734.7, -3.559e-08
6736.7, -3.452e-08
6738.7, -3.754e-08
6740.7, -3.673e-08
6742.7, -3.843e-08
6744.7, -3.906e-08
6746.7, -3.634e-08
6748.7, -3.907e-08
6750.7, -3.981e-08
6752.7, -3.721e-08
6754.7, -3.904e-08
6756.7, -3.701e-08
6758.8, -4.011e-08
6760.8, -3.785e-08
6762.8, -3.871e-08
6764.8, -3.766e-08
6766.8, -3.923e-08
6768.8, -3.93e-08
6770.8, -3.922e-08
6772.8, -3.968e-08
6774.8, -4.119e-08
6776.8, -4.297e-08
6778.8, -4.16e-08
6780.8, -4.127e-08
6782.8, -4.196e-08
6784.8, -4.033e-08
6786.8, -3.911e-08
6788.8, -3.713e-08
6790.8, -3.767e-08
6792.8, -4.001e-08
6794.8, -3.768e-08
6796.8, -3.751e-08
6798.8, -3.645e-08
6800.8, -3.653e-08
6802.8, -3.959e-08
6804.8, -3.617e-08
6806.8, -3.952e-08
6808.8, -3.609e-08
6810.8, -3.947e-08
6812.8, -3.869e-08
6814.8, -3.865e-08
6816.8, -3.685e-08
6818.8, -3.528e-08
6820.8, -3.699e-08
6822.8, -3.595e-08
6824.8, -3.317e-08
6826.8, -3.234e-08
6828.8, -3.19e-08
6830.8, -3.538e-08
6832.8, -3.669e-08
6834.8, -3.826e-08
6836.8, -3.931e-08
6838.8, -3.918e-08
6840.8, -3.658e-08
6842.8, -3.878e-08
6844.8, -3.724e-08
6846.8, -3.974e-08
6848.8, -3.899e-08
6850.8, -3.715e-08
6852.8, -3.85e-08
6854.8, -3.856e-08
6856.8, -3.851e-08
6858.9, -4.062e-08
6860.9, -4.105e-08
6862.9, -3.97e-08
6864.9, -3.563e-08
6866.9, -3.63e-08
6868.9, -3.279e-08
6870.9, -3.319e-08
6872.9, -3.607e-08
6874.9, -3.291e-08
6876.9, -3.807e-08
6878.9, -3.457e-08
6880.9, -3.621e-08
6882.9, -3.654e-08
6884.9, -3.886e-08
6886.9, -3.521e-08
6888.9, -3.476e-08
6890.9, -3.511e-08
6892.9, -3.768e-08
6894.9, -3.591e-08
6896.9, -3.713e-08
6898.9, -4.011e-08
6900.9, -3.832e-08
6902.9, -3.938e-08
6904.9, -3.65e-08
6906.9, -4.07e-08
6908.9, -3.545e-08
6910.9, -3.555e-08
6912.9, -4.018e-08
6914.9, -3.675e-08
6916.9, -3.559e-08
6918.9, -3.569e-08
6920.9, -3.744e-08
6922.9, -3.475e-08
6924.9, -3.825e-08
6926.9, -3.611e-08
6928.9, -3.407e-08
6930.9, -3.527e-08
6932.9, -4.068e-08
6934.9, -3.71e-08
6936.9, -3.682e-08
6938.9, -3.661e-08
6940.9, -3.822e-08
6942.9, -3.807e-08
6944.9, -4.059e-08
6946.9, -4.313e-08
6948.9, -3.789e-08
6950.9, -3.876e-08
6952.9, -4.025e-08
6954.9, -3.836e-08
6956.9, -3.787e-08
6959.0, -3.609e-08
6961.0, -3.137e-08
6963.0, -3.038e-08
6965.0, -3.144e-08
6967.0, -3.244e-08
6969.0, -3.478e-08
6971.0, -3.559e-08
6973.0, -3.631e-08
6975.0, -3.865e-08
6977.0, -3.835e-08
6979.0, -3.828e-08
6981.0, -3.869e-08
6983.0, -3.883e-08
6985.0, -3.706e-08
6987.0, -3.557e-08
6989.0, -3.512e-08
6991.0, -3.682e-08
6993.0, -3.418e-08
6995.0, -3.466e-08
6997.0, -3.3e-08
6999.0, -3.406e-08
7001.0, -3.636e-08
7003.0, -3.631e-08
7005.0, -3.885e-08
7007.0, -3.455e-08
7009.0, -3.505e-08
7011.0, -3.37e-08
7013.0, -3.59e-08
7015.0, -3.592e-08
7017.0, -3.21e-08
7019.0, -3.428e-08
7021.0, -3.777e-08
7023.0, -3.428e-08
7025.0, -3.655e-08
7027.0, -3.35e-08
7029.0, -3.363e-08
7031.0, -3.423e-08
7033.0, -3.402e-08
7035.0, -3.127e-08
7037.0, -3.241e-08
7039.0, -3.377e-08
7041.0, -3.426e-08
7043.0, -3.65e-08
7045.0, -3.476e-08
7047.0, -3.107e-08
7049.0, -3.299e-08
7051.0, -3.47e-08
7053.0, -3.526e-08
7055.0, -3.097e-08
7057.0, -3.193e-08
7059.1, -3.417e-08
7061.1, -3.238e-08
7063.1, -3.252e-08
7065.1, -3.207e-08
7067.1, -3.292e-08
7069.1, -2.98e-08
7071.1, -3.35e-08
7073.1, -3.154e-08
7075.1, -3.423e-08
7077.1, -3.199e-08
7079.1, -3.042e-08
7081.1, -3.167e-08
7083.1, -3.491e-08
7085.1, -3.715e-08
7087.1, -3.201e-08
7089.1, -2.878e-08
7091.1, -3.176e-08
7093.1, -2.961e-08
7095.1, -3.15e-08
7097.1, -3.611e-08
7099.1, -3.163e-08
7101.1, -3.755e-08
7103.1, -3.455e-08
7105.1, -3.611e-08
7107.1, -3.298e-08
7109.1, -3.56e-08
7111.1, -3.194e-08
7113.1, -3.579e-08
7115.1, -3.604e-08
7117.1, -3.763e-08
7119.1, -3.536e-08
7121.1, -3.363e-08
7123.1, -4.011e-08
7125.1, -3.611e-08
7127.1, -3.278e-08
7129.1, -3.849e-08
7131.1, -3.816e-08
7133.1, -4.054e-08
7135.1, -3.862e-08
7137.1, -3.792e-08
7139.1, -4.157e-08
7141.1, -3.81e-08
7143.1, -3.746e-08
7145.1, -4.281e-08
7147.1, -3.548e-08
7149.1, -3.575e-08
7151.1, -3.903e-08
7153.1, -3.763e-08
7155.1, -3.828e-08
7157.1, -3.683e-08
7159.2, -3.766e-08
7161.2, -4.082e-08
7163.2, -3.634e-08
7165.2, -3.796e-08
7167.2, -3.895e-08
7169.2, -3.822e-08
7171.2, -3.32e-08
7173.2, -3.605e-08
7175.2, -3.196e-08
7177.2, -3.555e-08
7179.2, -3.384e-08
7181.2, -3.652e-08
7183.2, -3.542e-08
7185.2, -3.62e-08
7187.2, -3.973e-08
7189.2, -3.532e-08
7191.2, -3.65e-08
7193.2, -3.971e-08
7195.2, -4.006e-08
7197.2, -3.434e-08
7199.2, -3.333e-08
7201.2, -3.261e-08
7203.2, -3.365e-08
7205.2, -3.663e-08
7207.2, -3.749e-08
7209.2, -3.618e-08
7211.2, -3.382e-08
7213.2, -6.42e-09
7215.2, 1.282e-08
7217.2, 1.241e-08
7219.2, 1.6e-10
7221.2, 5.63e-09
7223.2, 7.78e-09
7225.2, 8.06e-09
7227.2, 9.63e-09
7229.2, 1.22e-08
7231.2, 5.31e-09
7233.2, 1.033e-08
7235.2, 7.37e-09
7237.2, 1.301e-08
7239.2, 9.26e-09
7241.2, 1.39e-08
7243.2, 1.663e-08
7245.2, 1.947e-08
7247.2, 1.424e-08
7249.2, 1.07e-08
7251.2, 7.07e-09
7253.2, 6.14e-09
7255.2, 1.488e-08
7257.2, 1.1e-08
7259.3, 1.008e-08
7261.3, 1.348e-08
7263.3, 1.343e-08
7265.3, 1.144e-08
7267.3, 7.78e-09
7269.3, 1.315e-08
7271.3, 7.5e-09
7273.3, 1.009e-08
7275.3, 8.58e-09
7277.3, 1.01e-08
7279.3, 7.99e-09
7281.3, 5.44e-09
7283.3, 1.092e-08
7285.3, 1.284e-08
7287.3, 9.5e-09
7289.3, 1.385e-08
7291.3, 1.637e-08
7293.3, 1.207e-08
7295.3, 1.614e-08
7297.3, 1.488e-08
7299.3, 9.6e-09
7301.3, 1.187e-08
7303.3, 6.36e-09
7305.3, 1.36e-08
7307.3, 1.497e-08
7309.3, 1.613e-08
7311.3, 6.73e-09
7313.3, 8.71e-09
7315.3, 1.126e-08
7317.3, 1.586e-08
7319.3, 1.055e-08
7321.3, 1.259e-08
7323.3, 1.305e-08
7325.3, 1.471e-08
7327.3, 6.31e-09
7329.3, 1.049e-08
7331.3, 1.21e-08
7333.3, 1.106e-08
7335.3, 7.9e-09
7337.3, 1.53e-08
7339.3, 8.49e-09
7341.3, 1.6e-08
7343.3, 1.23e-08
7345.3, 1.471e-08
7347.3, 1.01e-08
7349.3, 1.582e-08
7351.3, 1.452e-08
7353.3, 1.33e-08
7355.3, 1.025e-08
7357.3, 1.565e-08
7359.4, 1.382e-08
7361.4, 1.621e-08
7363.4, 1.467e-08
7365.4, 2.152e-08
7367.4, 1.887e-08
7369.4, 1.921e-08
7371.4, 1.454e-08
7373.4, 1.9e-08
7375.4, 1.45e-08
7377.4, 2.381e-08
7379.4, 1.98e-08
7381.4, 2.399e-08
7383.4, 1.109e-08
7385.4, 9.86e-09
7387.4, 1.173e-08
7389.4, 1.222e-08
7391.4, 1.949e-08
7393.4, 1.306e-08
7395.4, 1.355e-08
7397.4, 1.588e-08
7399.4, 1.404e-08
7401.4, 1.411e-08
7403.4, 1.627e-08
7405.4, 1.349e-08
7407.4, 2.025e-08
7409.4, 1.444e-08
7411.4, 1.516e-08
7413.4, 1.583e-08
7415.4, 1.742e-08
7417.4, 1.34e-08
7419.4, 1.568e-08
7421.4, 1.393e-08
7423.4, 1.4e-08
7425.4, 1.095e-08
7427.4, 1.692e-08
7429.4, 1.435e-08
7431.4, 1.537e-08
7433.4, 1.661e-08
7435.4, 1.043e-08
7437.4, 9.96e-09
7439.4, 1.203e-08
7441.4, 1.508e-08
7443.4, 1.456e-08
7445.4, 9.71e-09
7447.4, 1.4e-08
7449.4, 1.85e-08
7451.4, 9.52e-09
7453.4, 6.67e-09
7455.4, 1.271e-08
7457.4, 2.23e-08
7459.5, 2.232e-08
7461.5, 1.593e-08
7463.5, 1.047e-08
7465.5, 1.501e-08
7467.5, 1.806e-08
7469.5, 2.085e-08
7471.5, 1.286e-08
7473.5, 1.809e-08
7475.5, 9.02e-09
7477.5, 1.352e-08
7479.5, 1.651e-08
7481.5, 1.72e-08
7483.5, 1.302e-08
7485.5, 1.565e-08
7487.5, 1.118e-08
7489.5, 2.063e-08
7491.5, 1.462e-08
7493.5, 1.845e-08
7495.5, 8.01e-09
7497.5, 1.404e-08
7499.5, 8.19e-09
7501.5, 1.311e-08
7503.5, 1.619e-08
7505.5, 2.043e-08
7507.5, 2.075e-08
7509.5, 2.205e-08
7511.5, 1.417e-08
7513.5, 1.592e-08
7515.5, 2.07e-08
7517.5, 1.199e-08
7519.5, 1.977e-08
7521.5, 1.923e-08
7523.5, 2.473e-08
7525.5, 1.728e-08
7527.5, 2.192e-08
7529.5, 1.87e-08
7531.5, 1.52e-08
7533.5, 2.139e-08
7535.5, 1.621e-08
7537.5, 2e-08
7539.5, 1.602e-08
7541.5, 1.356e-08
7543.5, 2.098e-08
7545.5, 2.028e-08
7547.5, 2.601e-08
7549.5, 2.457e-08
7551.5, 1.897e-08
7553.5, 2.285e-08
7555.5, 2.301e-08
7557.5, 2.201e-08
7559.6, 2.054e-08
7561.6, 1.706e-08
7563.6, 1.387e-08
7565.6, 1.328e-08
7567.6, 1.918e-08
7569.6, 1.356e-08
7571.6, 1.919e-08
7573.6, 2.149e-08
7575.6, 1.942e-08
7577.6, 1.802e-08
7579.6, 1.791e-08
7581.6, 1.494e-08
7583.6, 1.213e-08
7585.6, 1.966e-08
7587.6, 2.43e-08
7589.6, 2.064e-08
7591.6, 1.443e-08
7593.6, 1.396e-08
7595.6, 1.634e-08
7597.6, 1.634e-08
7599.6, 1.254e-08
7601.6, 1.658e-08
7603.6, 1.465e-08
7605.6, 1.45e-08
7607.6, 1.661e-08
7609.6, 1.415e-08
7611.6, 1.802e-08
7613.6, 1.134e-08
7615.6, 1.599e-08
7617.6, 1.438e-08
7619.6, 1.706e-08
7621.6, 1.663e-08
7623.6, 1.945e-08
7625.6, 1.404e-08
7627.6, 5.52e-09
7629.6, 1.884e-08
7631.6, 1.327e-08
7633.6, 1.661e-08
7635.6, 4.54e-09
7637.6, 2.82e-09
7639.6, 1.145e-08
7641.6, 1.512e-08
7643.6, 6.98e-09
7645.6, 1.529e-08
7647.6, 1.31e-08
7649.6, 1.263e-08
7651.6, 2.164e-08
7653.6, 2.522e-08
7655.6, 7.8e-09
7657.6, 1.247e-08
7659.7, 1.261e-08
7661.7, 1.486e-08
7663.7, 1.616e-08
7665.7, 1.484e-08
7667.7, 1.439e-08
7669.7, 1.46e-08
7671.7, 1.523e-08
7673.7, 1.179e-08
7675.7, 1.963e-08
7677.7, 1.602e-08
7679.7, 1.398e-08
7681.7, 1.329e-08
7683.7, 1.543e-08
7685.7, 1.458e-08
7687.7, 1.551e-08
7689.7, 1.664e-08
7691.7, 2.238e-08
7693.7, 1.632e-08
7695.7, 1.469e-08
7697.7, 2.583e-08
7699.7, 1.608e-08
7701.7, 1.574e-08
7703.7, 1.988e-08
7705.7, 1.08e-08
7707.7, 1.814e-08
7709.7, 1.807e-08
7711.7, 2.049e-08
7713.7, 2.502e-08
7715.7, 1.832e-08
7717.7, 1.923e-08
7719.7, 2.159e-08
7721.7, 1.007e-08
7723.7, 1.274e-08
7725.7, 1.681e-08
7727.7, 1.48e-08
7729.7, 1.909e-08
7731.7, 1.467e-08
7733.7, 2.114e-08
7735.7, 1.498e-08
7737.7, 1.789e-08
7739.7, 1.95e-08
7741.7, 1.343e-08
7743.7, 1.202e-08
7745.7, 1.701e-08
7747.7, 1.983e-08
7749.7, 1.669e-08
7751.7, 1.816e-08
7753.7, 2.09e-08
7755.7, 2.222e-08
7757.7, 1.971e-08
7759.8, 1.461e-08
7761.8, 1.323e-08
7763.8, 2.248e-08
7765.8, 1.415e-08
7767.8, 2.078e-08
7769.8, 1.895e-08
7771.8, 2.353e-08
7773.8, 2.213e-08
7775.8, 2.206e-08
7777.8, 2.706e-08
7779.8, 1.812e-08
7781.8, 2.344e-08
7783.8, 1.845e-08
7785.8, 2.073e-08
7787.8, 1.771e-08
7789.8, 1.788e-08
7791.8, 1.769e-08
7793.8, 1.555e-08
7795.8, 9.76e-09
7797.8, 1.682e-08
7799.8, 2.085e-08
7801.8, 1.865e-08
7803.8, 1.645e-08
7805.8, 1.624e-08
7807.8, 1.587e-08
7809.8, 1.614e-08
7811.8, 1.663e-08
7813.8, 1.631e-08
7815.8, 1.569e-08
7817.8, 2.203e-08
7819.8, 1.472e-08
7821.8, 1.885e-08
7823.8, 1.343e-08
7825.8, 1.113e-08
7827.8, 2.078e-08
7829.8, 1.991e-08
7831.8, 1.278e-08
7833.8, 2.138e-08
7835.8, 1.76e-08
7837.8, 1.788e-08
7839.8, 1.995e-08
7841.8, 2.05e-08
7843.8, 1.854e-08
7845.8, 2.148e-08
7847.8, 1.514e-08
7849.8, 1.762e-08
7851.8, 2.115e-08
7853.8, 9.45e-09
7855.8, 1.714e-08
7857.8, 2.017e-08
7859.9, 1.114e-08
7861.9, 1.956e-08
7863.9, 1.266e-08
7865.9, 1.667e-08
7867.9, 1.448e-08
7869.9, 2.3e-08
7871.9, 1.499e-08
7873.9, 1.94e-08
7875.9, 1.563e-08
7877.9, 1.347e-08
7879.9, 2.169e-08
7881.9, 1.677e-08
7883.9, 2.161e-08
7885.9, 2.104e-08
7887.9, 1.76e-08
7889.9, 2.148e-08
7891.9, 9.05e-09
7893.9, 1.808e-08
7895.9, 1.415e-08
7897.9, 1.479e-08
7899.9, 1.502e-08
7901.9, 9.36e-09
7903.9, 1.942e-08
7905.9, 1.184e-08
7907.9, 1.841e-08
7909.9, 1.896e-08
7911.9, 2.483e-08
7913.9, 2.063e-08
7915.9, 2.358e-08
7917.9, 1.918e-08
7919.9, 1.404e-08
7921.9, 1.865e-08
7923.9, 1.308e-08
7925.9, 1.953e-08
7927.9, 1.402e-08
7929.9, 1.628e-08
7931.9, 1.902e-08
7933.9, 2.124e-08
7935.9, 2.099e-08
7937.9, 1.415e-08
7939.9, 1.511e-08
7941.9, 1.762e-08
7943.9, 1.605e-08
7945.9, 2.134e-08
7947.9, 1.849e-08
7949.9, 2.825e-08
7951.9, 2.145e-08
7953.9, 1.657e-08
7955.9, 2.027e-08
7957.9, 1.38e-08
7960.0, 1.027e-08
7962.0, 2.335e-08
7964.0, 1.74e-08
7966.0, 1.625e-08
7968.0, 1.586e-08
7970.0, 2.039e-08
7972.0, 1.383e-08
7974.0, 1.974e-08
7976.0, 1.844e-08
7978.0, 1.699e-08
7980.0, 1.805e-08
7982.0, 2.027e-08
7984.0, 1.734e-08
7986.0, 1.579e-08
7988.0, 1.696e-08
7990.0, 2.314e-08
7992.0, 2.323e-08
7994.0, 1.736e-08
7996.0, 1.334e-08
7998.0, 2.285e-08
8000.0, 2.067e-08
8002.0, 9.87e-09
8004.0, 1.166e-08
8006.0, 2.726e-08
8008.0, 2.448e-08
8010.0, 2.454e-08
8012.0, 1.723e-08
8014.0, 1.802e-08
8016.0, 1.454e-08
8018.0, 2.096e-08
8020.0, 7.55e-09
8022.0, 2.039e-08
8024.0, 1.996e-08
8026.0, 1.777e-08
8028.0, 2.134e-08
8030.0, 1.459e-08
8032.0, 2.134e-08
8034.0, 2.152e-08
8036.0, 1.288e-08
8038.0, 2.132e-08
8040.0, 2.289e-08
8042.0, 1.471e-08
8044.0, 1.664e-08
8046.0, 2.139e-08
8048.0, 1.554e-08
8050.0, 2.424e-08
8052.0, 1.446e-08
8054.0, 2.177e-08
8056.0, 2.032e-08
8058.0, 1.772e-08
8060.1, 1.673e-08
8062.1, 2.282e-08
8064.1, 2.592e-08
8066.1, 1.748e-08
8068.1, 1.528e-08
8070.1, 1.778e-08
8072.1, 1.684e-08
8074.1, 1.239e-08
8076.1, 1.768e-08
8078.1, 2.092e-08
8080.1, 1.38e-08
8082.1, 1.613e-08
8084.1, 1.876e-08
8086.1, 2.236e-08
8088.1, 1.58e-08
8090.1, 1.044e-08
8092.1, 1.755e-08
8094.1, 1.75e-08
8096.1, 1.369e-08
8098.1, 1.786e-08
8100.1, 2.121e-08
8102.1, 2.767e-08
8104.1, 1.736e-08
8106.1, 1.654e-08
8108.1, 1.864e-08
8110.1, 1.459e-08
8112.1, 1.926e-08
8114.1, 1.647e-08
8116.1, 1.126e-08
8118.1, 1.804e-08
8120.1, 1.231e-08
8122.1, 1.235e-08
8124.1, 1.343e-08
8126.1, 1.435e-08
8128.1, 2.311e-08
8130.1, 2.714e-08
8132.1, 1.985e-08
8134.1, 1.508e-08
8136.1, 1.613e-08
8138.1, 1.749e-08
8140.1, 1.237e-08
8142.1, 1.757e-08
8144.1, 1.792e-08
8146.1, 1.603e-08
8148.1, 1.582e-08
8150.1, 2.233e-08
8152.1, 1.3e-08
8154.1, 1e-08
8156.1, 1.906e-08
8158.1, 1.665e-08
8160.2, 1.065e-08
8162.2, 1.662e-08
8164.2, 9.08e-09
8166.2, 1.232e-08
8168.2, 1.874e-08
8170.2, 1.233e-08
8172.2, 2.25e-08
8174.2, 1.69e-08
8176.2, 1.653e-08
8178.2, 1.309e-08
8180.2, 1.753e-08
8182.2, 1.221e-08
8184.2, 8.39e-09
8186.2, 1.009e-08
8188.2, 7.72e-09
8190.2, 1.62e-08
8192.2, 2.217e-08
8194.2, 1.787e-08
8196.2, 1.951e-08
8198.2, 1.711e-08
8200.2, 1.332e-08
8202.2, 1.385e-08
8204.2, 1.878e-08
8206.2, 1.738e-08
8208.2, 2.272e-08
8210.2, 1.679e-08
8212.2, 1.57e-08
8214.2, -1.304e-08
8216.2, -3.586e-08
8218.2, -3.761e-08
8220.2, -3.739e-08
8222.2, -3.791e-08
8224.2, -3.616e-08
8226.2, -3.753e-08
8228.2, -4.077e-08
8230.2, -3.67e-08
8232.2, -3.676e-08
8234.2, -3.912e-08
8236.2, -3.733e-08
8238.2, -3.689e-08
8240.2, -3.868e-08
8242.2, -3.638e-08
8244.2, -3.635e-08
8246.2, -3.756e-08
8248.2, -3.837e-08
8250.2, -3.755e-08
8252.2, -3.82e-08
8254.2, -3.515e-08
8256.2, -4.01e-08
8258.2, -3.807e-08
8260.3, -3.885e-08
8262.3, -3.798e-08
8264.3, -3.405e-08
8266.3, -3.845e-08
8268.3, -3.664e-08
8270.3, -4.041e-08
8272.3, -3.473e-08
8274.3, -3.964e-08
8276.3, -3.732e-08
8278.3, -3.705e-08
8280.3, -3.909e-08
8282.3, -4.084e-08
8284.3, -4.118e-08
8286.3, -4.012e-08
8288.3, -3.622e-08
8290.3, -3.914e-08
8292.3, -4.086e-08
8294.3, -4.235e-08
8296.3, -4.259e-08
8298.3, -4.05e-08
8300.3, -4.256e-08
8302.3, -4.097e-08
8304.3, -3.533e-08
8306.3, -3.512e-08
8308.3, -3.569e-08
8310.3, -3.783e-08
8312.3, -3.573e-08
8314.3, -3.609e-08
8316.3, -3.871e-08
8318.3, -3.61e-08
8320.3, -3.931e-08
8322.3, -3.653e-08
8324.3, -3.605e-08
8326.3, -3.859e-08
8328.3, -3.741e-08
8330.3, -3.52e-08
8332.3, -3.612e-08
8334.3, -3.73e-08
8336.3, -4.138e-08
8338.3, -3.648e-08
8340.3, -3.791e-08
8342.3, -3.816e-08
8344.3, -4.043e-08
8346.3, -4.049e-08
8348.3, -4.197e-08
8350.3, -4.387e-08
8352.3, -4.131e-08
8354.3, -3.948e-08
8356.3, -3.799e-08
8358.3, -3.633e-08
8360.4, -3.368e-08
8362.4, -3.892e-08
8364.4, -4.03e-08
8366.4, -4.158e-08
8368.4, -4.039e-08
8370.4, -4.415e-08
8372.4, -3.997e-08
8374.4, -4.39e-08
8376.4, -3.984e-08
8378.4, -4.038e-08
8380.4, -4.303e-08
8382.4, -4.144e-08
8384.4, -4.063e-08
8386.4, -3.738e-08
8388.4, -3.695e-08
8390.4, -3.621e-08
8392.4, -3.905e-08
8394.4, -3.915e-08
8396.4, -4.041e-08
8398.4, -3.714e-08
8400.4, -3.81e-08
8402.4, -3.922e-08
8404.4, -3.947e-08
8406.4, -4.179e-08
8408.4, -4.179e-08
8410.4, -3.954e-08
8412.4, -4.271e-08
8414.4, -4.143e-08
8416.4, -4.025e-08
8418.4, -4.045e-08
8420.4, -3.594e-08
8422.4, -4.053e-08
8424.4, -4.45e-08
8426.4, -4.107e-08
8428.4, -3.881e-08
8430.4, -3.861e-08
8432.4, -3.611e-08
8434.4, -3.886e-08
8436.4, -4.059e-08
8438.4, -4.002e-08
8440.4, -4.008e-08
8442.4, -3.768e-08
8444.4, -3.917e-08
8446.4, -3.957e-08
8448.4, -4.031e-08
8450.4, -3.673e-08
8452.4, -4.129e-08
8454.4, -3.993e-08
8456.4, -4.04e-08
8458.4, -4.015e-08
8460.5, -4.134e-08
8462.5, -4.251e-08
8464.5, -4.234e-08
8466.5, -4.151e-08
8468.5, -4.464e-08
8470.5, -4.339e-08
8472.5, -4.237e-08
8474.5, -3.918e-08
8476.5, -4.07e-08
8478.5, -3.742e-08
8480.5, -3.905e-08
8482.5, -3.702e-08
8484.5, -4.166e-08
8486.5, -3.998e-08
8488.5, -3.719e-08
8490.5, -4.035e-08
8492.5, -4.016e-08
8494.5, -3.547e-08
8496.5, -3.766e-08
8498.5, -3.986e-08
8500.5, -3.728e-08
8502.5, -3.819e-08
8504.5, -3.923e-08
8506.5, -3.678e-08
8508.5, -3.79e-08
8510.5, -3.959e-08
8512.5, -3.664e-08
8514.5, -3.663e-08
8516.5, -4.229e-08
8518.5, -3.953e-08
8520.5, -3.969e-08
8522.5, -3.851e-08
8524.5, -4.055e-08
8526.5, -4.013e-08
8528.5, -3.888e-08
8530.5, -4.242e-08
8532.5, -4.125e-08
8534.5, -4.281e-08
8536.5, -4.087e-08
8538.5, -4.185e-08
8540.5, -4.107e-08
8542.5, -4.321e-08
8544.5, -4.181e-08
8546.5, -4.344e-08
8548.5, -4.206e-08
8550.5, -4.067e-08
8552.5, -4.073e-08
8554.5, -3.996e-08
8556.5, -4.226e-08
8558.5, -4.162e-08
8560.6, -4.141e-08
8562.6, -3.844e-08
8564.6, -3.964e-08
8566.6, -3.962e-08
8568.6, -3.976e-08
8570.6, -4.129e-08
8572.6, -3.933e-08
8574.6, -4.124e-08
8576.6, -3.943e-08
8578.6, -4.223e-08
8580.6, -4.093e-08
8582.6, -4.107e-08
8584.6, -4.274e-08
8586.6, -4.216e-08
8588.6, -4.232e-08
8590.6, -4.226e-08
8592.6, -3.887e-08
8594.6, -4.063e-08
8596.6, -4.543e-08
8598.6, -4.339e-08
8600.6, -4.367e-08
8602.6, -3.979e-08
8604.6, -4.441e-08
8606.6, -4.51e-08
8608.6, -4.426e-08
8610.6, -4.281e-08
8612.6, -4.011e-08
8614.6, -4.605e-08
8616.6, -4.119e-08
8618.6, -4.74e-08
8620.6, -4.482e-08
8622.6, -4.632e-08
8624.6, -4.42e-08
8626.6, -4.461e-08
8628.6, -4.421e-08
8630.6, -4.292e-08
8632.6, -4.527e-08
8634.6, -4.464e-08
8636.6, -4.263e-08
8638.6, -4.223e-08
8640.6, -4.297e-08
8642.6, -4.075e-08
8644.6, -4.417e-08
8646.6, -4.094e-08
8648.6, -4.27e-08
8650.6, -4.171e-08
8652.6, -3.651e-08
8654.6, -4.091e-08
8656.6, -4.066e-08
8658.6, -4.262e-08
8660.7, -4.029e-08
8662.7, -4.09e-08
8664.7, -4.15e-08
8666.7, -4.276e-08
8668.7, -4.245e-08
8670.7, -4.55e-08
8672.7, -3.841e-08
8674.7, -4.124e-08
8676.7, -4.427e-08
8678.7, -4.101e-08
8680.7, -4.262e-08
8682.7, -3.849e-08
8684.7, -4.135e-08
8686.7, -4.185e-08
8688.7, -4.149e-08
8690.7, -3.875e-08
8692.7, -4.021e-08
8694.7, -4.419e-08
8696.7, -4.407e-08
8698.7, -4.204e-08
8700.7, -4.292e-08
8702.7, -4.199e-08
8704.7, -4.079e-08
8706.7, -4.446e-08
8708.7, -4.594e-08
8710.7, -4.419e-08
8712.7, -4.176e-08
8714.7, -4.362e-08
8716.7, -4.371e-08
8718.7, -4.148e-08
8720.7, -4.251e-08
8722.7, -4.139e-08
8724.7, -4.348e-08
8726.7, -4.124e-08
8728.7, -4.4e-08
8730.7, -3.808e-08
8732.7, -4.034e-08
8734.7, -4.252e-08
8736.7, -4.04e-08
8738.7, -4.173e-08
8740.7, -4.138e-08
8742.7, -4.376e-08
8744.7, -4.406e-08
8746.7, -3.982e-08
8748.7, -4.265e-08
8750.7, -4.187e-08
8752.7, -4.256e-08
8754.7, -4.213e-08
8756.7, -4.09e-08
8758.7, -3.951e-08
8760.8, -3.755e-08
8762.8, -4.233e-08
8764.8, -4.231e-08
8766.8, -4.023e-08
8768.8, -3.976e-08
8770.8, -4.041e-08
8772.8, -4.207e-08
8774.8, -4.244e-08
8776.8, -3.955e-08
8778.8, -3.82e-08
8780.8, -3.744e-08
8782.8, -3.822e-08
8784.8, -3.801e-08
8786.8, -3.915e-08
8788.8, -4.063e-08
8790.8, -3.857e-08
8792.8, -3.77e-08
8794.8, -4.087e-08
8796.8, -3.673e-08
8798.8, -4.014e-08
8800.8, -3.871e-08
8802.8, -3.765e-08
8804.8, -3.971e-08
8806.8, -4.096e-08
8808.8, -3.936e-08
8810.8, -4.084e-08
8812.8, -3.902e-08
8814.8, -4.266e-08
8816.8, -4.129e-08
8818.8, -4.009e-08
8820.8, -4.143e-08
8822.8, -4.086e-08
8824.8, -4.138e-08
8826.8, -4.404e-08
8828.8, -4.367e-08
8830.8, -4.365e-08
8832.8, -4.145e-08
8834.8, -4.358e-08
8836.8, -4.07e-08
8838.8, -4.121e-08
8840.8, -4.296e-08
8842.8, -4.128e-08
8844.8, -4.125e-08
8846.8, -4.026e-08
8848.8, -4.363e-08
8850.8, -4.308e-08
8852.8, -4.013e-08
8854.8, -4.275e-08
8856.8, -3.747e-08
8858.8, -3.81e-08
8860.9, -3.823e-08
8862.9, -3.968e-08
8864.9, -4.013e-08
8866.9, -3.914e-08
8868.9, -4.066e-08
8870.9, -4.177e-08
8872.9, -4.157e-08
8874.9, -4.033e-08
8876.9, -4.416e-08
8878.9, -4.061e-08
8880.9, -4.096e-08
8882.9, -3.894e-08
8884.9, -4.092e-08
8886.9, -3.676e-08
8888.9, -3.698e-08
8890.9, -3.983e-08
8892.9, -4.041e-08
8894.9, -3.742e-08
8896.9, -3.938e-08
8898.9, -3.839e-08
8900.9, -4.068e-08
8902.9, -4.198e-08
8904.9, -4.339e-08
8906.9, -4.284e-08
8908.9, -4.171e-08
8910.9, -4.136e-08
8912.9, -4.088e-08
8914.9, -3.869e-08
8916.9, -3.959e-08
8918.9, -4.192e-08
8920.9, -4.279e-08
8922.9, -4.053e-08
8924.9, -4.326e-08
8926.9, -4.339e-08
8928.9, -4.655e-08
8930.9, -4.463e-08
8932.9, -4.443e-08
8934.9, -4.455e-08
8936.9, -4.44e-08
8938.9, -4.096e-08
8940.9, -4.463e-08
8942.9, -4.243e-08
8944.9, -3.935e-08
8946.9, -3.992e-08
8948.9, -4.048e-08
8950.9, -4.42e-08
8952.9, -4.129e-08
8954.9, -4.531e-08
8956.9, -4.526e-08
8958.9, -4.517e-08
8961.0, -4.395e-08
8963.0, -4.305e-08
8965.0, -4.213e-08
8967.0, -4.494e-08
8969.0, -4.517e-08
8971.0, -4.293e-08
8973.0, -4.214e-08
8975.0, -4.418e-08
8977.0, -4.349e-08
8979.0, -4.823e-08
8981.0, -4.541e-08
8983.0, -4.308e-08
8985.0, -4.06e-08
8987.0, -4.37e-08
8989.0, -4.536e-08
8991.0, -4.109e-08
8993.0, -4.246e-08
8995.0, -4.363e-08
8997.0, -4.454e-08
8999.0, -4.361e-08
9001.0, -3.828e-08
9003.0, -4.258e-08
9005.0, -4.165e-08
9007.0, -4.226e-08
9009.0, -4.024e-08
9011.0, -4.005e-08
9013.0, -3.886e-08
9015.0, -4.058e-08
9017.0, -4.18e-08
9019.0, -4.048e-08
9021.0, -3.767e-08
9023.0, -3.911e-08
9025.0, -4.457e-08
9027.0, -4.103e-08
9029.0, -3.814e-08
9031.0, -4.083e-08
9033.0, -3.595e-08
9035.0, -3.774e-08
9037.0, -3.822e-08
9039.0, -3.671e-08
9041.0, -3.612e-08
9043.0, -4.187e-08
9045.0, -4.321e-08
9047.0, -3.992e-08
9049.0, -3.723e-08
9051.0, -3.584e-08
9053.0, -3.931e-08
9055.0, -3.947e-08
9057.0, -3.886e-08
9059.0, -3.711e-08
9061.1, -3.834e-08
9063.1, -3.599e-08
9065.1, -3.949e-08
9067.1, -3.873e-08
9069.1, -4.011e-08
9071.1, -3.962e-08
9073.1, -4.077e-08
9075.1, -4.023e-08
9077.1, -3.883e-08
9079.1, -4.038e-08
9081.1, -4.006e-08
9083.1, -3.791e-08
9085.1, -4.02e-08
9087.1, -4.146e-08
9089.1, -4.008e-08
9091.1, -4.223e-08
9093.1, -3.971e-08
9095.1, -3.82e-08
9097.1, -4.058e-08
9099.1, -4.253e-08
9101.1, -3.838e-08
9103.1, -3.632e-08
9105.1, -3.789e-08
9107.1, -3.89e-08
9109.1, -4.074e-08
9111.1, -3.917e-08
9113.1, -4.042e-08
9115.1, -3.512e-08
9117.1, -3.855e-08
9119.1, -3.938e-08
9121.1, -4.164e-08
9123.1, -3.705e-08
9125.1, -3.851e-08
9127.1, -3.713e-08
9129.1, -4.212e-08
9131.1, -3.881e-08
9133.1, -3.993e-08
9135.1, -3.871e-08
9137.1, -4.011e-08
9139.1, -3.935e-08
9141.1, -3.952e-08
9143.1, -3.702e-08
9145.1, -3.78e-08
9147.1, -3.711e-08
9149.1, -3.808e-08
9151.1, -4.026e-08
9153.1, -4.279e-08
9155.1, -3.922e-08
9157.1, -3.848e-08
9159.1, -3.859e-08
9161.2, -3.878e-08
9163.2, -3.996e-08
9165.2, -4.103e-08
9167.2, -3.576e-08
9169.2, -3.71e-08
9171.2, -3.674e-08
9173.2, -3.697e-08
9175.2, -4.23e-08
9177.2, -3.884e-08
9179.2, -4.134e-08
9181.2, -3.922e-08
9183.2, -3.886e-08
9185.2, -3.689e-08
9187.2, -3.961e-08
9189.2, -3.898e-08
9191.2, -3.402e-08
9193.2, -3.783e-08
9195.2, -3.53e-08
9197.2, -3.847e-08
9199.2, -3.974e-08
9201.2, -3.995e-08
9203.2, -3.876e-08
9205.2, -3.785e-08
9207.2, -3.754e-08
9209.2, -3.575e-08
9211.2, -3.651e-08
9213.2, -3.582e-08
9215.2, -3.93e-08
9217.2, -3.811e-08
9219.2, -3.618e-08
9221.2, -3.633e-08
9223.2, -3.37e-08
9225.2, -3.53e-08
9227.2, -4.154e-08
9229.2, -3.84e-08
9231.2, -3.674e-08
9233.2, -3.51e-08
9235.2, -3.92e-08
9237.2, -3.905e-08
9239.2, -3.925e-08
9241.2, -3.831e-08
9243.2, -3.599e-08
9245.2, -3.39e-08
9247.2, -3.612e-08
9249.2, -3.625e-08
9251.2, -3.742e-08
9253.2, -3.698e-08
9255.2, -3.959e-08
9257.2, -4.061e-08
9259.2, -3.689e-08
9261.3, -3.97e-08
9263.3, -3.332e-08
9265.3, -3.487e-08
9267.3, -3.443e-08
9269.3, -3.722e-08
9271.3, -3.774e-08
9273.3, -3.544e-08
9275.3, -3.6e-08
9277.3, -8.79e-09
9279.3, 8.51e-09
9281.3, 5.48e-09
9283.3, 1.15e-08
9285.3, 1.19e-09
9287.3, 1.29e-09
9289.3, 1.17e-08
9291.3, 3.43e-09
9293.3, 1.289e-08
9295.3, 5e-09
9297.3, 6.1e-09
9299.3, 1.016e-08
9301.3, 8.52e-09
9303.3, 3.39e-09
9305.3, 6.06e-09
9307.3, 5.91e-09
9309.3, 8.94e-09
9311.3, 1.337e-08
9313.3, 7.47e-09
9315.3, 1.418e-08
9317.3, 8.67e-09
9319.3, 7.2e-09
9321.3, 8.08e-09
9323.3, 1.158e-08
9325.3, 5.57e-09
9327.3, 6.25e-09
9329.3, 8.45e-09
9331.3, 1.27e-08
9333.3, 9.95e-09
9335.3, 7.24e-09
9337.3, -5.3e-10
9339.3, 8.61e-09
9341.3, 9.07e-09
9343.3, 1.342e-08
9345.3, 9.24e-09
9347.3, 9.27e-09
9349.3, 8.18e-09
9351.3, 6.89e-09
9353.3, 8.13e-09
9355.3, 1.17e-08
9357.3, 1.407e-08
9359.3, 1.235e-08
9361.4, 4.62e-09
9363.4, 1.305e-08
9365.4, 1.389e-08
9367.4, 7.39e-09
9369.4, 1.643e-08
9371.4, 2.035e-08
9373.4, 1.984e-08
9375.4, 1.352e-08
9377.4, 1.048e-08
9379.4, 1.295e-08
9381.4, 1.159e-08
9383.4, 1.454e-08
9385.4, 8.88e-09
9387.4, 9.55e-09
9389.4, 3.54e-09
9391.4, 1.1e-08
9393.4, 9.09e-09
9395.4, 1.128e-08
9397.4, 1.32e-08
9399.4, 9.7e-09
9401.4, 1.156e-08
9403.4, 1.152e-08
9405.4, 1.455e-08
9407.4, 1.999e-08
9409.4, 1.348e-08
9411.4, 1.317e-08
9413.4, 1.281e-08
9415.4, 1.368e-08
9417.4, 1.165e-08
9419.4, 1.199e-08
9421.4, 9.94e-09
9423.4, 1.487e-08
9425.4, 1.549e-08
9427.4, 9.01e-09
9429.4, 1.556e-08
9431.4, 1.563e-08
9433.4, 1.189e-08
9435.4, 1.03e-08
9437.4, 1.032e-08
9439.4, 1.329e-08
9441.4, 1.127e-08
9443.4, 2.029e-08
9445.4, 1.164e-08
9447.4, 1.299e-08
9449.4, 1.783e-08
9451.4, 1.856e-08
9453.4, 1.649e-08
9455.4, 1.522e-08
9457.4, 1.203e-08
9459.4, 1.376e-08
9461.5, 1.547e-08
9463.5, 1.705e-08
9465.5, 1.105e-08
9467.5, 1.07e-08
9469.5, 1.392e-08
9471.5, 1.487e-08
9473.5, 1.508e-08
9475.5, 1.383e-08
9477.5, 1.193e-08
9479.5, 1.256e-08
9481.5, 1.342e-08
9483.5, 1.695e-08
9485.5, 1.578e-08
9487.5, 1.409e-08
9489.5, 5.24e-09
9491.5, 1.593e-08
9493.5, 1.31e-08
9495.5, 1.412e-08
9497.5, 1.077e-08
9499.5, 1.241e-08
9501.5, 1.853e-08
9503.5, 1.629e-08
9505.5, 1.604e-08
9507.5, 2.02e-08
9509.5, 1.494e-08
9511.5, 1.742e-08
9513.5, 1.336e-08
9515.5, 1.24e-08
9517.5, 1.339e-08
9519.5, 1.462e-08
9521.5, 1.938e-08
9523.5, 1.67e-08
9525.5, 1.808e-08
9527.5, 1.461e-08
9529.5, 1.87e-08
9531.5, 1.504e-08
9533.5, 1.02e-08
9535.5, 1.36e-08
9537.5, 1.2e-08
9539.5, 9.65e-09
9541.5, 1.396e-08
9543.5, 1.837e-08
9545.5, 1.338e-08
9547.5, 1.29e-08
9549.5, 1.291e-08
9551.5, 1.567e-08
9553.5, 2.266e-08
9555.5, 1.454e-08
9557.5, 8.16e-09
9559.5, 1.165e-08
9561.6, 2.311e-08
9563.6, 1.574e-08
9565.6, 1.889e-08
9567.6, 1.159e-08
9569.6, 1.644e-08
9571.6, 1.739e-08
9573.6, 1.479e-08
9575.6, 1.153e-08
9577.6, 1.387e-08
9579.6, 1.49e-08
9581.6, 1.453e-08
9583.6, 8.82e-09
9585.6, 1.469e-08
9587.6, 1.823e-08
9589.6, 1.27e-08
9591.6, 1.102e-08
9593.6, 1.405e-08
9595.6, 1.675e-08
9597.6, 1.441e-08
9599.6, 1.077e-08
9601.6, 1.396e-08
9603.6, 1.275e-08
9605.6, 9.11e-09
9607.6, 1.11e-08
9609.6, 1.055e-08
9611.6, 9.3e-09
9613.6, 1.011e-08
9615.6, 9.61e-09
9617.6, 4.76e-09
9619.6, 1.53e-08
9621.6, 1.489e-08
9623.6, 1.908e-08
9625.6, 2.131e-08
9627.6, 1.119e-08
9629.6, 1.738e-08
9631.6, 1.387e-08
9633.6, 1.279e-08
9635.6, 1.105e-08
9637.6, 1.36e-08
9639.6, 1.733e-08
9641.6, 1.628e-08
9643.6, 1.73e-08
9645.6, 1.363e-08
9647.6, 7.22e-09
9649.6, 3.99e-09
9651.6, 1.273e-08
9653.6, 1.66e-08
9655.6, 1.722e-08
9657.6, 1.303e-08
9659.6, 1.908e-08
9661.7, 1.63e-08
9663.7, 1.107e-08
9665.7, 1.725e-08
9667.7, 1.907e-08
9669.7, 1.134e-08
9671.7, 1.441e-08
9673.7, 8.1e-09
9675.7, 1.016e-08
9677.7, 7.66e-09
9679.7, 1.939e-08
9681.7, 1.612e-08
9683.7, 1.676e-08
9685.7, 9.71e-09
9687.7, 9.32e-09
9689.7, 1.417e-08
9691.7, 9.52e-09
9693.7, 1.638e-08
9695.7, 1.133e-08
9697.7, 1.229e-08
9699.7, 1.489e-08
9701.7, 1.294e-08
9703.7, 1.828e-08
9705.7, 1.736e-08
9707.7, 1.601e-08
9709.7, 1.617e-08
9711.7, 1.927e-08
9713.7, 1.928e-08
9715.7, 1.243e-08
9717.7, 1.685e-08
9719.7, 9.84e-09
9721.7, 1.858e-08
9723.7, 1.814e-08
9725.7, 1.614e-08
9727.7, 1.925e-08
9729.7, 1.256e-08
9731.7, 1.535e-08
9733.7, 2.076e-08
9735.7, 2.496e-08
9737.7, 8.83e-09
9739.7, 1.421e-08
9741.7, 1.645e-08
9743.7, 1.301e-08
9745.7, 1.609e-08
9747.7, 1.34e-08
9749.7, 2.144e-08
9751.7, 1.038e-08
9753.7, 2.084e-08
9755.7, 1.774e-08
9757.7, 1.297e-08
9759.7, 1.875e-08
9761.8, 1.51e-08
9763.8, 1.599e-08
9765.8, 1.293e-08
9767.8, 1.171e-08
9769.8, 1.467e-08
9771.8, 1.302e-08
9773.8, 9.18e-09
9775.8, 1.273e-08
9777.8, 1.261e-08
9779.8, 1.738e-08
9781.8, 1.586e-08
9783.8, 1.476e-08
9785.8, 1.442e-08
9787.8, 1.189e-08
9789.8, 8.37e-09
9791.8, 1.5e-08
9793.8, 1.379e-08
9795.8, 1.357e-08
9797.8, 1.739e-08
9799.8, 1.78e-08
9801.8, 1.37e-08
9803.8, 1.672e-08
9805.8, 1.67e-08
9807.8, 1.657e-08
9809.8, 1.701e-08
9811.8, 1.524e-08
9813.8, 1.464e-08
9815.8, 1.004e-08
9817.8, 1.556e-08
9819.8, 1.485e-08
9821.8, 1.41e-08
9823.8, 1.619e-08
9825.8, 1.069e-08
9827.8, 1.527e-08
9829.8, 2.029e-08
9831.8, 1.704e-08
9833.8, 1.163e-08
9835.8, 1.553e-08
9837.8, 1.685e-08
9839.8, 1.371e-08
9841.8, 1.427e-08
9843.8, 1.47e-08
9845.8, 1.112e-08
9847.8, 1.946e-08
9849.8, 1.879e-08
9851.8, 2.349e-08
9853.8, 2.048e-08
9855.8, 2.219e-08
9857.8, 1.487e-08
9859.8, 1.132e-08
9861.9, 1.584e-08
9863.9, 1.525e-08
9865.9, 2.236e-08
9867.9, 1.988e-08
9869.9, 1.542e-08
9871.9, 1.769e-08
9873.9, 2.302e-08
9875.9, 1.928e-08
9877.9, 2.162e-08
9879.9, 1.371e-08
9881.9, 2.095e-08
9883.9, 1.9e-08
9885.9, 2.223e-08
9887.9, 1.557e-08
9889.9, 2.377e-08
9891.9, 2.324e-08
9893.9, 1.731e-08
9895.9, 1.72e-08
9897.9, 1.75e-08
9899.9, 2.214e-08
9901.9, 2.115e-08
9903.9, 1.469e-08
9905.9, 1.526e-08
9907.9, 1.454e-08
9909.9, 1.709e-08
9911.9, 1.486e-08
9913.9, 1.989e-08
9915.9, 1.427e-08
9917.9, 2.011e-08
9919.9, 2.571e-08
9921.9, 1.74e-08
9923.9, 1.86e-08
9925.9, 1.816e-08
9927.9, 1.505e-08
9929.9, 1.622e-08
9931.9, 1.908e-08
9933.9, 2.351e-08
9935.9, 2.369e-08
9937.9, 1.707e-08
9939.9, 1.598e-08
9941.9, 2.366e-08
9943.9, 1.898e-08
9945.9, 1.718e-08
9947.9, 1.74e-08
9949.9, 1.719e-08
9951.9, 1.936e-08
9953.9, 1.601e-08
9955.9, 2.379e-08
9957.9, 1.567e-08
9959.9, 1.326e-08
9962.0, 1.704e-08
9964.0, 1.696e-08
9966.0, 2.14e-08
9968.0, 1.322e-08
9970.0, 1.839e-08
9972.0, 1.209e-08
9974.0, 2.488e-08
9976.0, 2.333e-08
9978.0, 1.993e-08
9980.0, 2.124e-08
9982.0, 1.825e-08
9984.0, 2.003e-08
9986.0, 1.733e-08
9988.0, 1.793e-08
9990.0, 1.755e-08
9992.0, 2.01e-08
9994.0, 2.049e-08
9996.0, 1.277e-08
9998.0, 1.951e-08
10000.0, 1.915e-08
10002.0, 1.594e-08
10004.0, 2.298e-08
10006.0, 1.912e-08
10008.0, 1.07e-08
10010.0, 1.815e-08
10012.0, 1.859e-08
10014.0, 2.637e-08
10016.0, 1.443e-08
10018.0, 1.621e-08
10020.0, 2.189e-08
10022.0, 2.224e-08
10024.0, 2.083e-08
10026.0, 2.213e-08
10028.0, 1.506e-08
10030.0, 1.595e-08
10032.0, 1.301e-08
10034.0, 1.665e-08
10036.0, 1.56e-08
10038.0, 1.725e-08
10040.0, 1.668e-08
10042.0, 1.783e-08
10044.0, 1.643e-08
10046.0, 1.138e-08
10048.0, 1.798e-08
10050.0, 1.875e-08
10052.0, 1.988e-08
10054.0, 2.611e-08
10056.0, 2.473e-08
10058.0, 1.737e-08
10060.0, 1.463e-08
10062.0, 2.077e-08
10064.0, 1.259e-08
10066.0, 1.895e-08
10068.0, 2.132e-08
10070.0, 1.693e-08
10072.0, 1.813e-08
10074.0, 9.4e-09
10076.0, 1.681e-08
10078.0, 2.866e-08
10080.0, 1.914e-08
10082.0, 2.177e-08
10084.0, 2.016e-08
10086.0, 2.102e-08
10088.0, 2.358e-08
10090.0, 1.69e-08
10092.0, 1.798e-08
10094.0, 2.142e-08
10096.0, 2.061e-08
10098.0, 1.56e-08
10100.0, 1.816e-08
10102.0, 1.872e-08
10104.0, 2.271e-08
10106.0, 1.817e-08
10108.0, 1.839e-08
10110.0, 2.427e-08
10112.0, 1.726e-08
10114.0, 2.13e-08
10116.0, 1.468e-08
10118.0, 1.287e-08
10120.0, 1.934e-08
10122.0, 1.56e-08
10124.0, 2.182e-08
10126.0, 2.603e-08
10128.0, 2.321e-08
10130.0, 2.196e-08
10132.0, 2.238e-08
10134.0, 2.319e-08
10136.0, 2.693e-08
10138.0, 1.658e-08
10140.0, 2.191e-08
10142.0, 2.51e-08
10144.0, 1.574e-08
10146.0, 2.259e-08
10148.0, 1.921e-08
10150.0, 2.16e-08
10152.0, 2.079e-08
10154.0, 2.673e-08
10156.0, 1.508e-08
10158.0, 1.876e-08
10160.0, 1.538e-08
10162.0, 1.894e-08
10164.0, 2.799e-08
10166.0, 1.908e-08
10168.0, 1.915e-08
10170.0, 2.102e-08
10172.0, 1.522e-08
10174.0, 1.52e-08
10176.0, 1.971e-08
10178.0, 1.341e-08
10180.0, 1.597e-08
10182.0, 1.928e-08
10184.0, 2.357e-08
10186.0, 2.553e-08
10188.0, 1.672e-08
10190.0, 2.113e-08
10192.0, 2.107e-08
10194.0, 1.756e-08
10196.0, 1.468e-08
10198.0, 1.036e-08
10200.0, 1.894e-08
10202.0, 1.648e-08
10204.0, 2.33e-08
10206.0, 2.005e-08
10208.0, 2.109e-08
10210.0, 2.826e-08
10212.0, 2.358e-08
10214.0, 2.373e-08
10216.0, 2.13e-08
10218.0, 1.823e-08
10220.0, 1.525e-08
10222.0, 7.21e-09
10224.0, 1.631e-08
10226.0, 1.35e-08
10228.0, 1.841e-08
10230.0, 1.338e-08
10232.0, 1.959e-08
10234.0, 1.965e-08
10236.0, 2.545e-08
10238.0, 2.035e-08
10240.0, 2.062e-08
10242.0, 1.69e-08
10244.0, 1.856e-08
10246.0, 2.421e-08
10248.0, 2.171e-08
10250.0, 1.953e-08
10252.0, 2.23e-08
10254.0, 1.969e-08
10256.0, 1.688e-08
10258.0, 2.055e-08
10260.0, 1.923e-08
10262.0, 1.208e-08
10264.0, 1.639e-08
10266.0, 2.358e-08
10268.0, 2.015e-08
10270.0, 1.222e-08
10272.0, 1.267e-08
10274.0, 1.908e-08
10276.0, 1.665e-08
10278.0, -9.79e-09
10280.0, -3.999e-08
10282.0, -3.681e-08
10284.0, -3.828e-08
10286.0, -3.568e-08
10288.0, -3.67e-08
10290.0, -3.812e-08
10292.0, -3.812e-08
10294.0, -3.585e-08
10296.0, -3.748e-08
10298.0, -3.534e-08
10300.0, -3.339e-08
10302.0, -3.543e-08
10304.0, -3.252e-08
10306.0, -3.908e-08
10308.0, -3.564e-08
10310.0, -3.77e-08
10312.0, -4.088e-08
10314.0, -3.625e-08
10316.0, -3.555e-08
10318.0, -3.466e-08
10320.0, -3.558e-08
10322.0, -3.813e-08
10324.0, -3.919e-08
10326.0, -3.801e-08
10328.0, -3.523e-08
10330.0, -3.548e-08
10332.0, -3.805e-08
10334.0, -3.649e-08
10336.0, -3.663e-08
10338.0, -3.333e-08
10340.0, -3.607e-08
10342.0, -3.459e-08
10344.0, -3.54e-08
10346.0, -3.365e-08
10348.0, -3.172e-08
10350.0, -3.411e-08
10352.0, -3.025e-08
10354.0, -3.074e-08
10356.0, -3.251e-08
10358.0, -3.458e-08
10360.0, -3.328e-08
10362.0, -3.051e-08
10364.0, -3.279e-08
10366.0, -3.126e-08
10368.0, -3.214e-08
10370.0, -3.418e-08
10372.0, -3.445e-08
10374.0, -3.708e-08
10376.0, -3.403e-08
10378.0, -3.497e-08
10380.0, -3.463e-08
10382.0, -3.397e-08
10384.0, -3.357e-08
10386.0, -3.266e-08
10388.0, -3.427e-08
10390.0, -3.617e-08
10392.0, -3.502e-08
10394.0, -2.984e-08
10396.0, -3.618e-08
10398.0, -3.516e-08
10400.0, -3.459e-08
10402.0, -3.985e-08
10404.0, -3.679e-08
10406.0, -3.636e-08
10408.0, -3.66e-08
10410.0, -3.481e-08
10412.0, -3.611e-08
10414.0, -3.366e-08
10416.0, -3.442e-08
10418.0, -3.698e-08
10420.0, -3.746e-08
10422.0, -3.669e-08
10424.0, -3.392e-08
10426.0, -3.717e-08
10428.0, -3.574e-08
10430.0, -3.705e-08
10432.0, -3.517e-08
10434.0, -4.029e-08
10436.0, -3.989e-08
10438.0, -3.769e-08
10440.0, -3.696e-08
10442.0, -3.907e-08
10444.0, -3.374e-08
10446.0, -3.417e-08
10448.0, -3.335e-08
10450.0, -3.408e-08
10452.0, -3.478e-08
10454.0, -3.362e-08
10456.0, -3.538e-08
10458.0, -3.81e-08
10460.0, -3.543e-08
10462.0, -3.595e-08
10464.0, -3.369e-08
10466.0, -3.364e-08
10468.0, -3.131e-08
10470.0, -2.882e-08
10472.0, -2.921e-08
10474.0, -2.906e-08
10476.0, -3.056e-08
10478.0, -3.118e-08
10480.0, -3.134e-08
10482.0, -3.399e-08
10484.0, -3.285e-08
10486.0, -3.337e-08
10488.0, -3.563e-08
10490.0, -3.712e-08
10492.0, -3.221e-08
10494.0, -3.105e-08
10496.0, -3.316e-08
10498.0, -3.232e-08
10500.0, -3.286e-08
10502.0, -3.456e-08
10504.0, -2.982e-08
10506.0, -3.179e-08
10508.0, -3.603e-08
10510.0, -3.55e-08
10513.0, -3.456e-08
10515.0, -3.432e-08
10517.0, -3.51e-08
10519.0, -3.611e-08
10521.0, -3.674e-08
10523.0, -3.348e-08
10525.0, -3.3e-08
10527.0, -3.399e-08
10529.0, -3.769e-08
10531.0, -3.556e-08
10533.0, -3.573e-08
10535.0, -3.873e-08
10537.0, -3.587e-08
10539.0, -3.533e-08
10541.0, -3.303e-08
10543.0, -3.136e-08
10545.0, -3.252e-08
10547.0, -3.413e-08
10549.0, -4.059e-08
10551.0, -3.81e-08
10553.0, -4.03e-08
10555.0, -4.048e-08
10557.0, -3.797e-08
10559.0, -3.814e-08
10561.0, -3.478e-08
10563.0, -3.615e-08
10565.0, -3.19e-08
10567.0, -3.199e-08
10569.0, -3.275e-08
10571.0, -3.562e-08
10573.0, -3.653e-08
10575.0, -3.316e-08
10577.0, -3.012e-08
10579.0, -2.752e-08
10581.0, -2.854e-08
10583.0, -3.279e-08
10585.0, -2.989e-08
10587.0, -3.058e-08
10589.0, -3.21e-08
10591.0, -3.357e-08
10593.0, -3.529e-08
10595.0, -3.346e-08
10597.0, -3.305e-08
10599.0, -3.596e-08
10601.0, -3.431e-08
10603.0, -3.319e-08
10605.0, -3.208e-08
10607.0, -3.844e-08
10609.0, -3.46e-08
10611.0, -3.365e-08
10613.0, -3.42e-08
10615.0, -3.361e-08
10617.0, -3.385e-08
10619.0, -3.908e-08
10621.0, -3.592e-08
10623.0, -3.673e-08
10625.0, -3.513e-08
10627.0, -3.561e-08
10629.0, -3.86e-08
10631.0, -3.856e-08
10633.0, -3.586e-08
10635.0, -3.814e-08
10637.0, -3.652e-08
10639.0, -3.395e-08
10641.0, -3.235e-08
10643.0, -3.476e-08
10645.0, -3.556e-08
10647.0, -3.634e-08
10649.0, -3.543e-08
10651.0, -3.947e-08
10653.0, -3.408e-08
10655.0, -3.609e-08
10657.0, -3.52e-08
10659.0, -3.687e-08
10661.0, -3.633e-08
10663.0, -3.554e-08
10665.0, -3.242e-08
10667.0, -3.47e-08
10669.0, -3.48e-08
10671.0, -3.256e-08
10673.0, -3.269e-08
10675.0, -3.119e-08
10677.0, -3.22e-08
10679.0, -3.201e-08
10681.0, -3.502e-08
10683.0, -3.4e-08
10685.0, -3.24e-08
10687.0, -3.408e-08
10689.0, -3.373e-08
10691.0, -3.643e-08
10693.0, -3.438e-08
10695.0, -4.079e-08
10697.0, -3.803e-08
10699.0, -3.816e-08
10701.0, -3.823e-08
10703.0, -3.744e-08
10705.0, -3.909e-08
10707.0, -4.012e-08
10709.0, -4.24e-08
10711.0, -3.978e-08
10713.0, -3.974e-08
10715.0, -3.946e-08
10717.0, -3.807e-08
10719.0, -4.163e-08
10721.0, -3.911e-08
10723.0, -4.109e-08
10725.0, -4.015e-08
10727.0, -3.773e-08
10729.0, -3.773e-08
10731.0, -4.05e-08
10733.0, -4.283e-08
10735.0, -3.799e-08
10737.0, -4.034e-08
10739.0, -3.921e-08
10741.0, -4.011e-08
10743.0, -4.185e-08
10745.0, -4.277e-08
10747.0, -3.765e-08
10749.0, -3.798e-08
10751.0, -3.793e-08
10753.0, -3.876e-08
10755.0, -3.755e-08
10757.0, -3.667e-08
10759.0, -3.76e-08
10761.0, -3.553e-08
10763.0, -3.713e-08
10765.0, -3.512e-08
10767.0, -3.586e-08
10769.0, -3.593e-08
10771.0, -3.578e-08
10773.0, -3.382e-08
10775.0, -3.236e-08
10777.0, -3.342e-08
10779.0, -3.515e-08
10781.0, -3.711e-08
10783.0, -3.628e-08
10785.0, -3.707e-08
10787.0, -3.789e-08
10789.0, -3.594e-08
10791.0, -3.739e-08
10793.0, -3.499e-08
10795.0, -3.595e-08
10797.0, -3.39e-08
10799.0, -3.437e-08
10801.0, -3.5e-08
10803.0, -3.525e-08
10805.0, -3.357e-08
10807.0, -3.312e-08
10809.0, -3.53e-08
10811.0, -3.052e-08
10813.0, -3.402e-08
10815.0, -3.257e-08
10817.0, -3.327e-08
10819.0, -3.61e-08
10821.0, -4.13e-08
10823.0, -3.312e-08
10825.0, -4.036e-08
10827.0, -4.049e-08
10829.0, -3.555e-08
10831.0, -3.609e-08
10833.0, -3.772e-08
10835.0, -3.544e-08
10837.0, -3.746e-08
10839.0, -3.656e-08
10841.0, -3.49e-08
10843.0, -3.516e-08
10845.0, -3.223e-08
10847.0, -3.474e-08
10849.0, -3.314e-08
10851.0, -3.416e-08
10853.0, -3.237e-08
10855.0, -3.05e-08
10857.0, -3.501e-08
10859.0, -3.457e-08
10861.0, -3.887e-08
10863.0, -3.628e-08
10865.0, -3.323e-08
10867.0, -3.47e-08
10869.0, -3.243e-08
10871.0, -3.528e-08
10873.0, -3.58e-08
10875.0, -3.385e-08
10877.0, -3.772e-08
10879.0, -3.341e-08
10881.0, -3.114e-08
10883.0, -3.279e-08
10885.0, -3.733e-08
10887.0, -3.645e-08
10889.0, -3.545e-08
10891.0, -3.584e-08
10893.0, -3.709e-08
10895.0, -3.716e-08
10897.0, -3.843e-08
10899.0, -3.505e-08
10901.0, -3.803e-08
10903.0, -3.513e-08
10905.0, -3.831e-08
10907.0, -4.076e-08
10909.0, -3.948e-08
10911.0, -3.511e-08
10913.0, -3.497e-08
10915.0, -3.652e-08
10917.0, -3.411e-08
10919.0, -3.549e-08
10921.0, -3.626e-08
10923.0, -3.651e-08
10925.0, -3.402e-08
10927.0, -3.27e-08
10929.0, -3.434e-08
10931.0, -3.211e-08
10933.0, -3.612e-08
10935.0, -3.528e-08
10937.0, -3.185e-08
10939.0, -3.198e-08
10941.0, -3.626e-08
10943.0, -3.742e-08
10945.0, -3.567e-08
10947.0, -3.477e-08
10949.0, -3.699e-08
10951.0, -4.218e-08
10953.0, -3.715e-08
10955.0, -3.52e-08
10957.0, -3.645e-08
10959.0, -3.928e-08
10961.0, -3.763e-08
10963.0, -3.582e-08
10965.0, -3.441e-08
10967.0, -3.574e-08
10969.0, -3.655e-08
10971.0, -3.779e-08
10973.0, -3.681e-08
10975.0, -3.505e-08
10977.0, -3.677e-08
10979.0, -3.515e-08
10981.0, -3.929e-08
10983.0, -3.389e-08
10985.0, -3.397e-08
10987.0, -3.645e-08
10989.0, -3.61e-08
10991.0, -3.819e-08
10993.0, -3.638e-08
10995.0, -3.707e-08
10997.0, -3.814e-08
10999.0, -4.139e-08
11001.0, -4.149e-08
11003.0, -3.446e-08
11005.0, -3.647e-08
11007.0, -3.912e-08
11009.0, -3.962e-08
