Time sep (ms?), Current (A)
0.0, -4.223e-08
2.002, -4.069e-08
4.004, -4.029e-08
6.006, -4.389e-08
8.008, -4.486e-08
10.01, -4.335e-08
12.012, -3.933e-08
14.014, -4.165e-08
16.016, -4.219e-08
18.018, -3.998e-08
20.02, -4.134e-08
22.022, -4.148e-08
24.024, -4.175e-08
26.026, -4.325e-08
28.028, -4.346e-08
30.03, -4.048e-08
32.032, -3.952e-08
34.034, -3.759e-08
36.036, -4.322e-08
38.038, -4.549e-08
40.04, -4.43e-08
42.042, -3.897e-08
44.044, -4.111e-08
46.046, -4.445e-08
48.048, -4.314e-08
50.05, -3.959e-08
52.052, -4.24e-08
54.054, -4.214e-08
56.056, -4.054e-08
58.058, -3.932e-08
60.06, -4.153e-08
62.062, -3.766e-08
64.064, -3.801e-08
66.066, -3.874e-08
68.068, -3.863e-08
70.07, -3.933e-08
72.072, -3.82e-08
74.074, -3.905e-08
76.076, -4.12e-08
78.078, -4.17e-08
80.08, -4.067e-08
82.082, -4.091e-08
84.084, -4.269e-08
86.086, -3.878e-08
88.088, -4.263e-08
90.09, -4.594e-08
92.092, -4.414e-08
94.094, -4.158e-08
96.096, -4.065e-08
98.098, -4.122e-08
100.1, -4.172e-08
102.1, -4.269e-08
104.1, -4.619e-08
106.11, -4.264e-08
108.11, -4.504e-08
110.11, -4.357e-08
112.11, -4.274e-08
114.11, -4.121e-08
116.12, -4.345e-08
118.12, -4.489e-08
120.12, -4.287e-08
122.12, -4.401e-08
124.12, -4.147e-08
126.13, -4.413e-08
128.13, -4.106e-08
130.13, -4.166e-08
132.13, -3.624e-08
134.13, -4.407e-08
136.14, -4.299e-08
138.14, -3.912e-08
140.14, -4.337e-08
142.14, -4.046e-08
144.14, -4.101e-08
146.15, -4.171e-08
148.15, -4.802e-08
150.15, -4.103e-08
152.15, -4.203e-08
154.15, -4.218e-08
156.16, -4.189e-08
158.16, -4.027e-08
160.16, -4.462e-08
162.16, -4.327e-08
164.16, -4.128e-08
166.17, -4.217e-08
168.17, -3.986e-08
170.17, -4.1e-08
172.17, -3.583e-08
174.17, -4.093e-08
176.18, -4.025e-08
178.18, -4.47e-08
180.18, -4.249e-08
182.18, -4.238e-08
184.18, -4.349e-08
186.19, -4.377e-08
188.19, -4.479e-08
190.19, -3.891e-08
192.19, -4.192e-08
194.19, -4.449e-08
196.2, -4.374e-08
198.2, -4.488e-08
200.2, -4.365e-08
202.2, -4.192e-08
204.2, -4.541e-08
206.21, -4.871e-08
208.21, -4.723e-08
210.21, -4.543e-08
212.21, -4.484e-08
214.21, -4.272e-08
216.22, -4.532e-08
218.22, -4.224e-08
220.22, -4.33e-08
222.22, -4.371e-08
224.22, -4.256e-08
226.23, -4.159e-08
228.23, -4.121e-08
230.23, -4.053e-08
232.23, -4.331e-08
234.23, -4.381e-08
236.24, -4.112e-08
238.24, -4.519e-08
240.24, -4.19e-08
242.24, -4.246e-08
244.24, -4.312e-08
246.25, -4.49e-08
248.25, -4.246e-08
250.25, -4.478e-08
252.25, -4.543e-08
254.25, -4.633e-08
256.26, -4.445e-08
258.26, -4.815e-08
260.26, -4.474e-08
262.26, -4.516e-08
264.26, -4.829e-08
266.27, -5.17e-08
268.27, -4.802e-08
270.27, -4.907e-08
272.27, -4.823e-08
274.27, -4.721e-08
276.28, -4.773e-08
278.28, -4.949e-08
280.28, -4.409e-08
282.28, -4.741e-08
284.28, -4.593e-08
286.29, -4.564e-08
288.29, -4.774e-08
290.29, -5.13e-08
292.29, -4.895e-08
294.29, -4.711e-08
296.3, -4.631e-08
298.3, -4.4e-08
300.3, -4.268e-08
302.3, -4.636e-08
304.3, -4.595e-08
306.31, -4.633e-08
308.31, -4.586e-08
310.31, -4.449e-08
312.31, -4.514e-08
314.31, -4.567e-08
316.32, -4.904e-08
318.32, -4.657e-08
320.32, -4.492e-08
322.32, -4.625e-08
324.32, -4.212e-08
326.33, -4.51e-08
328.33, -3.891e-08
330.33, -4.227e-08
332.33, -4.125e-08
334.33, -4.247e-08
336.34, -4.439e-08
338.34, -4.346e-08
340.34, -4.652e-08
342.34, -4.303e-08
344.34, -4.497e-08
346.35, -4.266e-08
348.35, -4.259e-08
350.35, -4.495e-08
352.35, -4.687e-08
354.35, -4.515e-08
356.36, -4.235e-08
358.36, -4.205e-08
360.36, -4.443e-08
362.36, -4.41e-08
364.36, -4.526e-08
366.37, -4.485e-08
368.37, -4.314e-08
370.37, -4.589e-08
372.37, -4.694e-08
374.37, -4.681e-08
376.38, -4.6e-08
378.38, -4.541e-08
380.38, -4.181e-08
382.38, -4.7e-08
384.38, -4.536e-08
386.39, -4.638e-08
388.39, -4.372e-08
390.39, -4.664e-08
392.39, -4.336e-08
394.39, -4.436e-08
396.4, -4.236e-08
398.4, -4.571e-08
400.4, -4.558e-08
402.4, -4.194e-08
404.4, -3.962e-08
406.41, -4.386e-08
408.41, -4.101e-08
410.41, -4.26e-08
412.41, -4.619e-08
414.41, -4.375e-08
416.42, -4.135e-08
418.42, -4.428e-08
420.42, -4.432e-08
422.42, -4.528e-08
424.42, -4.485e-08
426.43, -4.27e-08
428.43, -4.163e-08
430.43, -4.211e-08
432.43, -4.272e-08
434.43, -4.241e-08
436.44, -4.063e-08
438.44, -4.066e-08
440.44, -3.989e-08
442.44, -4.294e-08
444.44, -4.501e-08
446.45, -4.523e-08
448.45, -4.736e-08
450.45, -4.771e-08
452.45, -4.704e-08
454.45, -4.927e-08
456.46, -4.624e-08
458.46, -4.953e-08
460.46, -4.709e-08
462.46, -4.37e-08
464.46, -4.396e-08
466.47, -4.262e-08
468.47, -4.25e-08
470.47, -4.364e-08
472.47, -4.461e-08
474.47, -4.319e-08
476.48, -4.398e-08
478.48, -3.667e-08
480.48, -4.427e-08
482.48, -4.338e-08
484.48, -4.144e-08
486.49, -4.126e-08
488.49, -4.557e-08
490.49, -4.589e-08
492.49, -4.567e-08
494.49, -3.917e-08
496.5, -4.093e-08
498.5, -4.364e-08
500.5, -4.306e-08
502.5, -4.269e-08
504.5, -4.036e-08
506.51, -4.072e-08
508.51, -4.069e-08
510.51, -4.247e-08
512.51, -4.205e-08
514.51, -4.333e-08
516.52, -4.31e-08
518.52, -4.451e-08
520.52, -4.542e-08
522.52, -4.435e-08
524.52, -4.088e-08
526.53, -4.558e-08
528.53, -4.913e-08
530.53, -4.466e-08
532.53, -4.473e-08
534.53, -4.089e-08
536.54, -4.481e-08
538.54, -4.336e-08
540.54, -4.46e-08
542.54, -4.513e-08
544.54, -4.557e-08
546.55, -4.83e-08
548.55, -4.117e-08
550.55, -4.435e-08
552.55, -4.589e-08
554.55, -4.327e-08
556.56, -4.319e-08
558.56, -4.274e-08
560.56, -4.089e-08
562.56, -3.587e-08
564.56, -3.613e-08
566.57, -3.908e-08
568.57, -4.099e-08
570.57, -4.041e-08
572.57, -3.835e-08
574.57, -4.137e-08
576.58, -3.973e-08
578.58, -3.756e-08
580.58, -4.014e-08
582.58, -3.931e-08
584.58, -4.333e-08
586.59, -4.322e-08
588.59, -4.038e-08
590.59, -4.173e-08
592.59, -4.099e-08
594.59, -4.235e-08
596.6, -4.199e-08
598.6, -4.161e-08
600.6, -4.285e-08
602.6, -4.2e-08
604.6, -4.019e-08
606.61, -4.375e-08
608.61, -4.269e-08
610.61, -4.289e-08
612.61, -4.246e-08
614.61, -4.274e-08
616.62, -4.481e-08
618.62, -4.443e-08
620.62, -4.313e-08
622.62, -4.851e-08
624.62, -4.662e-08
626.63, -4.647e-08
628.63, -4.71e-08
630.63, -4.559e-08
632.63, -4.693e-08
634.63, -4.255e-08
636.64, -4.554e-08
638.64, -4.344e-08
640.64, -4.642e-08
642.64, -4.162e-08
644.64, -3.878e-08
646.65, -4.112e-08
648.65, -4.578e-08
650.65, -4.355e-08
652.65, -4.596e-08
654.65, -4.302e-08
656.66, -4.355e-08
658.66, -4.849e-08
660.66, -4.05e-08
662.66, -4.015e-08
664.66, -4.306e-08
666.67, -4.461e-08
668.67, -4.235e-08
670.67, -4.511e-08
672.67, -4.295e-08
674.67, -4.35e-08
676.68, -4.414e-08
678.68, -4.348e-08
680.68, -4.452e-08
682.68, -3.932e-08
684.68, -4.103e-08
686.69, -4.224e-08
688.69, -3.888e-08
690.69, -4.287e-08
692.69, -3.981e-08
694.69, -4.122e-08
696.7, -3.864e-08
698.7, -4.264e-08
700.7, -4.44e-08
702.7, -3.784e-08
704.7, -4.237e-08
706.71, -4.503e-08
708.71, -4.136e-08
710.71, -4.2e-08
712.71, -4.293e-08
714.71, -3.842e-08
716.72, -4.314e-08
718.72, -4.477e-08
720.72, -4.039e-08
722.72, -3.634e-08
724.72, -3.686e-08
726.73, -4.396e-08
728.73, -3.973e-08
730.73, -4.014e-08
732.73, -3.885e-08
734.73, -3.853e-08
736.74, -3.827e-08
738.74, -4.168e-08
740.74, -4.077e-08
742.74, -4.194e-08
744.74, -3.921e-08
746.75, -3.927e-08
748.75, -3.837e-08
750.75, -3.987e-08
752.75, -3.822e-08
754.75, -3.85e-08
756.76, -4.025e-08
758.76, -3.79e-08
760.76, -4.211e-08
762.76, -3.793e-08
764.76, -3.955e-08
766.77, -4.046e-08
768.77, -4.215e-08
770.77, -4.205e-08
772.77, -4.027e-08
774.77, -3.871e-08
776.78, -3.851e-08
778.78, -4.116e-08
780.78, -3.956e-08
782.78, -3.643e-08
784.78, -3.477e-08
786.79, -3.785e-08
788.79, -3.34e-08
790.79, -3.689e-08
792.79, -3.718e-08
794.79, -3.841e-08
796.8, -3.824e-08
798.8, -3.924e-08
800.8, -3.797e-08
802.8, -3.947e-08
804.8, -3.752e-08
806.81, -3.865e-08
808.81, -3.683e-08
810.81, -4.022e-08
812.81, -3.913e-08
814.81, -3.937e-08
816.82, -3.897e-08
818.82, -3.597e-08
820.82, -3.851e-08
822.82, -3.69e-08
824.82, -3.844e-08
826.83, -3.854e-08
828.83, -3.805e-08
830.83, -4.335e-08
832.83, -4.003e-08
834.83, -4.274e-08
836.84, -4.563e-08
838.84, -3.893e-08
840.84, -4.213e-08
842.84, -3.854e-08
844.84, -4.527e-08
846.85, -4.44e-08
848.85, -4.549e-08
850.85, -4.133e-08
852.85, -3.821e-08
854.85, -4.224e-08
856.86, -4.1e-08
858.86, -4.082e-08
860.86, -3.927e-08
862.86, -4.1e-08
864.86, -4.231e-08
866.87, -4.261e-08
868.87, -4.371e-08
870.87, -3.93e-08
872.87, -3.824e-08
874.87, -4.284e-08
876.88, -4.339e-08
878.88, -4.62e-08
880.88, -4.342e-08
882.88, -4.217e-08
884.88, -3.801e-08
886.89, -4.321e-08
888.89, -3.777e-08
890.89, -3.976e-08
892.89, -4.146e-08
894.89, -3.823e-08
896.9, -3.775e-08
898.9, -3.893e-08
900.9, -3.928e-08
902.9, -3.651e-08
904.9, -3.835e-08
906.91, -3.75e-08
908.91, -3.809e-08
910.91, -3.82e-08
912.91, -3.62e-08
914.91, -3.916e-08
916.92, -3.892e-08
918.92, -4.062e-08
920.92, -3.748e-08
922.92, -3.721e-08
924.92, -3.937e-08
926.93, -4.214e-08
928.93, -4.067e-08
930.93, -3.973e-08
932.93, -4.256e-08
934.93, -4.131e-08
936.94, -4.293e-08
938.94, -4.256e-08
940.94, -4.298e-08
942.94, -4.019e-08
944.94, -3.907e-08
946.95, -4.24e-08
948.95, -4.167e-08
950.95, -4.251e-08
952.95, -4.077e-08
954.95, -4.005e-08
956.96, -3.983e-08
958.96, -3.736e-08
960.96, -4.281e-08
962.96, -3.571e-08
964.96, -4.319e-08
966.97, -4.374e-08
968.97, -4.527e-08
970.97, -4.259e-08
972.97, -4.374e-08
974.97, -4.11e-08
976.98, -4.331e-08
978.98, -4.047e-08
980.98, -4.338e-08
982.98, -4.419e-08
984.98, -4.65e-08
986.99, -4.002e-08
988.99, -4.722e-08
990.99, -4.364e-08
992.99, -4.381e-08
994.99, -4.563e-08
997.0, -4.463e-08
999.0, -4.622e-08
1001.0, -4.17e-08
1003.0, -4.672e-08
1005.0, -4.481e-08
1007.0, -4.162e-08
1009.0, -4.096e-08
1011.0, -4.22e-08
1013.0, -4.147e-08
1015.0, -3.827e-08
1017.0, -4.136e-08
1019.0, -4.28e-08
1021.0, -4.393e-08
1023.0, -4.787e-08
1025.0, -4.461e-08
1027.0, -4.951e-08
1029.0, -4.336e-08
1031.0, -4.485e-08
1033.0, -4.312e-08
1035.0, -4.662e-08
1037.0, -4.558e-08
1039.0, -4.765e-08
1041.0, -5.131e-08
1043.0, -5.143e-08
1045.0, -4.954e-08
1047.0, 1.1382e-07
1049.0, 2.8974e-07
1051.0, 2.4908e-07
1053.1, 2.7523e-07
1055.1, 2.5528e-07
1057.1, 2.969e-07
1059.1, 2.9148e-07
1061.1, 2.9533e-07
1063.1, 2.6503e-07
1065.1, 2.6323e-07
1067.1, 2.6657e-07
1069.1, 2.9989e-07
1071.1, 3.2511e-07
1073.1, 2.5743e-07
1075.1, 2.5648e-07
1077.1, 2.4802e-07
1079.1, 2.8214e-07
1081.1, 2.6804e-07
1083.1, 2.2931e-07
1085.1, 2.5946e-07
1087.1, 2.6751e-07
1089.1, 2.7108e-07
1091.1, 2.3941e-07
1093.1, 2.5239e-07
1095.1, 2.7673e-07
1097.1, 2.6657e-07
1099.1, 2.767e-07
1101.1, 2.9074e-07
1103.1, 3.1755e-07
1105.1, 2.6327e-07
1107.1, 2.7116e-07
1109.1, 2.9102e-07
1111.1, 3.137e-07
1113.1, 2.8074e-07
1115.1, 2.8859e-07
1117.1, 2.5897e-07
1119.1, 2.9885e-07
1121.1, 3.1477e-07
1123.1, 3.111e-07
1125.1, 2.8573e-07
1127.1, 2.9303e-07
1129.1, 2.9126e-07
1131.1, 2.5789e-07
1133.1, 2.5557e-07
1135.1, 2.7195e-07
1137.1, 3.1535e-07
1139.1, 2.8477e-07
1141.1, 2.6166e-07
1143.1, 2.5514e-07
1145.1, 2.932e-07
1147.1, 3.6861e-07
1149.1, 3.3938e-07
1151.1, 3.0432e-07
1153.2, 3.0717e-07
1155.2, 2.6304e-07
1157.2, 2.7646e-07
1159.2, 3.0481e-07
1161.2, 2.9271e-07
1163.2, 2.6899e-07
1165.2, 2.7943e-07
1167.2, 3.1541e-07
1169.2, 2.9119e-07
1171.2, 2.9334e-07
1173.2, 3.367e-07
1175.2, 3.2644e-07
1177.2, 2.9395e-07
1179.2, 2.8392e-07
1181.2, 3.2939e-07
1183.2, 2.8694e-07
1185.2, 3.1784e-07
1187.2, 2.7617e-07
1189.2, 3.2936e-07
1191.2, 3.2331e-07
1193.2, 3.6182e-07
1195.2, 3.0014e-07
1197.2, 3.0059e-07
1199.2, 3.1178e-07
1201.2, 3.3024e-07
1203.2, 2.8146e-07
1205.2, 2.7831e-07
1207.2, 2.9704e-07
1209.2, 2.9398e-07
1211.2, 2.9312e-07
1213.2, 3.2386e-07
1215.2, 2.9955e-07
1217.2, 2.6867e-07
1219.2, 3.1942e-07
1221.2, 3.0593e-07
1223.2, 3.3203e-07
1225.2, 3.4463e-07
1227.2, 3.0827e-07
1229.2, 3.0267e-07
1231.2, 2.9287e-07
1233.2, 3.1536e-07
1235.2, 3.1732e-07
1237.2, 3.2773e-07
1239.2, 2.9097e-07
1241.2, 3.0875e-07
1243.2, 2.9969e-07
1245.2, 2.7072e-07
1247.2, 3.0445e-07
1249.2, 3.0712e-07
1251.2, 3.0019e-07
1253.3, 3.5336e-07
1255.3, 3.2914e-07
1257.3, 3.2458e-07
1259.3, 3.1398e-07
1261.3, 2.8152e-07
1263.3, 2.9141e-07
1265.3, 3.1847e-07
1267.3, 3.8053e-07
1269.3, 3.0787e-07
1271.3, 3.0722e-07
1273.3, 2.748e-07
1275.3, 3.6162e-07
1277.3, 3.0972e-07
1279.3, 3.1435e-07
1281.3, 3.2818e-07
1283.3, 3.2573e-07
1285.3, 3.3872e-07
1287.3, 3.415e-07
1289.3, 2.4156e-07
1291.3, 2.9894e-07
1293.3, 3.5462e-07
1295.3, 3.218e-07
1297.3, 2.9548e-07
1299.3, 2.8966e-07
1301.3, 3.0221e-07
1303.3, 3.0172e-07
1305.3, 3.2114e-07
1307.3, 3.2286e-07
1309.3, 3.0717e-07
1311.3, 3.5157e-07
1313.3, 3.0191e-07
1315.3, 2.9204e-07
1317.3, 3.1434e-07
1319.3, 3.1156e-07
1321.3, 3.2814e-07
1323.3, 3.1013e-07
1325.3, 3.1246e-07
1327.3, 2.9073e-07
1329.3, 2.857e-07
1331.3, 3.272e-07
1333.3, 3.5737e-07
1335.3, 3.3085e-07
1337.3, 3.5569e-07
1339.3, 3.035e-07
1341.3, 2.9591e-07
1343.3, 2.926e-07
1345.3, 3.359e-07
1347.3, 3.0354e-07
1349.3, 3.0859e-07
1351.3, 3.5465e-07
1353.4, 3.1639e-07
1355.4, 3.5955e-07
1357.4, 2.9494e-07
1359.4, 3.522e-07
1361.4, 3.4019e-07
1363.4, 3.5229e-07
1365.4, 3.297e-07
1367.4, 3.189e-07
1369.4, 3.2042e-07
1371.4, 3.124e-07
1373.4, 2.5685e-07
1375.4, 3.0434e-07
1377.4, 3.3951e-07
1379.4, 3.7103e-07
1381.4, 3.06e-07
1383.4, 3.0822e-07
1385.4, 3.768e-07
1387.4, 3.3316e-07
1389.4, 3.3084e-07
1391.4, 2.6998e-07
1393.4, 3.4191e-07
1395.4, 3.1947e-07
1397.4, 3.0887e-07
1399.4, 3.4177e-07
1401.4, 2.9942e-07
1403.4, 3.2863e-07
1405.4, 2.7779e-07
1407.4, 3.4603e-07
1409.4, 3.1158e-07
1411.4, 3.4222e-07
1413.4, 3.2943e-07
1415.4, 3.1247e-07
1417.4, 3.0328e-07
1419.4, 3.3278e-07
1421.4, 2.9351e-07
1423.4, 3.2265e-07
1425.4, 3.4406e-07
1427.4, 3.4519e-07
1429.4, 2.9556e-07
1431.4, 3.1832e-07
1433.4, 2.9455e-07
1435.4, 3.3349e-07
1437.4, 3.2302e-07
1439.4, 2.9052e-07
1441.4, 3.2771e-07
1443.4, 3.294e-07
1445.4, 2.9838e-07
1447.4, 3.0838e-07
1449.4, 3.1491e-07
1451.4, 2.8208e-07
1453.5, 3.192e-07
1455.5, 3.2655e-07
1457.5, 3.2241e-07
1459.5, 3.1799e-07
1461.5, 3.2843e-07
1463.5, 2.9079e-07
1465.5, 3.066e-07
1467.5, 3.3351e-07
1469.5, 3.0024e-07
1471.5, 3.1142e-07
1473.5, 3.4113e-07
1475.5, 3.2433e-07
1477.5, 3.4717e-07
1479.5, 3.4188e-07
1481.5, 3.6047e-07
1483.5, 3.1144e-07
1485.5, 3.3194e-07
1487.5, 3.1544e-07
1489.5, 2.8351e-07
1491.5, 3.2162e-07
1493.5, 3.3006e-07
1495.5, 3.432e-07
1497.5, 3.0304e-07
1499.5, 3.2627e-07
1501.5, 2.986e-07
1503.5, 3.0183e-07
1505.5, 3.5911e-07
1507.5, 3.2188e-07
1509.5, 2.9858e-07
1511.5, 2.8931e-07
1513.5, 3.5679e-07
1515.5, 3.1279e-07
1517.5, 3.1293e-07
1519.5, 3.4604e-07
1521.5, 3.3232e-07
1523.5, 3.4827e-07
1525.5, 3.0329e-07
1527.5, 3.5478e-07
1529.5, 3.103e-07
1531.5, 3.4456e-07
1533.5, 3.6024e-07
1535.5, 3.4305e-07
1537.5, 3.5627e-07
1539.5, 3.2151e-07
1541.5, 3.4214e-07
1543.5, 3.1234e-07
1545.5, 3.5263e-07
1547.5, 3.539e-07
1549.5, 2.7347e-07
1551.5, 3.1749e-07
1553.6, 3.4863e-07
1555.6, 3.2126e-07
1557.6, 3.6661e-07
1559.6, 3.2197e-07
1561.6, 3.1795e-07
1563.6, 3.3866e-07
1565.6, 3.1152e-07
1567.6, 3.2017e-07
1569.6, 2.9514e-07
1571.6, 3.8952e-07
1573.6, 3.3029e-07
1575.6, 3.0119e-07
1577.6, 3.2888e-07
1579.6, 3.108e-07
1581.6, 3.6081e-07
1583.6, 3.441e-07
1585.6, 3.1651e-07
1587.6, 3.5631e-07
1589.6, 3.5479e-07
1591.6, 3.3288e-07
1593.6, 3.3973e-07
1595.6, 3.1518e-07
1597.6, 3.1886e-07
1599.6, 3.5035e-07
1601.6, 3.4618e-07
1603.6, 3.2074e-07
1605.6, 3.2508e-07
1607.6, 3.2278e-07
1609.6, 2.8737e-07
1611.6, 3.2098e-07
1613.6, 3.063e-07
1615.6, 3.0168e-07
1617.6, 2.8335e-07
1619.6, 3.1967e-07
1621.6, 2.6341e-07
1623.6, 3.279e-07
1625.6, 3.6186e-07
1627.6, 3.2732e-07
1629.6, 3.6255e-07
1631.6, 3.4561e-07
1633.6, 3.037e-07
1635.6, 3.0123e-07
1637.6, 2.8635e-07
1639.6, 3.0883e-07
1641.6, 3.2516e-07
1643.6, 3.3187e-07
1645.6, 3.6876e-07
1647.6, 3.5044e-07
1649.6, 2.9586e-07
1651.6, 3.1444e-07
1653.7, 2.6029e-07
1655.7, 3.3853e-07
1657.7, 3.3405e-07
1659.7, 3.3351e-07
1661.7, 3.3335e-07
1663.7, 3.2922e-07
1665.7, 3.4607e-07
1667.7, 3.1691e-07
1669.7, 3.1852e-07
1671.7, 3.0416e-07
1673.7, 3.2112e-07
1675.7, 2.7807e-07
1677.7, 3.1455e-07
1679.7, 2.9662e-07
1681.7, 2.9105e-07
1683.7, 3.6566e-07
1685.7, 3.651e-07
1687.7, 2.8215e-07
1689.7, 3.1009e-07
1691.7, 3.5062e-07
1693.7, 3.1468e-07
1695.7, 3.0331e-07
1697.7, 3.3746e-07
1699.7, 3.4832e-07
1701.7, 3.034e-07
1703.7, 3.0162e-07
1705.7, 2.8274e-07
1707.7, 3.6475e-07
1709.7, 3.5144e-07
1711.7, 3.2857e-07
1713.7, 3.3113e-07
1715.7, 3.0588e-07
1717.7, 3.2529e-07
1719.7, 3.707e-07
1721.7, 3.2607e-07
1723.7, 3.1628e-07
1725.7, 3.4962e-07
1727.7, 3.2302e-07
1729.7, 3.2283e-07
1731.7, 2.9307e-07
1733.7, 3.1454e-07
1735.7, 3.3711e-07
1737.7, 3.2647e-07
1739.7, 3.1709e-07
1741.7, 2.8889e-07
1743.7, 3.7208e-07
1745.7, 3.1736e-07
1747.7, 3.6777e-07
1749.7, 3.1504e-07
1751.7, 3.0286e-07
1753.8, 3.4526e-07
1755.8, 3.0646e-07
1757.8, 3.4102e-07
1759.8, 3.4951e-07
1761.8, 3.1788e-07
1763.8, 3.1987e-07
1765.8, 2.9425e-07
1767.8, 2.9283e-07
1769.8, 2.9817e-07
1771.8, 3.285e-07
1773.8, 3.1814e-07
1775.8, 3.2852e-07
1777.8, 3.4086e-07
1779.8, 3.4235e-07
1781.8, 2.9371e-07
1783.8, 3.2326e-07
1785.8, 3.3014e-07
1787.8, 3.2584e-07
1789.8, 3.6943e-07
1791.8, 3.4389e-07
1793.8, 3.226e-07
1795.8, 3.4347e-07
1797.8, 3.2476e-07
1799.8, 3.2007e-07
1801.8, 3.5402e-07
1803.8, 3.3035e-07
1805.8, 3.6556e-07
1807.8, 3.0618e-07
1809.8, 3.3345e-07
1811.8, 2.6647e-07
1813.8, 3.2504e-07
1815.8, 3.4283e-07
1817.8, 3.7772e-07
1819.8, 2.8201e-07
1821.8, 3.0521e-07
1823.8, 3.8554e-07
1825.8, 3.4125e-07
1827.8, 2.8504e-07
1829.8, 3.5831e-07
1831.8, 3.7706e-07
1833.8, 3.7439e-07
1835.8, 3.3716e-07
1837.8, 3.3505e-07
1839.8, 3.4725e-07
1841.8, 3.3932e-07
1843.8, 3.3757e-07
1845.8, 3.1882e-07
1847.8, 3.0261e-07
1849.8, 3.2088e-07
1851.8, 3.6601e-07
1853.9, 3.4361e-07
1855.9, 2.905e-07
1857.9, 3.5536e-07
1859.9, 3.342e-07
1861.9, 3.1187e-07
1863.9, 3.3802e-07
1865.9, 3.1851e-07
1867.9, 3.291e-07
1869.9, 3.6052e-07
1871.9, 3.5186e-07
1873.9, 3.2624e-07
1875.9, 3.1698e-07
1877.9, 3.3653e-07
1879.9, 3.5118e-07
1881.9, 3.4718e-07
1883.9, 3.0803e-07
1885.9, 3.8991e-07
1887.9, 3.4881e-07
1889.9, 3.1836e-07
1891.9, 3.7862e-07
1893.9, 3.8204e-07
1895.9, 3.2598e-07
1897.9, 3.414e-07
1899.9, 3.3487e-07
1901.9, 3.3577e-07
1903.9, 3.2021e-07
1905.9, 3.0902e-07
1907.9, 3.736e-07
1909.9, 3.2041e-07
1911.9, 3.7264e-07
1913.9, 3.5776e-07
1915.9, 3.511e-07
1917.9, 3.2454e-07
1919.9, 3.3507e-07
1921.9, 3.2261e-07
1923.9, 3.1214e-07
1925.9, 3.2727e-07
1927.9, 3.7423e-07
1929.9, 3.6565e-07
1931.9, 3.1612e-07
1933.9, 3.4519e-07
1935.9, 3.1483e-07
1937.9, 3.0263e-07
1939.9, 4.0043e-07
1941.9, 2.9029e-07
1943.9, 3.3852e-07
1945.9, 3.7745e-07
1947.9, 3.5117e-07
1949.9, 3.3168e-07
1951.9, 3.6259e-07
1954.0, 3.9017e-07
1956.0, 3.4748e-07
1958.0, 3.4304e-07
1960.0, 3.3927e-07
1962.0, 2.8966e-07
1964.0, 3.8532e-07
1966.0, 3.4518e-07
1968.0, 3.1446e-07
1970.0, 3.6501e-07
1972.0, 3.1165e-07
1974.0, 3.4199e-07
1976.0, 3.484e-07
1978.0, 3.2725e-07
1980.0, 3.0803e-07
1982.0, 3.4234e-07
1984.0, 3.1201e-07
1986.0, 3.1455e-07
1988.0, 3.4044e-07
1990.0, 3.274e-07
1992.0, 3.5393e-07
1994.0, 3.4919e-07
1996.0, 3.5136e-07
1998.0, 3.4099e-07
2000.0, 3.7866e-07
2002.0, 3.2153e-07
2004.0, 3.1326e-07
2006.0, 3.7169e-07
2008.0, 3.9508e-07
2010.0, 3.4052e-07
2012.0, 3.0564e-07
2014.0, 3.199e-07
2016.0, 3.337e-07
2018.0, 3.4266e-07
2020.0, 3.7024e-07
2022.0, 3.4995e-07
2024.0, 2.9734e-07
2026.0, 3.0952e-07
2028.0, 3.1971e-07
2030.0, 3.3423e-07
2032.0, 2.7763e-07
2034.0, 3.0697e-07
2036.0, 3.426e-07
2038.0, 3.4199e-07
2040.0, 3.9542e-07
2042.0, 3.4885e-07
2044.0, 3.1442e-07
2046.0, 3.5745e-07
2048.0, 1.2503e-07
2050.0, -4.336e-08
2052.0, -4.541e-08
2054.1, -4.821e-08
2056.1, -4.646e-08
2058.1, -4.692e-08
2060.1, -4.63e-08
2062.1, -4.972e-08
2064.1, -4.653e-08
2066.1, -4.465e-08
2068.1, -4.802e-08
2070.1, -5.031e-08
2072.1, -4.591e-08
2074.1, -4.384e-08
2076.1, -4.268e-08
2078.1, -4.897e-08
2080.1, -4.804e-08
2082.1, -4.805e-08
2084.1, -4.583e-08
2086.1, -4.888e-08
2088.1, -5.161e-08
2090.1, -5.091e-08
2092.1, -5.01e-08
2094.1, -4.595e-08
2096.1, -4.757e-08
2098.1, -4.536e-08
2100.1, -4.447e-08
2102.1, -4.525e-08
2104.1, -4.832e-08
2106.1, -4.853e-08
2108.1, -5.213e-08
2110.1, -5.195e-08
2112.1, -4.951e-08
2114.1, -4.78e-08
2116.1, -4.484e-08
2118.1, -4.52e-08
2120.1, -4.561e-08
2122.1, -4.918e-08
2124.1, -4.912e-08
2126.1, -4.235e-08
2128.1, -4.72e-08
2130.1, -4.58e-08
2132.1, -4.389e-08
2134.1, -4.712e-08
2136.1, -4.755e-08
2138.1, -4.766e-08
2140.1, -4.698e-08
2142.1, -4.865e-08
2144.1, -4.363e-08
2146.1, -4.733e-08
2148.1, -4.482e-08
2150.1, -4.508e-08
2152.1, -4.505e-08
2154.2, -4.557e-08
2156.2, -4.528e-08
2158.2, -4.412e-08
2160.2, -4.585e-08
2162.2, -4.579e-08
2164.2, -4.641e-08
2166.2, -4.625e-08
2168.2, -4.602e-08
2170.2, -4.621e-08
2172.2, -4.223e-08
2174.2, -4.446e-08
2176.2, -4.088e-08
2178.2, -4.049e-08
2180.2, -4.171e-08
2182.2, -4.404e-08
2184.2, -4.491e-08
2186.2, -4.498e-08
2188.2, -4.329e-08
2190.2, -4.427e-08
2192.2, -4.463e-08
2194.2, -4.465e-08
2196.2, -4.404e-08
2198.2, -4.592e-08
2200.2, -4.309e-08
2202.2, -4.446e-08
2204.2, -4.4e-08
2206.2, -4.517e-08
2208.2, -4.319e-08
2210.2, -4.243e-08
2212.2, -4.35e-08
2214.2, -4.377e-08
2216.2, -4.417e-08
2218.2, -4.559e-08
2220.2, -4.555e-08
2222.2, -4.565e-08
2224.2, -4.322e-08
2226.2, -4.53e-08
2228.2, -4.667e-08
2230.2, -4.526e-08
2232.2, -4.509e-08
2234.2, -4.422e-08
2236.2, -4.346e-08
2238.2, -4.182e-08
2240.2, -4.355e-08
2242.2, -4.006e-08
2244.2, -4.092e-08
2246.2, -4.292e-08
2248.2, -4.216e-08
2250.2, -4.24e-08
2252.2, -4.239e-08
2254.3, -4.342e-08
2256.3, -4.482e-08
2258.3, -5.004e-08
2260.3, -4.595e-08
2262.3, -4.417e-08
2264.3, -4.652e-08
2266.3, -4.457e-08
2268.3, -4.327e-08
2270.3, -4.997e-08
2272.3, -4.636e-08
2274.3, -4.327e-08
2276.3, -4.144e-08
2278.3, -4.184e-08
2280.3, -4.54e-08
2282.3, -4.03e-08
2284.3, -4.368e-08
2286.3, -4.255e-08
2288.3, -4.008e-08
2290.3, -4.097e-08
2292.3, -4.186e-08
2294.3, -4.212e-08
2296.3, -4.488e-08
2298.3, -4.399e-08
2300.3, -4.587e-08
2302.3, -4.571e-08
2304.3, -4.415e-08
2306.3, -4.482e-08
2308.3, -4.171e-08
2310.3, -4.18e-08
2312.3, -4.425e-08
2314.3, -4.432e-08
2316.3, -4.067e-08
2318.3, -4.224e-08
2320.3, -4.19e-08
2322.3, -4.391e-08
2324.3, -4.576e-08
2326.3, -4.911e-08
2328.3, -4.466e-08
2330.3, -4.409e-08
2332.3, -4.067e-08
2334.3, -4.152e-08
2336.3, -4.109e-08
2338.3, -4.569e-08
2340.3, -4.513e-08
2342.3, -4.305e-08
2344.3, -4.301e-08
2346.3, -4.315e-08
2348.3, -4.579e-08
2350.3, -4.775e-08
2352.3, -4.782e-08
2354.4, -4.65e-08
2356.4, -4.626e-08
2358.4, -4.55e-08
2360.4, -4.507e-08
2362.4, -4.698e-08
2364.4, -4.363e-08
2366.4, -4.482e-08
2368.4, -4.448e-08
2370.4, -4.521e-08
2372.4, -4.142e-08
2374.4, -4.487e-08
2376.4, -5.111e-08
2378.4, -4.576e-08
2380.4, -4.829e-08
2382.4, -4.964e-08
2384.4, -4.484e-08
2386.4, -4.686e-08
2388.4, -4.588e-08
2390.4, -4.788e-08
2392.4, -4.663e-08
2394.4, -4.895e-08
2396.4, -4.789e-08
2398.4, -4.359e-08
2400.4, -4.605e-08
2402.4, -4.937e-08
2404.4, -4.938e-08
2406.4, -4.787e-08
2408.4, -5.236e-08
2410.4, -5.162e-08
2412.4, -5.062e-08
2414.4, -4.909e-08
2416.4, -4.957e-08
2418.4, -4.744e-08
2420.4, -4.719e-08
2422.4, -4.726e-08
2424.4, -4.923e-08
2426.4, -4.96e-08
2428.4, -5.032e-08
2430.4, -4.767e-08
2432.4, -4.938e-08
2434.4, -5.206e-08
2436.4, -4.815e-08
2438.4, -4.939e-08
2440.4, -4.932e-08
2442.4, -4.66e-08
2444.4, -4.611e-08
2446.4, -4.6e-08
2448.4, -4.818e-08
2450.4, -4.501e-08
2452.4, -4.597e-08
2454.5, -4.554e-08
2456.5, -4.582e-08
2458.5, -5.238e-08
2460.5, -4.763e-08
2462.5, -4.531e-08
2464.5, -4.638e-08
2466.5, -4.752e-08
2468.5, -4.765e-08
2470.5, -4.458e-08
2472.5, -4.627e-08
2474.5, -4.71e-08
2476.5, -4.681e-08
2478.5, -4.492e-08
2480.5, -4.603e-08
2482.5, -4.552e-08
2484.5, -4.625e-08
2486.5, -4.529e-08
2488.5, -4.424e-08
2490.5, -4.123e-08
2492.5, -4.163e-08
2494.5, -4.358e-08
2496.5, -4.462e-08
2498.5, -4.553e-08
2500.5, -4.927e-08
2502.5, -4.255e-08
2504.5, -4.568e-08
2506.5, -4.536e-08
2508.5, -4.561e-08
2510.5, -4.351e-08
2512.5, -4.377e-08
2514.5, -4.453e-08
2516.5, -4.508e-08
2518.5, -4.587e-08
2520.5, -4.689e-08
2522.5, -5.109e-08
2524.5, -4.909e-08
2526.5, -4.791e-08
2528.5, -4.539e-08
2530.5, -5.113e-08
2532.5, -4.691e-08
2534.5, -4.647e-08
2536.5, -4.835e-08
2538.5, -5.209e-08
2540.5, -4.896e-08
2542.5, -4.895e-08
2544.5, -4.781e-08
2546.5, -4.914e-08
2548.5, -4.854e-08
2550.5, -4.987e-08
2552.5, -4.797e-08
2554.6, -4.634e-08
2556.6, -4.544e-08
2558.6, -4.735e-08
2560.6, -4.891e-08
2562.6, -4.971e-08
2564.6, -4.332e-08
2566.6, -4.432e-08
2568.6, -4.38e-08
2570.6, -4.315e-08
2572.6, -4.124e-08
2574.6, -4.418e-08
2576.6, -4.25e-08
2578.6, -4.855e-08
2580.6, -5.189e-08
2582.6, -4.77e-08
2584.6, -4.695e-08
2586.6, -4.679e-08
2588.6, -4.781e-08
2590.6, -4.797e-08
2592.6, -4.682e-08
2594.6, -4.575e-08
2596.6, -5.029e-08
2598.6, -4.508e-08
2600.6, -4.863e-08
2602.6, -4.76e-08
2604.6, -4.569e-08
2606.6, -4.49e-08
2608.6, -4.648e-08
2610.6, -4.638e-08
2612.6, -5.008e-08
2614.6, -4.792e-08
2616.6, -4.939e-08
2618.6, -4.801e-08
2620.6, -4.863e-08
2622.6, -4.423e-08
2624.6, -4.574e-08
2626.6, -4.732e-08
2628.6, -4.704e-08
2630.6, -4.851e-08
2632.6, -4.353e-08
2634.6, -4.442e-08
2636.6, -4.521e-08
2638.6, -4.384e-08
2640.6, -4.101e-08
2642.6, -4.317e-08
2644.6, -4.36e-08
2646.6, -4.485e-08
2648.6, -4.72e-08
2650.6, -4.61e-08
2652.6, -4.69e-08
2654.7, -4.751e-08
2656.7, -4.508e-08
2658.7, -5.014e-08
2660.7, -4.496e-08
2662.7, -4.685e-08
2664.7, -4.978e-08
2666.7, -4.789e-08
2668.7, -5.033e-08
2670.7, -5.06e-08
2672.7, -4.897e-08
2674.7, -5.178e-08
2676.7, -4.872e-08
2678.7, -4.924e-08
2680.7, -4.748e-08
2682.7, -4.64e-08
2684.7, -4.685e-08
2686.7, -4.894e-08
2688.7, -5.007e-08
2690.7, -4.903e-08
2692.7, -4.664e-08
2694.7, -4.686e-08
2696.7, -4.591e-08
2698.7, -4.394e-08
2700.7, -4.921e-08
2702.7, -4.741e-08
2704.7, -4.546e-08
2706.7, -4.741e-08
2708.7, -4.632e-08
2710.7, -4.795e-08
2712.7, -4.718e-08
2714.7, -4.607e-08
2716.7, -4.629e-08
2718.7, -4.862e-08
2720.7, -5.245e-08
2722.7, -5.041e-08
2724.7, -4.673e-08
2726.7, -4.826e-08
2728.7, -4.706e-08
2730.7, -4.874e-08
2732.7, -4.152e-08
2734.7, -4.366e-08
2736.7, -4.48e-08
2738.7, -4.714e-08
2740.7, -4.367e-08
2742.7, -4.641e-08
2744.7, -5.186e-08
2746.7, -4.715e-08
2748.7, -4.153e-08
2750.7, -4.476e-08
2752.7, -4.136e-08
2754.8, -4.214e-08
2756.8, -4.162e-08
2758.8, -4.214e-08
2760.8, -4.658e-08
2762.8, -4.365e-08
2764.8, -4.467e-08
2766.8, -4.607e-08
2768.8, -4.307e-08
2770.8, -4.386e-08
2772.8, -4.286e-08
2774.8, -4.301e-08
2776.8, -4.528e-08
2778.8, -4.71e-08
2780.8, -4.758e-08
2782.8, -4.09e-08
2784.8, -4.554e-08
2786.8, -4.777e-08
2788.8, -4.335e-08
2790.8, -4.432e-08
2792.8, -4.393e-08
2794.8, -4.52e-08
2796.8, -4.218e-08
2798.8, -4.596e-08
2800.8, -4.53e-08
2802.8, -4.599e-08
2804.8, -3.753e-08
2806.8, -4.181e-08
2808.8, -4.374e-08
2810.8, -4.556e-08
2812.8, -4.288e-08
2814.8, -4.324e-08
2816.8, -4.413e-08
2818.8, -4.364e-08
2820.8, -4.684e-08
2822.8, -4.652e-08
2824.8, -4.742e-08
2826.8, -4.597e-08
2828.8, -4.172e-08
2830.8, -4.313e-08
2832.8, -4.022e-08
2834.8, -4.008e-08
2836.8, -4.417e-08
2838.8, -4.454e-08
2840.8, -4.096e-08
2842.8, -4.362e-08
2844.8, -4.301e-08
2846.8, -4.309e-08
2848.8, -4.409e-08
2850.8, -4.363e-08
2852.8, -4.29e-08
2854.9, -4.231e-08
2856.9, -4.3e-08
2858.9, -4.067e-08
2860.9, -4.226e-08
2862.9, -4.304e-08
2864.9, -3.732e-08
2866.9, -3.681e-08
2868.9, -4.099e-08
2870.9, -3.879e-08
2872.9, -3.901e-08
2874.9, -4.258e-08
2876.9, -4.433e-08
2878.9, -4.226e-08
2880.9, -4.288e-08
2882.9, -4.064e-08
2884.9, -4.52e-08
2886.9, -4.429e-08
2888.9, -4.369e-08
2890.9, -4.011e-08
2892.9, -4.261e-08
2894.9, -3.88e-08
2896.9, -4.494e-08
2898.9, -4.532e-08
2900.9, -4.955e-08
2902.9, -5.017e-08
2904.9, -5.085e-08
2906.9, -5.143e-08
2908.9, -4.811e-08
2910.9, -4.662e-08
2912.9, -4.909e-08
2914.9, -4.965e-08
2916.9, -5.068e-08
2918.9, -4.868e-08
2920.9, -4.971e-08
2922.9, -4.816e-08
2924.9, -4.76e-08
2926.9, -4.305e-08
2928.9, -4.283e-08
2930.9, -4.569e-08
2932.9, -4.765e-08
2934.9, -4.539e-08
2936.9, -4.281e-08
2938.9, -4.921e-08
2940.9, -4.782e-08
2942.9, -4.394e-08
2944.9, -4.735e-08
2946.9, -4.88e-08
2948.9, -4.758e-08
2950.9, -4.273e-08
2952.9, -3.958e-08
2955.0, -4.328e-08
2957.0, -4.618e-08
2959.0, -4.414e-08
2961.0, -4.642e-08
2963.0, -4.522e-08
2965.0, -4.368e-08
2967.0, -4.057e-08
2969.0, -4.415e-08
2971.0, -4.19e-08
2973.0, -4.499e-08
2975.0, -4.338e-08
2977.0, -4.608e-08
2979.0, -4.36e-08
2981.0, -4.55e-08
2983.0, -4.206e-08
2985.0, -4.041e-08
2987.0, -4.445e-08
2989.0, -4.577e-08
2991.0, -4.598e-08
2993.0, -4.499e-08
2995.0, -4.172e-08
2997.0, -4.565e-08
2999.0, -4.358e-08
3001.0, -4.344e-08
3003.0, -4.224e-08
3005.0, -4.255e-08
3007.0, -4.519e-08
3009.0, -4.698e-08
3011.0, -4.709e-08
3013.0, -4.533e-08
3015.0, -4.201e-08
3017.0, -4.608e-08
3019.0, -4.434e-08
3021.0, -4.512e-08
3023.0, -4.556e-08
3025.0, -3.97e-08
3027.0, -3.993e-08
3029.0, -4.102e-08
3031.0, -4.267e-08
3033.0, -4.122e-08
3035.0, -4.35e-08
3037.0, -4.334e-08
3039.0, -4.295e-08
3041.0, -4.558e-08
3043.0, -4.304e-08
3045.0, -4.017e-08
3047.0, -3.88e-08
3049.0, -4.232e-08
3051.0, -3.954e-08
3053.0, -3.809e-08
3055.1, -4.087e-08
3057.1, -4.215e-08
3059.1, -4.281e-08
3061.1, -3.892e-08
3063.1, -3.623e-08
3065.1, -3.631e-08
3067.1, -3.826e-08
3069.1, -4.1e-08
3071.1, -4.334e-08
3073.1, -4.168e-08
3075.1, -4.088e-08
3077.1, -4.095e-08
3079.1, -4.269e-08
3081.1, -4.138e-08
3083.1, -4.45e-08
3085.1, -4.53e-08
3087.1, -4.346e-08
3089.1, -4.527e-08
3091.1, -4.21e-08
3093.1, -4.197e-08
3095.1, -4.123e-08
3097.1, -4.45e-08
3099.1, -4.276e-08
3101.1, -4.329e-08
3103.1, -4.162e-08
3105.1, -4.126e-08
3107.1, -4.021e-08
3109.1, -3.932e-08
3111.1, 3.1977e-07
3113.1, 2.8547e-07
3115.1, 2.4841e-07
3117.1, 2.6398e-07
3119.1, 3.1448e-07
3121.1, 2.5052e-07
3123.1, 2.8491e-07
3125.1, 2.535e-07
3127.1, 2.6437e-07
3129.1, 2.7001e-07
3131.1, 2.988e-07
3133.1, 2.4571e-07
3135.1, 2.5109e-07
3137.1, 2.5363e-07
3139.1, 3.1536e-07
3141.1, 2.7683e-07
3143.1, 2.9312e-07
3145.1, 3.1307e-07
3147.1, 2.8162e-07
3149.1, 3.1325e-07
3151.1, 2.5974e-07
3153.1, 3.0859e-07
3155.2, 2.9194e-07
3157.2, 2.7609e-07
3159.2, 2.6965e-07
3161.2, 2.8454e-07
3163.2, 3.2949e-07
3165.2, 3.0365e-07
3167.2, 2.8178e-07
3169.2, 2.9462e-07
3171.2, 2.9836e-07
3173.2, 3.2197e-07
3175.2, 2.7402e-07
3177.2, 2.6443e-07
3179.2, 3.0444e-07
3181.2, 3.1712e-07
3183.2, 2.6015e-07
3185.2, 2.8158e-07
3187.2, 2.9299e-07
3189.2, 3.2521e-07
3191.2, 2.8423e-07
3193.2, 2.8134e-07
3195.2, 3.133e-07
3197.2, 3.2317e-07
3199.2, 2.5812e-07
3201.2, 3.1248e-07
3203.2, 3.4405e-07
3205.2, 3.1122e-07
3207.2, 2.754e-07
3209.2, 2.7745e-07
3211.2, 2.7839e-07
3213.2, 2.804e-07
3215.2, 2.9912e-07
3217.2, 3.0327e-07
3219.2, 2.9094e-07
3221.2, 3.0385e-07
3223.2, 2.978e-07
3225.2, 3.129e-07
3227.2, 3.2206e-07
3229.2, 3.0622e-07
3231.2, 2.8302e-07
3233.2, 2.9457e-07
3235.2, 3.0685e-07
3237.2, 2.7533e-07
3239.2, 3.1881e-07
3241.2, 2.9461e-07
3243.2, 3.0587e-07
3245.2, 2.4282e-07
3247.2, 3.2836e-07
3249.2, 3.2408e-07
3251.2, 2.8771e-07
3253.2, 2.9073e-07
3255.3, 3.0546e-07
3257.3, 3.8695e-07
3259.3, 3.5408e-07
3261.3, 3.6645e-07
3263.3, 3.07e-07
3265.3, 2.8619e-07
3267.3, 3.0202e-07
3269.3, 3.1776e-07
3271.3, 3.0736e-07
3273.3, 3.0459e-07
3275.3, 3.251e-07
3277.3, 3.2569e-07
3279.3, 2.9046e-07
3281.3, 3.3964e-07
3283.3, 3.3627e-07
3285.3, 3.2963e-07
3287.3, 3.3238e-07
3289.3, 3.269e-07
3291.3, 3.2973e-07
3293.3, 3.6467e-07
3295.3, 3.1483e-07
3297.3, 3.371e-07
3299.3, 3.1544e-07
3301.3, 3.2355e-07
3303.3, 3.2453e-07
3305.3, 2.7563e-07
3307.3, 2.7764e-07
3309.3, 3.0835e-07
3311.3, 3.3126e-07
3313.3, 3.2605e-07
3315.3, 3.2029e-07
3317.3, 3.3273e-07
3319.3, 3.4945e-07
3321.3, 3.148e-07
3323.3, 2.9825e-07
3325.3, 3.1977e-07
3327.3, 3.2973e-07
3329.3, 3.347e-07
3331.3, 3.0779e-07
3333.3, 3.4841e-07
3335.3, 3.2767e-07
3337.3, 3.2062e-07
3339.3, 3.4103e-07
3341.3, 2.9787e-07
3343.3, 3.6579e-07
3345.3, 3.218e-07
3347.3, 2.7593e-07
3349.3, 3.2949e-07
3351.3, 3.0466e-07
3353.3, 3.586e-07
3355.4, 3.3094e-07
3357.4, 2.8675e-07
3359.4, 3.0775e-07
3361.4, 3.4073e-07
3363.4, 3.5165e-07
3365.4, 3.357e-07
3367.4, 3.0139e-07
3369.4, 3.172e-07
3371.4, 3.1577e-07
3373.4, 2.9563e-07
3375.4, 3.2137e-07
3377.4, 3.152e-07
3379.4, 2.8953e-07
3381.4, 3.2869e-07
3383.4, 3.0103e-07
3385.4, 3.2284e-07
3387.4, 3.3311e-07
3389.4, 3.2266e-07
3391.4, 3.1397e-07
3393.4, 3.0755e-07
3395.4, 3.3796e-07
3397.4, 2.9699e-07
3399.4, 3.3449e-07
3401.4, 3.2682e-07
3403.4, 2.6692e-07
3405.4, 3.4508e-07
3407.4, 3.5467e-07
3409.4, 3.1755e-07
3411.4, 3.4307e-07
3413.4, 3.4202e-07
3415.4, 3.6133e-07
3417.4, 3.1168e-07
3419.4, 2.6739e-07
3421.4, 3.0109e-07
3423.4, 2.7167e-07
3425.4, 3.2166e-07
3427.4, 3.4033e-07
3429.4, 3.0776e-07
3431.4, 3.6748e-07
3433.4, 3.3512e-07
3435.4, 3.4576e-07
3437.4, 3.6583e-07
3439.4, 3.1467e-07
3441.4, 3.5205e-07
3443.4, 3.1326e-07
3445.4, 3.3056e-07
3447.4, 3.0593e-07
3449.4, 3.7791e-07
3451.4, 2.9007e-07
3453.4, 3.4209e-07
3455.5, 3.368e-07
3457.5, 3.1676e-07
3459.5, 3.6314e-07
3461.5, 3.327e-07
3463.5, 3.0234e-07
3465.5, 2.6864e-07
3467.5, 3.3149e-07
3469.5, 3.2984e-07
3471.5, 3.9864e-07
3473.5, 3.7764e-07
3475.5, 3.4517e-07
3477.5, 3.3507e-07
3479.5, 3.292e-07
3481.5, 3.1528e-07
3483.5, 3.4402e-07
3485.5, 3.2216e-07
3487.5, 3.1664e-07
3489.5, 3.4382e-07
3491.5, 3.2593e-07
3493.5, 3.2375e-07
3495.5, 3.719e-07
3497.5, 3.0484e-07
3499.5, 3.0386e-07
3501.5, 3.0096e-07
3503.5, 2.9013e-07
3505.5, 3.2295e-07
3507.5, 2.9189e-07
3509.5, 3.1856e-07
3511.5, 3.3874e-07
3513.5, 3.0081e-07
3515.5, 3.0855e-07
3517.5, 2.9267e-07
3519.5, 3.3045e-07
3521.5, 3.4184e-07
3523.5, 3.2794e-07
3525.5, 3.4737e-07
3527.5, 3.6062e-07
3529.5, 3.2236e-07
3531.5, 3.3629e-07
3533.5, 3.654e-07
3535.5, 3.17e-07
3537.5, 3.4256e-07
3539.5, 3.4753e-07
3541.5, 3.2983e-07
3543.5, 3.8051e-07
3545.5, 3.5437e-07
3547.5, 3.3631e-07
3549.5, 3.3434e-07
3551.5, 3.0891e-07
3553.5, 3.5436e-07
3555.6, 3.2434e-07
3557.6, 3.3861e-07
3559.6, 2.9782e-07
3561.6, 3.5681e-07
3563.6, 3.3605e-07
3565.6, 3.6988e-07
3567.6, 3.1469e-07
3569.6, 3.8159e-07
3571.6, 3.9992e-07
3573.6, 2.9335e-07
3575.6, 3.621e-07
3577.6, 3.2496e-07
3579.6, 3.581e-07
3581.6, 3.5469e-07
3583.6, 3.3967e-07
3585.6, 3.2355e-07
3587.6, 2.9361e-07
3589.6, 3.6672e-07
3591.6, 3.2159e-07
3593.6, 3.21e-07
3595.6, 3.717e-07
3597.6, 3.3397e-07
3599.6, 3.0667e-07
3601.6, 3.3452e-07
3603.6, 3.4226e-07
3605.6, 3.2951e-07
3607.6, 3.1657e-07
3609.6, 3.0781e-07
3611.6, 3.6039e-07
3613.6, 3.4549e-07
3615.6, 3.3245e-07
3617.6, 3.6394e-07
3619.6, 3.8119e-07
3621.6, 3.2684e-07
3623.6, 3.7256e-07
3625.6, 3.3953e-07
3627.6, 3.7815e-07
3629.6, 3.354e-07
3631.6, 3.4272e-07
3633.6, 3.4515e-07
3635.6, 3.1491e-07
3637.6, 2.9494e-07
3639.6, 3.5539e-07
3641.6, 3.0974e-07
3643.6, 3.272e-07
3645.6, 3.6737e-07
3647.6, 3.5938e-07
3649.6, 3.3537e-07
3651.6, 3.3488e-07
3653.6, 3.0037e-07
3655.7, 3.3211e-07
3657.7, 3.5156e-07
3659.7, 3.105e-07
3661.7, 3.11e-07
3663.7, 3.195e-07
3665.7, 3.8301e-07
3667.7, 3.1476e-07
3669.7, 3.2218e-07
3671.7, 2.8973e-07
3673.7, 3.1632e-07
3675.7, 3.4317e-07
3677.7, 3.4253e-07
3679.7, 3.7877e-07
3681.7, 3.0241e-07
3683.7, 3.626e-07
3685.7, 3.2495e-07
3687.7, 3.0445e-07
3689.7, 3.2222e-07
3691.7, 3.4359e-07
3693.7, 3.2268e-07
3695.7, 3.1093e-07
3697.7, 3.4621e-07
3699.7, 3.1921e-07
3701.7, 3.6317e-07
3703.7, 3.4616e-07
3705.7, 3.4616e-07
3707.7, 3.4508e-07
3709.7, 3.7935e-07
3711.7, 3.4424e-07
3713.7, 2.9779e-07
3715.7, 3.6666e-07
3717.7, 2.9376e-07
3719.7, 3.3851e-07
3721.7, 3.5265e-07
3723.7, 3.4993e-07
3725.7, 2.7982e-07
3727.7, 3.8207e-07
3729.7, 3.3793e-07
3731.7, 3.1954e-07
3733.7, 3.2412e-07
3735.7, 3.219e-07
3737.7, 3.0748e-07
3739.7, 3.6594e-07
3741.7, 3.4697e-07
3743.7, 3.0975e-07
3745.7, 3.5529e-07
3747.7, 3.5247e-07
3749.7, 3.2217e-07
3751.7, 3.0006e-07
3753.7, 3.1216e-07
3755.8, 3.0284e-07
3757.8, 3.2418e-07
3759.8, 3.0703e-07
3761.8, 3.723e-07
3763.8, 3.1391e-07
3765.8, 3.1047e-07
3767.8, 3.4594e-07
3769.8, 3.5708e-07
3771.8, 3.7818e-07
3773.8, 3.1803e-07
3775.8, 3.401e-07
3777.8, 3.3614e-07
3779.8, 4.2693e-07
3781.8, 3.0767e-07
3783.8, 3.4893e-07
3785.8, 3.7706e-07
3787.8, 3.571e-07
3789.8, 3.1776e-07
3791.8, 3.3507e-07
3793.8, 2.9777e-07
3795.8, 3.6775e-07
3797.8, 3.9367e-07
3799.8, 3.0059e-07
3801.8, 3.323e-07
3803.8, 3.5952e-07
3805.8, 3.6509e-07
3807.8, 3.529e-07
3809.8, 3.6034e-07
3811.8, 3.2823e-07
3813.8, 3.1294e-07
3815.8, 3.2942e-07
3817.8, 3.1484e-07
3819.8, 3.6088e-07
3821.8, 2.9909e-07
3823.8, 3.276e-07
3825.8, 3.4728e-07
3827.8, 3.7326e-07
3829.8, 3.7981e-07
3831.8, 3.8124e-07
3833.8, 3.5602e-07
3835.8, 3.5916e-07
3837.8, 3.2809e-07
3839.8, 3.4754e-07
3841.8, 3.6293e-07
3843.8, 3.7434e-07
3845.8, 3.6803e-07
3847.8, 3.4332e-07
3849.8, 3.6607e-07
3851.8, 3.4715e-07
3853.8, 3.6454e-07
3855.9, 3.1445e-07
3857.9, 3.0217e-07
3859.9, 3.1863e-07
3861.9, 3.2496e-07
3863.9, 3.5449e-07
3865.9, 3.3386e-07
3867.9, 3.0275e-07
3869.9, 3.2228e-07
3871.9, 3.7996e-07
3873.9, 3.3474e-07
3875.9, 3.2175e-07
3877.9, 3.373e-07
3879.9, 3.6306e-07
3881.9, 3.2588e-07
3883.9, 3.688e-07
3885.9, 3.4495e-07
3887.9, 3.5465e-07
3889.9, 3.0647e-07
3891.9, 3.2487e-07
3893.9, 3.6679e-07
3895.9, 3.249e-07
3897.9, 3.2839e-07
3899.9, 3.2315e-07
3901.9, 3.4408e-07
3903.9, 3.4107e-07
3905.9, 3.088e-07
3907.9, 3.327e-07
3909.9, 3.6276e-07
3911.9, 3.3739e-07
3913.9, 3.4451e-07
3915.9, 3.9606e-07
3917.9, 3.337e-07
3919.9, 3.3493e-07
3921.9, 3.2997e-07
3923.9, 3.2477e-07
3925.9, 3.0048e-07
3927.9, 3.5702e-07
3929.9, 3.4195e-07
3931.9, 3.5224e-07
3933.9, 3.8148e-07
3935.9, 3.5669e-07
3937.9, 3.5643e-07
3939.9, 3.4946e-07
3941.9, 3.4699e-07
3943.9, 3.3481e-07
3945.9, 3.7227e-07
3947.9, 3.3762e-07
3949.9, 3.1688e-07
3951.9, 3.265e-07
3953.9, 3.2631e-07
3956.0, 3.259e-07
3958.0, 3.6106e-07
3960.0, 2.9914e-07
3962.0, 3.2598e-07
3964.0, 3.4434e-07
3966.0, 3.5516e-07
3968.0, 3.6283e-07
3970.0, 3.5159e-07
3972.0, 3.8241e-07
3974.0, 3.5698e-07
3976.0, 3.9159e-07
3978.0, 3.8358e-07
3980.0, 3.7036e-07
3982.0, 3.585e-07
3984.0, 3.1761e-07
3986.0, 3.3373e-07
3988.0, 3.7211e-07
3990.0, 3.5799e-07
3992.0, 4.4729e-07
3994.0, 3.5915e-07
3996.0, 3.5867e-07
3998.0, 3.3591e-07
4000.0, 3.3891e-07
4002.0, 3.5065e-07
4004.0, 3.9036e-07
4006.0, 3.1321e-07
4008.0, 3.0274e-07
4010.0, 3.3215e-07
4012.0, 3.122e-07
4014.0, 3.8411e-07
4016.0, 3.2927e-07
4018.0, 3.7338e-07
4020.0, 3.3589e-07
4022.0, 3.0358e-07
4024.0, 3.3676e-07
4026.0, 3.4403e-07
4028.0, 3.3775e-07
4030.0, 3.3678e-07
4032.0, 3.8153e-07
4034.0, 3.726e-07
4036.0, 3.1113e-07
4038.0, 3.3988e-07
4040.0, 3.5161e-07
4042.0, 3.6296e-07
4044.0, 3.4564e-07
4046.0, 3.3863e-07
4048.0, 3.5237e-07
4050.0, 3.3394e-07
4052.0, 4.1121e-07
4054.0, 3.2733e-07
4056.1, 3.4636e-07
4058.1, 3.4508e-07
4060.1, 3.4679e-07
4062.1, 3.3887e-07
4064.1, 3.6355e-07
4066.1, 3.3114e-07
4068.1, 2.9992e-07
4070.1, 3.0916e-07
4072.1, 3.3643e-07
4074.1, 2.74e-07
4076.1, 3.1657e-07
4078.1, 3.4439e-07
4080.1, 2.9642e-07
4082.1, 3.8967e-07
4084.1, 3.8726e-07
4086.1, 3.5176e-07
4088.1, 3.7337e-07
4090.1, 3.35e-07
4092.1, 3.1756e-07
4094.1, 3.7348e-07
4096.1, 3.2859e-07
4098.1, 3.7821e-07
4100.1, 3.8003e-07
4102.1, 3.3241e-07
4104.1, 3.6026e-07
4106.1, 3.7736e-07
4108.1, 3.3871e-07
4110.1, 3.8138e-07
4112.1, -4.293e-08
4114.1, -4.116e-08
4116.1, -3.937e-08
4118.1, -3.79e-08
4120.1, -4.065e-08
4122.1, -4.248e-08
4124.1, -4.101e-08
4126.1, -4.15e-08
4128.1, -3.924e-08
4130.1, -4.178e-08
4132.1, -4.051e-08
4134.1, -4.178e-08
4136.1, -4.276e-08
4138.1, -4.154e-08
4140.1, -4.24e-08
4142.1, -4.145e-08
4144.1, -4.067e-08
4146.1, -3.787e-08
4148.1, -4.13e-08
4150.1, -4.3e-08
4152.1, -4.126e-08
4154.1, -4.149e-08
4156.2, -4.279e-08
4158.2, -4.577e-08
4160.2, -4.375e-08
4162.2, -4.479e-08
4164.2, -4.467e-08
4166.2, -4.631e-08
4168.2, -4.347e-08
4170.2, -4.505e-08
4172.2, -4.336e-08
4174.2, -4.444e-08
4176.2, -4.323e-08
4178.2, -4.721e-08
4180.2, -4.538e-08
4182.2, -4.611e-08
4184.2, -4.294e-08
4186.2, -4.568e-08
4188.2, -4.318e-08
4190.2, -4.392e-08
4192.2, -4.66e-08
4194.2, -4.677e-08
4196.2, -4.695e-08
4198.2, -4.786e-08
4200.2, -4.775e-08
4202.2, -4.58e-08
4204.2, -4.558e-08
4206.2, -4.486e-08
4208.2, -4.25e-08
4210.2, -4.366e-08
4212.2, -4.477e-08
4214.2, -4.316e-08
4216.2, -4.475e-08
4218.2, -4.345e-08
4220.2, -4.853e-08
4222.2, -5.121e-08
4224.2, -4.68e-08
4226.2, -4.816e-08
4228.2, -4.793e-08
4230.2, -4.682e-08
4232.2, -4.601e-08
4234.2, -4.32e-08
4236.2, -3.93e-08
4238.2, -4.215e-08
4240.2, -4.05e-08
4242.2, -4.19e-08
4244.2, -4.31e-08
4246.2, -4.501e-08
4248.2, -4.032e-08
4250.2, -4.587e-08
4252.2, -4.649e-08
4254.2, -4.581e-08
4256.3, -4.686e-08
4258.3, -4.324e-08
4260.3, -4.066e-08
4262.3, -4.025e-08
4264.3, -4.141e-08
4266.3, -3.984e-08
4268.3, -4.109e-08
4270.3, -4.097e-08
4272.3, -4.353e-08
4274.3, -4.067e-08
4276.3, -3.854e-08
4278.3, -3.636e-08
4280.3, -3.956e-08
4282.3, -3.901e-08
4284.3, -3.796e-08
4286.3, -4.069e-08
4288.3, -3.897e-08
4290.3, -4.114e-08
4292.3, -4.354e-08
4294.3, -4.599e-08
4296.3, -4.483e-08
4298.3, -4.515e-08
4300.3, -4.32e-08
4302.3, -4.29e-08
4304.3, -4.212e-08
4306.3, -4.39e-08
4308.3, -4.263e-08
4310.3, -4.276e-08
4312.3, -4.278e-08
4314.3, -3.963e-08
4316.3, -4.038e-08
4318.3, -3.496e-08
4320.3, -4.06e-08
4322.3, -3.491e-08
4324.3, -3.533e-08
4326.3, -3.897e-08
4328.3, -3.931e-08
4330.3, -4.426e-08
4332.3, -4.175e-08
4334.3, -4.362e-08
4336.3, -4.136e-08
4338.3, -3.859e-08
4340.3, -4.024e-08
4342.3, -4.365e-08
4344.3, -3.953e-08
4346.3, -4.087e-08
4348.3, -4.345e-08
4350.3, -4.516e-08
4352.3, -4.475e-08
4354.3, -4.465e-08
4356.4, -4.028e-08
4358.4, -4.076e-08
4360.4, -4.348e-08
4362.4, -4.433e-08
4364.4, -4.233e-08
4366.4, -4.257e-08
4368.4, -4.26e-08
4370.4, -4.195e-08
4372.4, -3.87e-08
4374.4, -4.158e-08
4376.4, -4.077e-08
4378.4, -4.066e-08
4380.4, -4.268e-08
4382.4, -4.261e-08
4384.4, -4.138e-08
4386.4, -4.287e-08
4388.4, -4.084e-08
4390.4, -3.985e-08
4392.4, -3.663e-08
4394.4, -4.056e-08
4396.4, -3.902e-08
4398.4, -3.951e-08
4400.4, -3.944e-08
4402.4, -4.344e-08
4404.4, -4.269e-08
4406.4, -4.171e-08
4408.4, -4.45e-08
4410.4, -4.398e-08
4412.4, -4.361e-08
4414.4, -4.342e-08
4416.4, -4.59e-08
4418.4, -4.348e-08
4420.4, -4.48e-08
4422.4, -4.702e-08
4424.4, -4.57e-08
4426.4, -4.585e-08
4428.4, -4.675e-08
4430.4, -4.352e-08
4432.4, -4.435e-08
4434.4, -4.367e-08
4436.4, -4.443e-08
4438.4, -4.626e-08
4440.4, -4.418e-08
4442.4, -4.276e-08
4444.4, -4.877e-08
4446.4, -4.503e-08
4448.4, -4.537e-08
4450.4, -4.702e-08
4452.4, -4.666e-08
4454.4, -4.351e-08
4456.5, -4.376e-08
4458.5, -4.211e-08
4460.5, -4.371e-08
4462.5, -3.984e-08
4464.5, -4.204e-08
4466.5, -4.442e-08
4468.5, -4.128e-08
4470.5, -3.724e-08
4472.5, -4.21e-08
4474.5, -3.954e-08
4476.5, -4.171e-08
4478.5, -4.228e-08
4480.5, -4.497e-08
4482.5, -4.188e-08
4484.5, -4.145e-08
4486.5, -4.339e-08
4488.5, -4.359e-08
4490.5, -4.243e-08
4492.5, -4.788e-08
4494.5, -4.515e-08
4496.5, -4.457e-08
4498.5, -4.413e-08
4500.5, -4.805e-08
4502.5, -4.849e-08
4504.5, -5.021e-08
4506.5, -4.813e-08
4508.5, -4.767e-08
4510.5, -4.94e-08
4512.5, -4.786e-08
4514.5, -4.384e-08
4516.5, -4.346e-08
4518.5, -4.497e-08
4520.5, -4.746e-08
4522.5, -4.534e-08
4524.5, -4.671e-08
4526.5, -4.494e-08
4528.5, -4.525e-08
4530.5, -4.64e-08
4532.5, -4.474e-08
4534.5, -4.399e-08
4536.5, -4.473e-08
4538.5, -4.208e-08
4540.5, -4.548e-08
4542.5, -4.451e-08
4544.5, -4.492e-08
4546.5, -4.38e-08
4548.5, -4.372e-08
4550.5, -4.806e-08
4552.5, -4.565e-08
4554.5, -4.369e-08
4556.6, -4.552e-08
4558.6, -4.62e-08
4560.6, -4.423e-08
4562.6, -4.527e-08
4564.6, -4.342e-08
4566.6, -4.572e-08
4568.6, -4.703e-08
4570.6, -4.502e-08
4572.6, -4.47e-08
4574.6, -4.271e-08
4576.6, -4.458e-08
4578.6, -4.623e-08
4580.6, -4.705e-08
4582.6, -4.876e-08
4584.6, -4.608e-08
4586.6, -4.847e-08
4588.6, -4.887e-08
4590.6, -4.563e-08
4592.6, -4.525e-08
4594.6, -4.765e-08
4596.6, -4.62e-08
4598.6, -4.982e-08
4600.6, -4.921e-08
4602.6, -4.746e-08
4604.6, -4.849e-08
4606.6, -4.35e-08
4608.6, -4.477e-08
4610.6, -4.607e-08
4612.6, -4.691e-08
4614.6, -4.47e-08
4616.6, -4.452e-08
4618.6, -4.297e-08
4620.6, -4.434e-08
4622.6, -4.312e-08
4624.6, -4.243e-08
4626.6, -4.295e-08
4628.6, -4.128e-08
4630.6, -4.314e-08
4632.6, -4.243e-08
4634.6, -4.258e-08
4636.6, -4.081e-08
4638.6, -4.183e-08
4640.6, -4.073e-08
4642.6, -4.475e-08
4644.6, -4.344e-08
4646.6, -4.275e-08
4648.6, -4.384e-08
4650.6, -4.288e-08
4652.6, -4.865e-08
4654.6, -4.609e-08
4656.7, -4.537e-08
4658.7, -4.524e-08
4660.7, -4.234e-08
4662.7, -4.634e-08
4664.7, -4.627e-08
4666.7, -4.728e-08
4668.7, -4.619e-08
4670.7, -4.733e-08
4672.7, -4.599e-08
4674.7, -4.443e-08
4676.7, -4.225e-08
4678.7, -4.504e-08
4680.7, -4.69e-08
4682.7, -4.824e-08
4684.7, -4.981e-08
4686.7, -4.476e-08
4688.7, -4.466e-08
4690.7, -4.515e-08
4692.7, -4.798e-08
4694.7, -4.244e-08
4696.7, -4.314e-08
4698.7, -4.037e-08
4700.7, -4.585e-08
4702.7, -4.173e-08
4704.7, -4.145e-08
4706.7, -4.37e-08
4708.7, -4.525e-08
4710.7, -4.636e-08
4712.7, -4.095e-08
4714.7, -4.119e-08
4716.7, -4.229e-08
4718.7, -4.308e-08
4720.7, -4.443e-08
4722.7, -4.317e-08
4724.7, -4.166e-08
4726.7, -4.342e-08
4728.7, -4.407e-08
4730.7, -4.238e-08
4732.7, -4.223e-08
4734.7, -4.311e-08
4736.7, -4.35e-08
4738.7, -4.671e-08
4740.7, -4.684e-08
4742.7, -4.458e-08
4744.7, -4.314e-08
4746.7, -4.693e-08
4748.7, -4.056e-08
4750.7, -4.358e-08
4752.7, -4.691e-08
4754.7, -4.524e-08
4756.8, -4.313e-08
4758.8, -4.166e-08
4760.8, -4.585e-08
4762.8, -4.178e-08
4764.8, -4.055e-08
4766.8, -4.137e-08
4768.8, -4.332e-08
4770.8, -4.604e-08
4772.8, -4.555e-08
4774.8, -4.427e-08
4776.8, -4.292e-08
4778.8, -4.565e-08
4780.8, -4.349e-08
4782.8, -4.1e-08
4784.8, -4.259e-08
4786.8, -4.377e-08
4788.8, -4.505e-08
4790.8, -4.528e-08
4792.8, -4.68e-08
4794.8, -4.743e-08
4796.8, -4.577e-08
4798.8, -4.303e-08
4800.8, -4.653e-08
4802.8, -4.497e-08
4804.8, -4.406e-08
4806.8, -4.061e-08
4808.8, -4.369e-08
4810.8, -4.54e-08
4812.8, -4.393e-08
4814.8, -4.335e-08
4816.8, -4.443e-08
4818.8, -4.644e-08
4820.8, -4.677e-08
4822.8, -4.038e-08
4824.8, -4.38e-08
4826.8, -4.056e-08
4828.8, -4.049e-08
4830.8, -4.11e-08
4832.8, -4.169e-08
4834.8, -4.483e-08
4836.8, -4.196e-08
4838.8, -4.103e-08
4840.8, -4.522e-08
4842.8, -4.317e-08
4844.8, -4.279e-08
4846.8, -4.017e-08
4848.8, -4.168e-08
4850.8, -4.094e-08
4852.8, -4.187e-08
4854.8, -4.221e-08
4856.9, -3.931e-08
4858.9, -4.406e-08
4860.9, -4.126e-08
4862.9, -4.613e-08
4864.9, -4.176e-08
4866.9, -4.584e-08
4868.9, -4.536e-08
4870.9, -4.148e-08
4872.9, -4.123e-08
4874.9, -3.984e-08
4876.9, -4.029e-08
4878.9, -4.201e-08
4880.9, -4.279e-08
4882.9, -4.294e-08
4884.9, -4.402e-08
4886.9, -4.576e-08
4888.9, -4.43e-08
4890.9, -4.695e-08
4892.9, -4.524e-08
4894.9, -4.236e-08
4896.9, -4.393e-08
4898.9, -4.648e-08
4900.9, -4.644e-08
4902.9, -4.793e-08
4904.9, -4.323e-08
4906.9, -4.403e-08
4908.9, -4.428e-08
4910.9, -4.353e-08
4912.9, -4.217e-08
4914.9, -4.613e-08
4916.9, -4.427e-08
4918.9, -4.453e-08
4920.9, -4.694e-08
4922.9, -4.649e-08
4924.9, -4.585e-08
4926.9, -4.532e-08
4928.9, -4.626e-08
4930.9, -4.611e-08
4932.9, -4.862e-08
4934.9, -4.437e-08
4936.9, -4.359e-08
4938.9, -4.62e-08
4940.9, -4.703e-08
4942.9, -4.643e-08
4944.9, -4.599e-08
4946.9, -4.232e-08
4948.9, -4.238e-08
4950.9, -4.079e-08
4952.9, -3.907e-08
4954.9, -3.861e-08
4957.0, -4.019e-08
4959.0, -4.001e-08
4961.0, -3.82e-08
4963.0, -3.934e-08
4965.0, -3.92e-08
4967.0, -4.01e-08
4969.0, -4.059e-08
4971.0, -4.215e-08
4973.0, -4.263e-08
4975.0, -3.83e-08
4977.0, -3.782e-08
4979.0, -3.978e-08
4981.0, -4.269e-08
4983.0, -4.121e-08
4985.0, -3.842e-08
4987.0, -4.104e-08
4989.0, -3.982e-08
4991.0, -4.272e-08
4993.0, -4.045e-08
4995.0, -4.425e-08
4997.0, -4.055e-08
4999.0, -4.295e-08
5001.0, -4.172e-08
5003.0, -4.628e-08
5005.0, -4.206e-08
5007.0, -4.29e-08
5009.0, -3.965e-08
5011.0, -4.069e-08
5013.0, -4.189e-08
5015.0, -4.004e-08
5017.0, -4.005e-08
5019.0, -4.136e-08
5021.0, -4.256e-08
5023.0, -4.107e-08
5025.0, -3.968e-08
5027.0, -4.238e-08
5029.0, -4.01e-08
5031.0, -4.145e-08
5033.0, -3.912e-08
5035.0, -4.263e-08
5037.0, -4.316e-08
5039.0, -4.212e-08
5041.0, -4.307e-08
5043.0, -3.995e-08
5045.0, -3.686e-08
5047.0, -3.615e-08
5049.0, -4.385e-08
5051.0, -4.473e-08
5053.0, -4.129e-08
5055.0, -4.32e-08
5057.1, -4.103e-08
5059.1, -4.223e-08
5061.1, -4.253e-08
5063.1, -4.44e-08
5065.1, -4.48e-08
5067.1, -4.097e-08
5069.1, -4.314e-08
5071.1, -4.396e-08
5073.1, -4.162e-08
5075.1, -3.964e-08
5077.1, -4.314e-08
5079.1, -4.452e-08
5081.1, -4.434e-08
5083.1, -4.467e-08
5085.1, -3.965e-08
5087.1, -4.196e-08
5089.1, -4.483e-08
5091.1, -4.468e-08
5093.1, -4.573e-08
5095.1, -4.575e-08
5097.1, -4.587e-08
5099.1, -4.336e-08
5101.1, -4.561e-08
5103.1, -4.694e-08
5105.1, -4.813e-08
5107.1, -4.386e-08
5109.1, -4.496e-08
5111.1, -4.621e-08
5113.1, -4.598e-08
5115.1, -4.244e-08
5117.1, -4.516e-08
5119.1, -4.542e-08
5121.1, -4.627e-08
5123.1, -4.535e-08
5125.1, -4.591e-08
5127.1, -4.424e-08
5129.1, -4.762e-08
5131.1, -4.796e-08
5133.1, -4.622e-08
5135.1, -4.363e-08
5137.1, -4.29e-08
5139.1, -3.941e-08
5141.1, -4.094e-08
5143.1, -4.138e-08
5145.1, -4.226e-08
5147.1, -4.377e-08
5149.1, -4.422e-08
5151.1, -4.271e-08
5153.1, -4.006e-08
5155.1, -4.363e-08
5157.2, -4.359e-08
5159.2, -4.431e-08
5161.2, 1.3981e-07
5163.2, 2.5826e-07
5165.2, 2.4087e-07
5167.2, 2.8788e-07
5169.2, 2.7304e-07
5171.2, 2.8862e-07
5173.2, 2.545e-07
5175.2, 2.6685e-07
5177.2, 2.7193e-07
5179.2, 3.0903e-07
5181.2, 2.3345e-07
5183.2, 3.2153e-07
5185.2, 2.7374e-07
5187.2, 2.9716e-07
5189.2, 2.7929e-07
5191.2, 2.7087e-07
5193.2, 3.0431e-07
5195.2, 2.9841e-07
5197.2, 2.6968e-07
5199.2, 2.6302e-07
5201.2, 3.1426e-07
5203.2, 2.7259e-07
5205.2, 2.623e-07
5207.2, 2.8212e-07
5209.2, 2.9073e-07
5211.2, 2.7529e-07
5213.2, 2.7511e-07
5215.2, 2.5083e-07
5217.2, 3.0524e-07
5219.2, 2.7658e-07
5221.2, 2.9931e-07
5223.2, 2.9351e-07
5225.2, 3.4412e-07
5227.2, 3.083e-07
5229.2, 3.1132e-07
5231.2, 2.9363e-07
5233.2, 3.1071e-07
5235.2, 2.9474e-07
5237.2, 3.2449e-07
5239.2, 2.6772e-07
5241.2, 3.0765e-07
5243.2, 2.8795e-07
5245.2, 2.7073e-07
5247.2, 2.6309e-07
5249.2, 2.9051e-07
5251.2, 3.0703e-07
5253.2, 3.3105e-07
5255.2, 3.3896e-07
5257.3, 3.268e-07
5259.3, 2.7311e-07
5261.3, 2.7142e-07
5263.3, 2.7823e-07
5265.3, 3.1691e-07
5267.3, 3.1127e-07
5269.3, 2.933e-07
5271.3, 3.0607e-07
5273.3, 2.8766e-07
5275.3, 3.1108e-07
5277.3, 3.1178e-07
5279.3, 3.1474e-07
5281.3, 2.9669e-07
5283.3, 3.3556e-07
5285.3, 3.1485e-07
5287.3, 3.2651e-07
5289.3, 2.7765e-07
5291.3, 3.1911e-07
5293.3, 2.8108e-07
5295.3, 3.0239e-07
5297.3, 3.2492e-07
5299.3, 2.8432e-07
5301.3, 3.0776e-07
5303.3, 3.3354e-07
5305.3, 3.215e-07
5307.3, 3.3282e-07
5309.3, 3.1246e-07
5311.3, 2.5929e-07
5313.3, 3.2496e-07
5315.3, 2.7519e-07
5317.3, 3.2166e-07
5319.3, 3.5451e-07
5321.3, 3.5004e-07
5323.3, 3.4586e-07
5325.3, 2.7708e-07
5327.3, 3.0259e-07
5329.3, 3.3882e-07
5331.3, 3.7734e-07
5333.3, 2.9944e-07
5335.3, 3.2647e-07
5337.3, 2.7823e-07
5339.3, 3.1821e-07
5341.3, 3.0479e-07
5343.3, 2.899e-07
5345.3, 3.4199e-07
5347.3, 3.1842e-07
5349.3, 2.831e-07
5351.3, 3.3704e-07
5353.3, 2.8337e-07
5355.3, 3.0386e-07
5357.4, 3.2481e-07
5359.4, 3.521e-07
5361.4, 3.3682e-07
5363.4, 2.9486e-07
5365.4, 3.266e-07
5367.4, 3.272e-07
5369.4, 3.4898e-07
5371.4, 3.6589e-07
5373.4, 3.291e-07
5375.4, 3.6596e-07
5377.4, 3.4804e-07
5379.4, 3.1655e-07
5381.4, 3.0625e-07
5383.4, 3.0971e-07
5385.4, 2.8455e-07
5387.4, 3.316e-07
5389.4, 3.3825e-07
5391.4, 2.8406e-07
5393.4, 3.4513e-07
5395.4, 2.8099e-07
5397.4, 3.3786e-07
5399.4, 2.9191e-07
5401.4, 2.5701e-07
5403.4, 3.0941e-07
5405.4, 3.288e-07
5407.4, 3.357e-07
5409.4, 3.6061e-07
5411.4, 3.4768e-07
5413.4, 3.2577e-07
5415.4, 3.2472e-07
5417.4, 3.1486e-07
5419.4, 3.2864e-07
5421.4, 3.1199e-07
5423.4, 3.4032e-07
5425.4, 3.3607e-07
5427.4, 3.2237e-07
5429.4, 3.3029e-07
5431.4, 3.4155e-07
5433.4, 2.9342e-07
5435.4, 2.7472e-07
5437.4, 3.2108e-07
5439.4, 3.0837e-07
5441.4, 3.1039e-07
5443.4, 3.1308e-07
5445.4, 3.2909e-07
5447.4, 3.2377e-07
5449.4, 3.3446e-07
5451.4, 2.7572e-07
5453.4, 3.0313e-07
5455.4, 3.2848e-07
5457.5, 3.3106e-07
5459.5, 3.237e-07
5461.5, 3.4978e-07
5463.5, 3.7646e-07
5465.5, 3.4551e-07
5467.5, 2.9883e-07
5469.5, 3.17e-07
5471.5, 3.3558e-07
5473.5, 2.7499e-07
5475.5, 3.6414e-07
5477.5, 3.3538e-07
5479.5, 3.4371e-07
5481.5, 3.2957e-07
5483.5, 3.5858e-07
5485.5, 3.3622e-07
5487.5, 2.9049e-07
5489.5, 2.9802e-07
5491.5, 3.6133e-07
5493.5, 3.1139e-07
5495.5, 3.2062e-07
5497.5, 3.2555e-07
5499.5, 2.94e-07
5501.5, 3.1961e-07
5503.5, 3.5571e-07
5505.5, 3.1396e-07
5507.5, 3.5585e-07
5509.5, 3.0145e-07
5511.5, 3.1755e-07
5513.5, 3.1504e-07
5515.5, 3.3012e-07
5517.5, 3.5629e-07
5519.5, 3.0173e-07
5521.5, 3.5922e-07
5523.5, 2.9645e-07
5525.5, 3.2722e-07
5527.5, 3.2818e-07
5529.5, 3.1669e-07
5531.5, 3.6262e-07
5533.5, 3.1244e-07
5535.5, 3.3326e-07
5537.5, 3.2656e-07
5539.5, 3.4462e-07
5541.5, 3.0432e-07
5543.5, 3.32e-07
5545.5, 3.0813e-07
5547.5, 3.4679e-07
5549.5, 3.7604e-07
5551.5, 3.1301e-07
5553.5, 3.272e-07
5555.5, 3.3729e-07
5557.6, 3.5997e-07
5559.6, 3.329e-07
5561.6, 3.3549e-07
5563.6, 3.4694e-07
5565.6, 3.3856e-07
5567.6, 3.2739e-07
5569.6, 3.9695e-07
5571.6, 3.0761e-07
5573.6, 3.0988e-07
5575.6, 3.6638e-07
5577.6, 3.2853e-07
5579.6, 3.2067e-07
5581.6, 3.7963e-07
5583.6, 2.7678e-07
5585.6, 3.5576e-07
5587.6, 3.574e-07
5589.6, 3.3566e-07
5591.6, 3.5891e-07
5593.6, 3.443e-07
5595.6, 2.9284e-07
5597.6, 3.8244e-07
5599.6, 3.2824e-07
5601.6, 3.0799e-07
5603.6, 3.3865e-07
5605.6, 3.5947e-07
5607.6, 3.1736e-07
5609.6, 3.1338e-07
5611.6, 3.3574e-07
5613.6, 3.3214e-07
5615.6, 3.285e-07
5617.6, 3.5182e-07
5619.6, 3.1057e-07
5621.6, 3.1405e-07
5623.6, 3.65e-07
5625.6, 3.2801e-07
5627.6, 3.5314e-07
5629.6, 3.1997e-07
5631.6, 3.717e-07
5633.6, 3.5387e-07
5635.6, 3.161e-07
5637.6, 3.5035e-07
5639.6, 3.5e-07
5641.6, 2.825e-07
5643.6, 3.565e-07
5645.6, 3.2747e-07
5647.6, 3.4856e-07
5649.6, 3.4666e-07
5651.6, 3.5644e-07
5653.6, 3.4106e-07
5655.6, 3.9204e-07
5657.7, 3.6866e-07
5659.7, 3.4435e-07
5661.7, 3.5228e-07
5663.7, 3.4863e-07
5665.7, 3.3533e-07
5667.7, 3.2656e-07
5669.7, 3.4263e-07
5671.7, 3.2079e-07
5673.7, 3.5652e-07
5675.7, 3.9738e-07
5677.7, 3.4114e-07
5679.7, 3.6143e-07
5681.7, 3.279e-07
5683.7, 3.4263e-07
5685.7, 3.4546e-07
5687.7, 3.0157e-07
5689.7, 3.6074e-07
5691.7, 3.136e-07
5693.7, 3.2963e-07
5695.7, 3.1872e-07
5697.7, 3.4191e-07
5699.7, 3.6201e-07
5701.7, 3.5924e-07
5703.7, 3.3672e-07
5705.7, 2.9523e-07
5707.7, 3.2808e-07
5709.7, 3.4924e-07
5711.7, 3.7821e-07
5713.7, 3.8781e-07
5715.7, 3.1435e-07
5717.7, 3.5704e-07
5719.7, 3.9069e-07
5721.7, 3.521e-07
5723.7, 3.5948e-07
5725.7, 3.6032e-07
5727.7, 3.5011e-07
5729.7, 3.24e-07
5731.7, 3.5769e-07
5733.7, 3.1489e-07
5735.7, 3.3044e-07
5737.7, 3.6338e-07
5739.7, 3.3545e-07
5741.7, 3.3718e-07
5743.7, 3.5393e-07
5745.7, 3.7046e-07
5747.7, 3.1022e-07
5749.7, 3.4634e-07
5751.7, 3.9362e-07
5753.7, 3.1496e-07
5755.7, 3.3176e-07
5757.8, 2.8299e-07
5759.8, 3.5183e-07
5761.8, 3.5728e-07
5763.8, 3.5861e-07
5765.8, 3.627e-07
5767.8, 3.5974e-07
5769.8, 3.2953e-07
5771.8, 2.9983e-07
5773.8, 3.1757e-07
5775.8, 3.8051e-07
5777.8, 3.0126e-07
5779.8, 3.9158e-07
5781.8, 3.1585e-07
5783.8, 2.8872e-07
5785.8, 3.1144e-07
5787.8, 3.7935e-07
5789.8, 3.7384e-07
5791.8, 3.7709e-07
5793.8, 3.575e-07
5795.8, 3.3873e-07
5797.8, 3.3549e-07
5799.8, 3.5899e-07
5801.8, 3.0436e-07
5803.8, 3.346e-07
5805.8, 3.6005e-07
5807.8, 3.4842e-07
5809.8, 3.2944e-07
5811.8, 3.2404e-07
5813.8, 3.161e-07
5815.8, 3.4391e-07
5817.8, 3.7059e-07
5819.8, 3.6353e-07
5821.8, 3.0883e-07
5823.8, 3.298e-07
5825.8, 3.5425e-07
5827.8, 3.5748e-07
5829.8, 3.4094e-07
5831.8, 3.3022e-07
5833.8, 3.8449e-07
5835.8, 3.5757e-07
5837.8, 3.6983e-07
5839.8, 3.3589e-07
5841.8, 2.9385e-07
5843.8, 3.5179e-07
5845.8, 3.2574e-07
5847.8, 3.0963e-07
5849.8, 3.6956e-07
5851.8, 3.3433e-07
5853.8, 3.4586e-07
5855.8, 3.2989e-07
5857.9, 3.8692e-07
5859.9, 3.252e-07
5861.9, 3.5019e-07
5863.9, 3.4692e-07
5865.9, 3.6511e-07
5867.9, 3.2275e-07
5869.9, 3.1672e-07
5871.9, 3.3408e-07
5873.9, 3.4364e-07
5875.9, 3.9989e-07
5877.9, 3.2201e-07
5879.9, 3.5158e-07
5881.9, 3.6401e-07
5883.9, 3.3009e-07
5885.9, 3.4438e-07
5887.9, 3.1287e-07
5889.9, 3.7058e-07
5891.9, 3.8493e-07
5893.9, 3.8042e-07
5895.9, 3.1477e-07
5897.9, 3.1278e-07
5899.9, 3.0351e-07
5901.9, 3.3604e-07
5903.9, 3.8782e-07
5905.9, 3.5119e-07
5907.9, 3.1693e-07
5909.9, 3.2063e-07
5911.9, 3.0884e-07
5913.9, 3.3666e-07
5915.9, 3.6331e-07
5917.9, 3.2041e-07
5919.9, 3.1411e-07
5921.9, 3.2239e-07
5923.9, 3.3232e-07
5925.9, 3.5619e-07
5927.9, 3.4473e-07
5929.9, 3.1439e-07
5931.9, 3.3696e-07
5933.9, 3.656e-07
5935.9, 3.1983e-07
5937.9, 3.7613e-07
5939.9, 3.4556e-07
5941.9, 3.4334e-07
5943.9, 3.291e-07
5945.9, 3.1449e-07
5947.9, 3.1316e-07
5949.9, 3.519e-07
5951.9, 3.4765e-07
5953.9, 3.3538e-07
5955.9, 3.5071e-07
5958.0, 3.2889e-07
5960.0, 3.6316e-07
5962.0, 3.5312e-07
5964.0, 3.0862e-07
5966.0, 3.5554e-07
5968.0, 3.3642e-07
5970.0, 3.4774e-07
5972.0, 3.2479e-07
5974.0, 3.2466e-07
5976.0, 3.8554e-07
5978.0, 3.5477e-07
5980.0, 3.6754e-07
5982.0, 3.2948e-07
5984.0, 3.296e-07
5986.0, 3.0118e-07
5988.0, 3.1168e-07
5990.0, 3.1313e-07
5992.0, 3.5293e-07
5994.0, 2.8951e-07
5996.0, 3.2311e-07
5998.0, 3.6048e-07
6000.0, 3.4505e-07
6002.0, 3.1117e-07
6004.0, 3.1307e-07
6006.0, 3.445e-07
6008.0, 3.5708e-07
6010.0, 3.3216e-07
6012.0, 3.4561e-07
6014.0, 3.8059e-07
6016.0, 3.5012e-07
6018.0, 3.5028e-07
6020.0, 3.6869e-07
6022.0, 3.2201e-07
6024.0, 3.7474e-07
6026.0, 3.5951e-07
6028.0, 3.7672e-07
6030.0, 3.7224e-07
6032.0, 3.5383e-07
6034.0, 3.4616e-07
6036.0, 3.284e-07
6038.0, 3.2456e-07
6040.0, 3.739e-07
6042.0, 3.7343e-07
6044.0, 3.4595e-07
6046.0, 3.4473e-07
6048.0, 3.5454e-07
6050.0, 3.6603e-07
6052.0, 3.6062e-07
6054.0, 3.3502e-07
6056.0, 3.8675e-07
6058.1, 3.6358e-07
6060.1, 3.6265e-07
6062.1, 3.3547e-07
6064.1, 3.1114e-07
6066.1, 3.6829e-07
6068.1, 3.4444e-07
6070.1, 3.2181e-07
6072.1, 3.6135e-07
6074.1, 3.2701e-07
6076.1, 3.5629e-07
6078.1, 3.6053e-07
6080.1, 3.2278e-07
6082.1, 3.7784e-07
6084.1, 3.2662e-07
6086.1, 3.4662e-07
6088.1, 3.4699e-07
6090.1, 3.1814e-07
6092.1, 3.1772e-07
6094.1, 3.7614e-07
6096.1, 3.6367e-07
6098.1, 3.2298e-07
6100.1, 3.6505e-07
6102.1, 3.2145e-07
6104.1, 3.5002e-07
6106.1, 2.9873e-07
6108.1, 3.4412e-07
6110.1, 3.2421e-07
6112.1, 3.4879e-07
6114.1, 3.4311e-07
6116.1, 3.7404e-07
6118.1, 3.6813e-07
6120.1, 3.3574e-07
6122.1, 3.2758e-07
6124.1, 3.4537e-07
6126.1, 3.4151e-07
6128.1, 3.8072e-07
6130.1, 3.9694e-07
6132.1, 3.4528e-07
6134.1, 3.6958e-07
6136.1, 3.2828e-07
6138.1, 3.426e-07
6140.1, 3.1574e-07
6142.1, 3.6291e-07
6144.1, 4.0459e-07
6146.1, 3.6845e-07
6148.1, 3.4773e-07
6150.1, 3.9281e-07
6152.1, 3.8908e-07
6154.1, 3.6471e-07
6156.1, 3.2254e-07
6158.2, 3.6593e-07
6160.2, 3.7443e-07
6162.2, 1.5994e-07
6164.2, -4.184e-08
6166.2, -4.01e-08
6168.2, -3.98e-08
6170.2, -4.21e-08
6172.2, -4.276e-08
6174.2, -4.269e-08
6176.2, -4.021e-08
6178.2, -4.114e-08
6180.2, -4.272e-08
6182.2, -4.364e-08
6184.2, -4.057e-08
6186.2, -4.721e-08
6188.2, -4.434e-08
6190.2, -4.457e-08
6192.2, -4.493e-08
6194.2, -4.376e-08
6196.2, -4.105e-08
6198.2, -4.38e-08
6200.2, -4.429e-08
6202.2, -4.392e-08
6204.2, -4.295e-08
6206.2, -4.357e-08
6208.2, -4.009e-08
6210.2, -3.913e-08
6212.2, -4.291e-08
6214.2, -4.1e-08
6216.2, -4.194e-08
6218.2, -4.366e-08
6220.2, -4.052e-08
6222.2, -4.236e-08
6224.2, -4.448e-08
6226.2, -4.427e-08
6228.2, -4.239e-08
6230.2, -4.022e-08
6232.2, -4.065e-08
6234.2, -3.801e-08
6236.2, -3.922e-08
6238.2, -4.097e-08
6240.2, -3.701e-08
6242.2, -4.171e-08
6244.2, -3.707e-08
6246.2, -3.578e-08
6248.2, -3.712e-08
6250.2, -3.893e-08
6252.2, -3.801e-08
6254.2, -4.163e-08
6256.2, -3.742e-08
6258.3, -3.941e-08
6260.3, -4.25e-08
6262.3, -4.032e-08
6264.3, -4.134e-08
6266.3, -4.297e-08
6268.3, -3.969e-08
6270.3, -4.121e-08
6272.3, -4.107e-08
6274.3, -4.27e-08
6276.3, -4.475e-08
6278.3, -4.453e-08
6280.3, -4.646e-08
6282.3, -4.52e-08
6284.3, -4.902e-08
6286.3, -4.358e-08
6288.3, -4.313e-08
6290.3, -4.192e-08
6292.3, -4.399e-08
6294.3, -4.476e-08
6296.3, -4.07e-08
6298.3, -4.052e-08
6300.3, -4.066e-08
6302.3, -4.423e-08
6304.3, -4.395e-08
6306.3, -4.246e-08
6308.3, -3.831e-08
6310.3, -4.293e-08
6312.3, -4.191e-08
6314.3, -4.241e-08
6316.3, -4.173e-08
6318.3, -3.979e-08
6320.3, -4.102e-08
6322.3, -4.045e-08
6324.3, -4.125e-08
6326.3, -3.835e-08
6328.3, -4.124e-08
6330.3, -4.339e-08
6332.3, -3.909e-08
6334.3, -3.874e-08
6336.3, -4.137e-08
6338.3, -4.374e-08
6340.3, -4.014e-08
6342.3, -3.954e-08
6344.3, -4.212e-08
6346.3, -4.364e-08
6348.3, -4.099e-08
6350.3, -4.299e-08
6352.3, -4.24e-08
6354.3, -4.369e-08
6356.3, -4.299e-08
6358.4, -4.291e-08
6360.4, -4.436e-08
6362.4, -4.238e-08
6364.4, -4.677e-08
6366.4, -4.469e-08
6368.4, -4.617e-08
6370.4, -4.395e-08
6372.4, -4.32e-08
6374.4, -4.52e-08
6376.4, -4.27e-08
6378.4, -4.337e-08
6380.4, -4.316e-08
6382.4, -4.783e-08
6384.4, -4.425e-08
6386.4, -4.665e-08
6388.4, -4.852e-08
6390.4, -4.209e-08
6392.4, -4.251e-08
6394.4, -4.323e-08
6396.4, -4.747e-08
6398.4, -4.483e-08
6400.4, -4.429e-08
6402.4, -5.079e-08
6404.4, -5.026e-08
6406.4, -4.883e-08
6408.4, -4.614e-08
6410.4, -4.693e-08
6412.4, -4.704e-08
6414.4, -4.547e-08
6416.4, -4.235e-08
6418.4, -4.258e-08
6420.4, -4.771e-08
6422.4, -4.474e-08
6424.4, -4.45e-08
6426.4, -3.982e-08
6428.4, -4.511e-08
6430.4, -4.372e-08
6432.4, -4.475e-08
6434.4, -4.211e-08
6436.4, -4.148e-08
6438.4, -4.435e-08
6440.4, -4.603e-08
6442.4, -4.526e-08
6444.4, -4.479e-08
6446.4, -4.265e-08
6448.4, -4.232e-08
6450.4, -4.685e-08
6452.4, -4.538e-08
6454.4, -4.605e-08
6456.4, -4.4e-08
6458.5, -4.327e-08
6460.5, -4.571e-08
6462.5, -4.796e-08
6464.5, -4.397e-08
6466.5, -4.745e-08
6468.5, -4.391e-08
6470.5, -4.324e-08
6472.5, -4.06e-08
6474.5, -4.438e-08
6476.5, -4.848e-08
6478.5, -4.454e-08
6480.5, -4.902e-08
6482.5, -4.878e-08
6484.5, -4.853e-08
6486.5, -4.745e-08
6488.5, -4.822e-08
6490.5, -4.817e-08
6492.5, -4.74e-08
6494.5, -4.622e-08
6496.5, -4.536e-08
6498.5, -4.486e-08
6500.5, -4.07e-08
6502.5, -4.696e-08
6504.5, -4.38e-08
6506.5, -4.789e-08
6508.5, -4.516e-08
6510.5, -4.556e-08
6512.5, -4.498e-08
6514.5, -4.618e-08
6516.5, -4.388e-08
6518.5, -4.508e-08
6520.5, -4.502e-08
6522.5, -4.6e-08
6524.5, -4.632e-08
6526.5, -4.707e-08
6528.5, -4.421e-08
6530.5, -4.771e-08
6532.5, -4.62e-08
6534.5, -4.802e-08
6536.5, -4.657e-08
6538.5, -4.172e-08
6540.5, -4.768e-08
6542.5, -4.702e-08
6544.5, -4.832e-08
6546.5, -4.657e-08
6548.5, -4.839e-08
6550.5, -4.981e-08
6552.5, -4.885e-08
6554.5, -4.863e-08
6556.5, -4.385e-08
6558.6, -4.601e-08
6560.6, -4.704e-08
6562.6, -4.167e-08
6564.6, -4.558e-08
6566.6, -4.296e-08
6568.6, -4.388e-08
6570.6, -4.3e-08
6572.6, -4.436e-08
6574.6, -4.487e-08
6576.6, -4.21e-08
6578.6, -4.02e-08
6580.6, -4.296e-08
6582.6, -4.272e-08
6584.6, -4.382e-08
6586.6, -4.719e-08
6588.6, -4.921e-08
6590.6, -4.259e-08
6592.6, -4.385e-08
6594.6, -4.379e-08
6596.6, -4.203e-08
6598.6, -4.485e-08
6600.6, -4.516e-08
6602.6, -4.382e-08
6604.6, -4.002e-08
6606.6, -4.454e-08
6608.6, -4.439e-08
6610.6, -4.599e-08
6612.6, -4.51e-08
6614.6, -4.545e-08
6616.6, -4.261e-08
6618.6, -4.397e-08
6620.6, -4.876e-08
6622.6, -4.701e-08
6624.6, -4.722e-08
6626.6, -4.785e-08
6628.6, -4.479e-08
6630.6, -4.661e-08
6632.6, -4.492e-08
6634.6, -4.932e-08
6636.6, -4.52e-08
6638.6, -4.345e-08
6640.6, -4.659e-08
6642.6, -4.682e-08
6644.6, -4.515e-08
6646.6, -4.505e-08
6648.6, -4.414e-08
6650.6, -4.849e-08
6652.6, -4.628e-08
6654.6, -4.806e-08
6656.6, -4.117e-08
6658.7, -4.404e-08
6660.7, -4.14e-08
6662.7, -4.53e-08
6664.7, -4.499e-08
6666.7, -4.629e-08
6668.7, -4.353e-08
6670.7, -4.311e-08
6672.7, -4.392e-08
6674.7, -4.292e-08
6676.7, -4.464e-08
6678.7, -4.407e-08
6680.7, -4.765e-08
6682.7, -4.537e-08
6684.7, -4.435e-08
6686.7, -4.436e-08
6688.7, -4.184e-08
6690.7, -4.58e-08
6692.7, -4.621e-08
6694.7, -4.372e-08
6696.7, -4.348e-08
6698.7, -4.493e-08
6700.7, -4.446e-08
6702.7, -4.033e-08
6704.7, -4.235e-08
6706.7, -4.495e-08
6708.7, -4.366e-08
6710.7, -4.613e-08
6712.7, -4.272e-08
6714.7, -4.407e-08
6716.7, -4.333e-08
6718.7, -4.548e-08
6720.7, -4.537e-08
6722.7, -4.597e-08
6724.7, -4.636e-08
6726.7, -4.631e-08
6728.7, -4.714e-08
6730.7, -4.456e-08
6732.7, -4.613e-08
6734.7, -4.746e-08
6736.7, -4.51e-08
6738.7, -4.502e-08
6740.7, -4.191e-08
6742.7, -4.386e-08
6744.7, -4.384e-08
6746.7, -4.153e-08
6748.7, -4.049e-08
6750.7, -4.213e-08
6752.7, -4.095e-08
6754.7, -4.231e-08
6756.7, -4.396e-08
6758.8, -4.17e-08
6760.8, -4.414e-08
6762.8, -4.615e-08
6764.8, -4.407e-08
6766.8, -4.856e-08
6768.8, -4.594e-08
6770.8, -4.921e-08
6772.8, -4.941e-08
6774.8, -5.021e-08
6776.8, -4.647e-08
6778.8, -4.71e-08
6780.8, -4.162e-08
6782.8, -4.825e-08
6784.8, -4.965e-08
6786.8, -4.881e-08
6788.8, -4.374e-08
6790.8, -4.949e-08
6792.8, -5.167e-08
6794.8, -5.001e-08
6796.8, -4.868e-08
6798.8, -4.942e-08
6800.8, -5.119e-08
6802.8, -4.903e-08
6804.8, -4.846e-08
6806.8, -4.665e-08
6808.8, -4.716e-08
6810.8, -4.631e-08
6812.8, -4.564e-08
6814.8, -4.822e-08
6816.8, -4.719e-08
6818.8, -4.598e-08
6820.8, -5.107e-08
6822.8, -4.739e-08
6824.8, -5.152e-08
6826.8, -5.203e-08
6828.8, -4.842e-08
6830.8, -4.423e-08
6832.8, -5.07e-08
6834.8, -4.728e-08
6836.8, -4.562e-08
6838.8, -4.58e-08
6840.8, -4.893e-08
6842.8, -4.978e-08
6844.8, -5.007e-08
6846.8, -4.878e-08
6848.8, -4.871e-08
6850.8, -5.098e-08
6852.8, -4.876e-08
6854.8, -4.718e-08
6856.8, -5.066e-08
6858.9, -4.653e-08
6860.9, -4.647e-08
6862.9, -4.804e-08
6864.9, -5.182e-08
6866.9, -4.898e-08
6868.9, -4.566e-08
6870.9, -4.554e-08
6872.9, -4.326e-08
6874.9, -4.634e-08
6876.9, -4.421e-08
6878.9, -4.529e-08
6880.9, -4.726e-08
6882.9, -4.65e-08
6884.9, -4.764e-08
6886.9, -4.738e-08
6888.9, -4.507e-08
6890.9, -4.533e-08
6892.9, -4.6e-08
6894.9, -4.653e-08
6896.9, -4.494e-08
6898.9, -4.342e-08
6900.9, -4.694e-08
6902.9, -4.493e-08
6904.9, -4.767e-08
6906.9, -4.323e-08
6908.9, -4.662e-08
6910.9, -4.269e-08
6912.9, -4.561e-08
6914.9, -4.64e-08
6916.9, -4.835e-08
6918.9, -4.682e-08
6920.9, -4.916e-08
6922.9, -4.781e-08
6924.9, -4.774e-08
6926.9, -4.996e-08
6928.9, -5.049e-08
6930.9, -5.145e-08
6932.9, -4.571e-08
6934.9, -4.869e-08
6936.9, -5.216e-08
6938.9, -4.792e-08
6940.9, -4.622e-08
6942.9, -4.512e-08
6944.9, -4.798e-08
6946.9, -4.544e-08
6948.9, -4.395e-08
6950.9, -4.714e-08
6952.9, -4.463e-08
6954.9, -4.52e-08
6956.9, -4.207e-08
6959.0, -4.221e-08
6961.0, -4.435e-08
6963.0, -4.576e-08
6965.0, -4.569e-08
6967.0, -4.249e-08
6969.0, -4.411e-08
6971.0, -4.657e-08
6973.0, -4.566e-08
6975.0, -4.51e-08
6977.0, -4.421e-08
6979.0, -4.543e-08
6981.0, -4.237e-08
6983.0, -4.241e-08
6985.0, -4.124e-08
6987.0, -4.527e-08
6989.0, -4.588e-08
6991.0, -4.792e-08
6993.0, -4.713e-08
6995.0, -4.477e-08
6997.0, -4.557e-08
6999.0, -4.459e-08
7001.0, -4.894e-08
7003.0, -4.531e-08
7005.0, -4.58e-08
7007.0, -4.266e-08
7009.0, -4.372e-08
7011.0, -4.533e-08
7013.0, -4.689e-08
7015.0, -4.798e-08
7017.0, -4.525e-08
7019.0, -4.401e-08
7021.0, -4.056e-08
7023.0, -4.373e-08
7025.0, -4.114e-08
7027.0, -4.318e-08
7029.0, -4.43e-08
7031.0, -4.429e-08
7033.0, -4.015e-08
7035.0, -4.003e-08
7037.0, -4.304e-08
7039.0, -4.604e-08
7041.0, -4.403e-08
7043.0, -4.509e-08
7045.0, -4.338e-08
7047.0, -4.194e-08
7049.0, -4.199e-08
7051.0, -4.168e-08
7053.0, -4.05e-08
7055.0, -4.228e-08
7057.0, -4.283e-08
7059.1, -4.79e-08
7061.1, -4.574e-08
7063.1, -4.379e-08
7065.1, -4.65e-08
7067.1, -4.326e-08
7069.1, -4.275e-08
7071.1, -4.34e-08
7073.1, -4.377e-08
7075.1, -4.039e-08
7077.1, -4.262e-08
7079.1, -4.033e-08
7081.1, -3.835e-08
7083.1, -4.093e-08
7085.1, -4.186e-08
7087.1, -4.238e-08
7089.1, -4.152e-08
7091.1, -4.392e-08
7093.1, -4.101e-08
7095.1, -4.443e-08
7097.1, -4.296e-08
7099.1, -4.487e-08
7101.1, -4.346e-08
7103.1, -4.558e-08
7105.1, -4.612e-08
7107.1, -4.66e-08
7109.1, -4.717e-08
7111.1, -4.293e-08
7113.1, -4.435e-08
7115.1, -4.34e-08
7117.1, -4.217e-08
7119.1, -4.338e-08
7121.1, -4.426e-08
7123.1, -4.64e-08
7125.1, -4.408e-08
7127.1, -4.577e-08
7129.1, -4.632e-08
7131.1, -4.671e-08
7133.1, -4.381e-08
7135.1, -4.59e-08
7137.1, -4.813e-08
7139.1, -4.439e-08
7141.1, -4.354e-08
7143.1, -4.597e-08
7145.1, -4.381e-08
7147.1, -4.449e-08
7149.1, -4.272e-08
7151.1, -4.266e-08
7153.1, -4.105e-08
7155.1, -4.41e-08
7157.1, -4.291e-08
7159.2, -4.328e-08
7161.2, -4.383e-08
7163.2, -4.375e-08
7165.2, -4.821e-08
7167.2, -4.69e-08
7169.2, -4.568e-08
7171.2, -4.537e-08
7173.2, -4.471e-08
7175.2, -4.743e-08
7177.2, -4.559e-08
7179.2, -4.713e-08
7181.2, -4.677e-08
7183.2, -4.773e-08
7185.2, -4.713e-08
7187.2, -4.338e-08
7189.2, -4.343e-08
7191.2, -4.329e-08
7193.2, -4.241e-08
7195.2, -4.5e-08
7197.2, -4.303e-08
7199.2, -4.414e-08
7201.2, -4.008e-08
7203.2, -4.341e-08
7205.2, -4.431e-08
7207.2, -4.761e-08
7209.2, -4.593e-08
7211.2, -4.648e-08
7213.2, -4.451e-08
7215.2, -4.363e-08
7217.2, -4.442e-08
7219.2, -4.778e-08
7221.2, -4.742e-08
7223.2, -3.959e-08
7225.2, -4.363e-08
7227.2, -3.865e-08
7229.2, -4.435e-08
7231.2, -4.549e-08
7233.2, -4.151e-08
7235.2, -4.312e-08
7237.2, -4.288e-08
7239.2, -4.245e-08
7241.2, -4.31e-08
7243.2, -4.123e-08
7245.2, -4.103e-08
7247.2, -3.836e-08
7249.2, -4.466e-08
7251.2, -4.314e-08
7253.2, -4.194e-08
7255.2, -1.987e-08
7257.2, 2.8975e-07
7259.3, 2.7353e-07
7261.3, 3.0364e-07
7263.3, 3.1109e-07
7265.3, 2.6489e-07
7267.3, 2.737e-07
7269.3, 2.363e-07
7271.3, 3.0493e-07
7273.3, 2.8806e-07
7275.3, 3.2405e-07
7277.3, 2.6784e-07
7279.3, 2.5753e-07
7281.3, 2.952e-07
7283.3, 2.4931e-07
7285.3, 2.7511e-07
7287.3, 2.854e-07
7289.3, 2.9453e-07
7291.3, 3.0955e-07
7293.3, 2.8491e-07
7295.3, 3.0783e-07
7297.3, 2.947e-07
7299.3, 2.6564e-07
7301.3, 2.843e-07
7303.3, 2.7459e-07
7305.3, 2.8064e-07
7307.3, 3.0569e-07
7309.3, 2.8529e-07
7311.3, 2.9265e-07
7313.3, 2.4358e-07
7315.3, 3.3159e-07
7317.3, 3.2977e-07
7319.3, 2.5339e-07
7321.3, 2.8923e-07
7323.3, 3.0009e-07
7325.3, 2.9874e-07
7327.3, 2.9714e-07
7329.3, 2.8145e-07
7331.3, 2.8961e-07
7333.3, 2.7349e-07
7335.3, 2.8106e-07
7337.3, 2.7666e-07
7339.3, 2.6405e-07
7341.3, 2.7879e-07
7343.3, 2.7781e-07
7345.3, 2.6754e-07
7347.3, 3.4961e-07
7349.3, 3.0338e-07
7351.3, 2.8978e-07
7353.3, 3.2624e-07
7355.3, 2.8403e-07
7357.3, 2.7555e-07
7359.4, 2.555e-07
7361.4, 2.9194e-07
7363.4, 3.1211e-07
7365.4, 2.9065e-07
7367.4, 2.7566e-07
7369.4, 2.9746e-07
7371.4, 2.9154e-07
7373.4, 3.036e-07
7375.4, 2.6153e-07
7377.4, 3.2812e-07
7379.4, 2.8133e-07
7381.4, 2.6629e-07
7383.4, 3.1851e-07
7385.4, 3.0483e-07
7387.4, 3.2767e-07
7389.4, 3.0284e-07
7391.4, 2.9093e-07
7393.4, 2.7358e-07
7395.4, 2.6723e-07
7397.4, 2.9191e-07
7399.4, 2.9923e-07
7401.4, 2.8057e-07
7403.4, 2.8759e-07
7405.4, 2.704e-07
7407.4, 2.4713e-07
7409.4, 2.8791e-07
7411.4, 3.4153e-07
7413.4, 3.0935e-07
7415.4, 2.7437e-07
7417.4, 2.9406e-07
7419.4, 2.9448e-07
7421.4, 3.2481e-07
7423.4, 2.9559e-07
7425.4, 2.8512e-07
7427.4, 2.9356e-07
7429.4, 3.2737e-07
7431.4, 2.8466e-07
7433.4, 3.0018e-07
7435.4, 3.0006e-07
7437.4, 3.1425e-07
7439.4, 2.8554e-07
7441.4, 3.3469e-07
7443.4, 2.8683e-07
7445.4, 2.9487e-07
7447.4, 2.9249e-07
7449.4, 3.0604e-07
7451.4, 2.9288e-07
7453.4, 2.9717e-07
7455.4, 3.1981e-07
7457.4, 3.5166e-07
7459.5, 3.2095e-07
7461.5, 2.8272e-07
7463.5, 2.8674e-07
7465.5, 2.8505e-07
7467.5, 2.9627e-07
7469.5, 2.7744e-07
7471.5, 3.2357e-07
7473.5, 3.0991e-07
7475.5, 3.302e-07
7477.5, 3.176e-07
7479.5, 3.3223e-07
7481.5, 3.2929e-07
7483.5, 3e-07
7485.5, 2.8582e-07
7487.5, 3.3477e-07
7489.5, 3.4332e-07
7491.5, 3.3192e-07
7493.5, 3.0617e-07
7495.5, 3.0051e-07
7497.5, 3.0755e-07
7499.5, 3.029e-07
7501.5, 2.8314e-07
7503.5, 3.0399e-07
7505.5, 2.8663e-07
7507.5, 3.2428e-07
7509.5, 3.3391e-07
7511.5, 3.2464e-07
7513.5, 3.3033e-07
7515.5, 2.8891e-07
7517.5, 3.0194e-07
7519.5, 3.2073e-07
7521.5, 2.61e-07
7523.5, 3.2953e-07
7525.5, 3.5002e-07
7527.5, 3.4375e-07
7529.5, 3.0078e-07
7531.5, 2.8023e-07
7533.5, 2.8033e-07
7535.5, 3.4013e-07
7537.5, 3.6324e-07
7539.5, 3.3553e-07
7541.5, 3.125e-07
7543.5, 2.6819e-07
7545.5, 3.4201e-07
7547.5, 2.844e-07
7549.5, 2.8692e-07
7551.5, 3.0497e-07
7553.5, 3.3111e-07
7555.5, 3.1146e-07
7557.5, 2.9285e-07
7559.6, 3.3528e-07
7561.6, 3.5645e-07
7563.6, 3.1026e-07
7565.6, 3.5815e-07
7567.6, 3.3077e-07
7569.6, 2.8646e-07
7571.6, 3.2191e-07
7573.6, 3.2415e-07
7575.6, 3.1587e-07
7577.6, 3.3143e-07
7579.6, 3.2509e-07
7581.6, 3.0633e-07
7583.6, 3.2323e-07
7585.6, 3.0243e-07
7587.6, 2.8373e-07
7589.6, 3.3409e-07
7591.6, 3.2333e-07
7593.6, 3.4208e-07
7595.6, 3.1561e-07
7597.6, 2.9244e-07
7599.6, 3.4459e-07
7601.6, 2.9306e-07
7603.6, 3.0362e-07
7605.6, 3.1472e-07
7607.6, 3.2004e-07
7609.6, 3.0148e-07
7611.6, 3.2159e-07
7613.6, 2.947e-07
7615.6, 2.987e-07
7617.6, 2.979e-07
7619.6, 3.1021e-07
7621.6, 2.7791e-07
7623.6, 2.8007e-07
7625.6, 3.1243e-07
7627.6, 3.3488e-07
7629.6, 3.3347e-07
7631.6, 3.3918e-07
7633.6, 2.7342e-07
7635.6, 3.07e-07
7637.6, 3.1841e-07
7639.6, 3.0159e-07
7641.6, 3.1887e-07
7643.6, 3.1673e-07
7645.6, 3.185e-07
7647.6, 3.4551e-07
7649.6, 3.2798e-07
7651.6, 3.3056e-07
7653.6, 2.9598e-07
7655.6, 2.783e-07
7657.6, 2.6163e-07
7659.7, 2.9133e-07
7661.7, 3.4425e-07
7663.7, 3.4781e-07
7665.7, 3.3523e-07
7667.7, 3.1762e-07
7669.7, 2.9692e-07
7671.7, 3.1537e-07
7673.7, 3.4438e-07
7675.7, 3.1978e-07
7677.7, 2.7977e-07
7679.7, 3.0518e-07
7681.7, 3.3158e-07
7683.7, 3.0778e-07
7685.7, 2.9717e-07
7687.7, 3.3036e-07
7689.7, 2.785e-07
7691.7, 3.2476e-07
7693.7, 3.2089e-07
7695.7, 2.9505e-07
7697.7, 3.0043e-07
7699.7, 3.4552e-07
7701.7, 3.1864e-07
7703.7, 3.3024e-07
7705.7, 2.8093e-07
7707.7, 3.2949e-07
7709.7, 3.4248e-07
7711.7, 2.988e-07
7713.7, 3.0341e-07
7715.7, 2.9565e-07
7717.7, 2.9567e-07
7719.7, 2.956e-07
7721.7, 3.1486e-07
7723.7, 2.986e-07
7725.7, 3.3435e-07
7727.7, 2.7454e-07
7729.7, 3.0391e-07
7731.7, 3.0532e-07
7733.7, 3.3863e-07
7735.7, 2.7783e-07
7737.7, 3.2973e-07
7739.7, 3.3323e-07
7741.7, 3.3069e-07
7743.7, 3.1819e-07
7745.7, 3.3988e-07
7747.7, 2.6023e-07
7749.7, 3.3728e-07
7751.7, 3.3251e-07
7753.7, 3.2445e-07
7755.7, 3.3736e-07
7757.7, 3.057e-07
7759.8, 3.4571e-07
7761.8, 3.5507e-07
7763.8, 3.0616e-07
7765.8, 3.373e-07
7767.8, 3.1007e-07
7769.8, 3.3325e-07
7771.8, 3.1022e-07
7773.8, 3.2657e-07
7775.8, 3.3559e-07
7777.8, 3.0329e-07
7779.8, 3.0707e-07
7781.8, 3.2746e-07
7783.8, 3.4215e-07
7785.8, 3.6045e-07
7787.8, 3.012e-07
7789.8, 3.1324e-07
7791.8, 3.2965e-07
7793.8, 2.9126e-07
7795.8, 2.9949e-07
7797.8, 3.1217e-07
7799.8, 3.4999e-07
7801.8, 3.2009e-07
7803.8, 2.8708e-07
7805.8, 3.4323e-07
7807.8, 2.9966e-07
7809.8, 3.0838e-07
7811.8, 3.5844e-07
7813.8, 2.9866e-07
7815.8, 3.2664e-07
7817.8, 3.4342e-07
7819.8, 3.4178e-07
7821.8, 3.5228e-07
7823.8, 3.5344e-07
7825.8, 3.51e-07
7827.8, 3.3003e-07
7829.8, 3.2592e-07
7831.8, 3.5174e-07
7833.8, 3.2139e-07
7835.8, 3.3935e-07
7837.8, 3.0318e-07
7839.8, 3.4985e-07
7841.8, 3.8219e-07
7843.8, 3.0395e-07
7845.8, 3.1913e-07
7847.8, 3.1658e-07
7849.8, 3.418e-07
7851.8, 3.2448e-07
7853.8, 3.271e-07
7855.8, 3.2996e-07
7857.8, 3.1092e-07
7859.9, 3.3406e-07
7861.9, 3.5698e-07
7863.9, 3.2402e-07
7865.9, 3.4884e-07
7867.9, 3.2212e-07
7869.9, 3.0738e-07
7871.9, 3.4697e-07
7873.9, 3.4426e-07
7875.9, 3.2161e-07
7877.9, 2.9863e-07
7879.9, 3.1198e-07
7881.9, 3.2426e-07
7883.9, 2.6931e-07
7885.9, 2.9038e-07
7887.9, 3.2956e-07
7889.9, 3.1911e-07
7891.9, 3.1704e-07
7893.9, 3.4527e-07
7895.9, 3.6474e-07
7897.9, 3.1962e-07
7899.9, 3.373e-07
7901.9, 3.3297e-07
7903.9, 3.1538e-07
7905.9, 2.9933e-07
7907.9, 2.9624e-07
7909.9, 2.7839e-07
7911.9, 3.4011e-07
7913.9, 3.59e-07
7915.9, 3.5169e-07
7917.9, 2.999e-07
7919.9, 3.2184e-07
7921.9, 3.1358e-07
7923.9, 3.3867e-07
7925.9, 3.5461e-07
7927.9, 3.1856e-07
7929.9, 3.3351e-07
7931.9, 3.3857e-07
7933.9, 2.8998e-07
7935.9, 3.1701e-07
7937.9, 3.2491e-07
7939.9, 3.1629e-07
7941.9, 3.0745e-07
7943.9, 3.1739e-07
7945.9, 3.2541e-07
7947.9, 3.2759e-07
7949.9, 3.2496e-07
7951.9, 3.1152e-07
7953.9, 3.007e-07
7955.9, 2.901e-07
7957.9, 3.1288e-07
7960.0, 3.3683e-07
7962.0, 3.1053e-07
7964.0, 3.0981e-07
7966.0, 3.3167e-07
7968.0, 3.2207e-07
7970.0, 3.9203e-07
7972.0, 3.6004e-07
7974.0, 3.1503e-07
7976.0, 3.3794e-07
7978.0, 2.9701e-07
7980.0, 3.5214e-07
7982.0, 3.6523e-07
7984.0, 3.2028e-07
7986.0, 3.3996e-07
7988.0, 3.6573e-07
7990.0, 2.9844e-07
7992.0, 3.0102e-07
7994.0, 3.4403e-07
7996.0, 3.5557e-07
7998.0, 3.1857e-07
8000.0, 3.4359e-07
8002.0, 3.2172e-07
8004.0, 3.4461e-07
8006.0, 3.3487e-07
8008.0, 3.596e-07
8010.0, 3.7031e-07
8012.0, 2.967e-07
8014.0, 3.2544e-07
8016.0, 3.2411e-07
8018.0, 2.928e-07
8020.0, 3.6258e-07
8022.0, 3.4871e-07
8024.0, 3.4874e-07
8026.0, 3.5619e-07
8028.0, 3.3455e-07
8030.0, 3.3933e-07
8032.0, 3.431e-07
8034.0, 2.9829e-07
8036.0, 3.3385e-07
8038.0, 3.3709e-07
8040.0, 3.4483e-07
8042.0, 3.2669e-07
8044.0, 3.1045e-07
8046.0, 3.4583e-07
8048.0, 3.7208e-07
8050.0, 3.7306e-07
8052.0, 3.3404e-07
8054.0, 3.5772e-07
8056.0, 3.5832e-07
8058.0, 3.1675e-07
8060.1, 3.365e-07
8062.1, 3.464e-07
8064.1, 3.2211e-07
8066.1, 3.4086e-07
8068.1, 3.6206e-07
8070.1, 3.6245e-07
8072.1, 3.5779e-07
8074.1, 3.5521e-07
8076.1, 3.2165e-07
8078.1, 3.2425e-07
8080.1, 3.2998e-07
8082.1, 2.93e-07
8084.1, 3.1682e-07
8086.1, 3.2674e-07
8088.1, 3.3068e-07
8090.1, 3.351e-07
8092.1, 3.0518e-07
8094.1, 3.0406e-07
8096.1, 3.0039e-07
8098.1, 3.3158e-07
8100.1, 3.3502e-07
8102.1, 3.5516e-07
8104.1, 3.2358e-07
8106.1, 3.2935e-07
8108.1, 3.131e-07
8110.1, 2.7922e-07
8112.1, 3.2386e-07
8114.1, 3.2543e-07
8116.1, 3.138e-07
8118.1, 3.2008e-07
8120.1, 3.463e-07
8122.1, 3.537e-07
8124.1, 3.0373e-07
8126.1, 3.1315e-07
8128.1, 3.1603e-07
8130.1, 3.5773e-07
8132.1, 3.1635e-07
8134.1, 3.0247e-07
8136.1, 3.0731e-07
8138.1, 2.7115e-07
8140.1, 3.2285e-07
8142.1, 3.4239e-07
8144.1, 3.0092e-07
8146.1, 3.0619e-07
8148.1, 2.9806e-07
8150.1, 3.3487e-07
8152.1, 3.3034e-07
8154.1, 3.1988e-07
8156.1, 3.2102e-07
8158.1, 3.4789e-07
8160.2, 3.2033e-07
8162.2, 3.5449e-07
8164.2, 3.0499e-07
8166.2, 3.1008e-07
8168.2, 3.4836e-07
8170.2, 3.132e-07
8172.2, 3.0723e-07
8174.2, 3.306e-07
8176.2, 3.2125e-07
8178.2, 3.4018e-07
8180.2, 3.1081e-07
8182.2, 3.3442e-07
8184.2, 2.8357e-07
8186.2, 3.2212e-07
8188.2, 3.3052e-07
8190.2, 3.6373e-07
8192.2, 3.3039e-07
8194.2, 2.8599e-07
8196.2, 2.9989e-07
8198.2, 3.051e-07
8200.2, 3.491e-07
8202.2, 3.1599e-07
8204.2, 3.2317e-07
8206.2, 3.1608e-07
8208.2, 3.2191e-07
8210.2, 3.3865e-07
8212.2, 3.3982e-07
8214.2, 3.1213e-07
8216.2, 3.1948e-07
8218.2, 3.2667e-07
8220.2, 2.9503e-07
8222.2, 3.2966e-07
8224.2, 3.1898e-07
8226.2, 3.446e-07
8228.2, 3.7256e-07
8230.2, 3.2837e-07
8232.2, 3.336e-07
8234.2, 2.9607e-07
8236.2, 3.566e-07
8238.2, 3.5263e-07
8240.2, 3.3169e-07
8242.2, 3.1862e-07
8244.2, 3.5333e-07
8246.2, 3.3498e-07
8248.2, 2.9121e-07
8250.2, 2.9535e-07
8252.2, 3.3626e-07
8254.2, 3.2267e-07
8256.2, 2.0534e-07
8258.2, -4.206e-08
8260.3, -4.023e-08
8262.3, -3.703e-08
8264.3, -4.358e-08
8266.3, -3.903e-08
8268.3, -3.816e-08
8270.3, -3.827e-08
8272.3, -4.094e-08
8274.3, -3.929e-08
8276.3, -4.112e-08
8278.3, -3.684e-08
8280.3, -4.004e-08
8282.3, -4.266e-08
8284.3, -4.199e-08
8286.3, -3.745e-08
8288.3, -3.631e-08
8290.3, -3.625e-08
8292.3, -3.928e-08
8294.3, -3.809e-08
8296.3, -3.763e-08
8298.3, -3.62e-08
8300.3, -3.95e-08
8302.3, -4.168e-08
8304.3, -4.081e-08
8306.3, -4.004e-08
8308.3, -3.803e-08
8310.3, -3.659e-08
8312.3, -4.022e-08
8314.3, -4.089e-08
8316.3, -4.171e-08
8318.3, -4.211e-08
8320.3, -3.84e-08
8322.3, -3.611e-08
8324.3, -3.945e-08
8326.3, -3.73e-08
8328.3, -3.846e-08
8330.3, -3.702e-08
8332.3, -4.08e-08
8334.3, -4.191e-08
8336.3, -4.24e-08
8338.3, -3.867e-08
8340.3, -4.101e-08
8342.3, -4.048e-08
8344.3, -4.033e-08
8346.3, -4.384e-08
8348.3, -4.013e-08
8350.3, -4.31e-08
8352.3, -4.259e-08
8354.3, -4.305e-08
8356.3, -4.641e-08
8358.3, -4.479e-08
8360.4, -4.221e-08
8362.4, -4.578e-08
8364.4, -4.449e-08
8366.4, -4.161e-08
8368.4, -4.056e-08
8370.4, -3.96e-08
8372.4, -4.27e-08
8374.4, -4.302e-08
8376.4, -4.429e-08
8378.4, -4.081e-08
8380.4, -4.328e-08
8382.4, -4.468e-08
8384.4, -4.26e-08
8386.4, -4.106e-08
8388.4, -3.853e-08
8390.4, -4.085e-08
8392.4, -4.166e-08
8394.4, -4.342e-08
8396.4, -4.242e-08
8398.4, -4.453e-08
8400.4, -4.529e-08
8402.4, -4.198e-08
8404.4, -4.003e-08
8406.4, -3.991e-08
8408.4, -4.099e-08
8410.4, -3.932e-08
8412.4, -4.062e-08
8414.4, -4.283e-08
8416.4, -4.113e-08
8418.4, -3.914e-08
8420.4, -3.958e-08
8422.4, -4.38e-08
8424.4, -4.443e-08
8426.4, -4.776e-08
8428.4, -4.256e-08
8430.4, -4.316e-08
8432.4, -4.851e-08
8434.4, -4.076e-08
8436.4, -4.106e-08
8438.4, -4.41e-08
8440.4, -4.541e-08
8442.4, -4.825e-08
8444.4, -4.207e-08
8446.4, -4.484e-08
8448.4, -4.585e-08
8450.4, -4.55e-08
8452.4, -4.621e-08
8454.4, -4.265e-08
8456.4, -4.315e-08
8458.4, -3.994e-08
8460.5, -4.501e-08
8462.5, -4.106e-08
8464.5, -4.255e-08
8466.5, -4.101e-08
8468.5, -4.381e-08
8470.5, -3.851e-08
8472.5, -4.211e-08
8474.5, -4.062e-08
8476.5, -4.02e-08
8478.5, -4.119e-08
8480.5, -3.865e-08
8482.5, -4.308e-08
8484.5, -4.341e-08
8486.5, -4.386e-08
8488.5, -4.314e-08
8490.5, -4.226e-08
8492.5, -3.935e-08
8494.5, -3.911e-08
8496.5, -4.426e-08
8498.5, -4.406e-08
8500.5, -4.639e-08
8502.5, -4.376e-08
8504.5, -4.371e-08
8506.5, -4.308e-08
8508.5, -4.564e-08
8510.5, -4.276e-08
8512.5, -4.461e-08
8514.5, -4.682e-08
8516.5, -4.453e-08
8518.5, -4.491e-08
8520.5, -4.385e-08
8522.5, -4.573e-08
8524.5, -4.401e-08
8526.5, -4.532e-08
8528.5, -4.471e-08
8530.5, -3.879e-08
8532.5, -4.301e-08
8534.5, -4.791e-08
8536.5, -4.647e-08
8538.5, -4.378e-08
8540.5, -4.475e-08
8542.5, -4.166e-08
8544.5, -4.75e-08
8546.5, -4.302e-08
8548.5, -4.473e-08
8550.5, -4.118e-08
8552.5, -4.213e-08
8554.5, -4.092e-08
8556.5, -3.943e-08
8558.5, -3.945e-08
8560.6, -3.955e-08
8562.6, -4.307e-08
8564.6, -4.179e-08
8566.6, -4.432e-08
8568.6, -4.27e-08
8570.6, -4.696e-08
8572.6, -4.545e-08
8574.6, -4.476e-08
8576.6, -4.525e-08
8578.6, -4.127e-08
8580.6, -4.521e-08
8582.6, -4.467e-08
8584.6, -4.352e-08
8586.6, -4.441e-08
8588.6, -4.46e-08
8590.6, -4.307e-08
8592.6, -4.377e-08
8594.6, -4.334e-08
8596.6, -4.636e-08
8598.6, -4.319e-08
8600.6, -4.006e-08
8602.6, -4.314e-08
8604.6, -3.864e-08
8606.6, -4.045e-08
8608.6, -3.99e-08
8610.6, -3.983e-08
8612.6, -4.252e-08
8614.6, -4.317e-08
8616.6, -4.097e-08
8618.6, -4.054e-08
8620.6, -4.154e-08
8622.6, -4.236e-08
8624.6, -4.335e-08
8626.6, -3.95e-08
8628.6, -4.161e-08
8630.6, -3.982e-08
8632.6, -4.189e-08
8634.6, -4.512e-08
8636.6, -4.53e-08
8638.6, -4.013e-08
8640.6, -4.348e-08
8642.6, -3.957e-08
8644.6, -3.976e-08
8646.6, -3.756e-08
8648.6, -4.024e-08
8650.6, -3.927e-08
8652.6, -4.08e-08
8654.6, -4.402e-08
8656.6, -4.373e-08
8658.6, -4.277e-08
8660.7, -4.252e-08
8662.7, -4.173e-08
8664.7, -4.286e-08
8666.7, -4.108e-08
8668.7, -4.47e-08
8670.7, -3.763e-08
8672.7, -4.12e-08
8674.7, -4.485e-08
8676.7, -4.037e-08
8678.7, -4.24e-08
8680.7, -4.158e-08
8682.7, -4.069e-08
8684.7, -4.376e-08
8686.7, -4.341e-08
8688.7, -4.236e-08
8690.7, -4.358e-08
8692.7, -4.436e-08
8694.7, -4.196e-08
8696.7, -4.453e-08
8698.7, -4.037e-08
8700.7, -4.199e-08
8702.7, -4.156e-08
8704.7, -4.344e-08
8706.7, -4.256e-08
8708.7, -4.032e-08
8710.7, -4.549e-08
8712.7, -4.562e-08
8714.7, -4.307e-08
8716.7, -4.414e-08
8718.7, -4.557e-08
8720.7, -4.557e-08
8722.7, -4.686e-08
8724.7, -4.329e-08
8726.7, -4.198e-08
8728.7, -4.23e-08
8730.7, -4.14e-08
8732.7, -4.307e-08
8734.7, -4.099e-08
8736.7, -3.933e-08
8738.7, -3.745e-08
8740.7, -3.823e-08
8742.7, -3.557e-08
8744.7, -4.059e-08
8746.7, -4.445e-08
8748.7, -4.229e-08
8750.7, -3.855e-08
8752.7, -3.809e-08
8754.7, -3.963e-08
8756.7, -4.065e-08
8758.7, -3.854e-08
8760.8, -4.173e-08
8762.8, -3.732e-08
8764.8, -3.91e-08
8766.8, -4.099e-08
8768.8, -3.705e-08
8770.8, -3.826e-08
8772.8, -4.153e-08
8774.8, -3.94e-08
8776.8, -3.592e-08
8778.8, -4.016e-08
8780.8, -4.33e-08
8782.8, -3.879e-08
8784.8, -3.751e-08
8786.8, -3.483e-08
8788.8, -3.734e-08
8790.8, -3.926e-08
8792.8, -3.671e-08
8794.8, -4.057e-08
8796.8, -4.029e-08
8798.8, -3.984e-08
8800.8, -3.773e-08
8802.8, -3.861e-08
8804.8, -3.88e-08
8806.8, -4.067e-08
8808.8, -3.893e-08
8810.8, -4.002e-08
8812.8, -4.008e-08
8814.8, -4.358e-08
8816.8, -4.072e-08
8818.8, -4.13e-08
8820.8, -3.924e-08
8822.8, -3.984e-08
8824.8, -3.944e-08
8826.8, -3.764e-08
8828.8, -3.833e-08
8830.8, -3.792e-08
8832.8, -3.899e-08
8834.8, -3.593e-08
8836.8, -3.892e-08
8838.8, -3.516e-08
8840.8, -3.788e-08
8842.8, -3.812e-08
8844.8, -3.793e-08
8846.8, -3.857e-08
8848.8, -3.709e-08
8850.8, -3.657e-08
8852.8, -4.335e-08
8854.8, -3.914e-08
8856.8, -4.47e-08
8858.8, -4.115e-08
8860.9, -4.09e-08
8862.9, -4.37e-08
8864.9, -4.159e-08
8866.9, -4.055e-08
8868.9, -4.165e-08
8870.9, -4.028e-08
8872.9, -3.914e-08
8874.9, -3.726e-08
8876.9, -4.104e-08
8878.9, -4.276e-08
8880.9, -4.022e-08
8882.9, -4.274e-08
8884.9, -4.284e-08
8886.9, -4.188e-08
8888.9, -3.924e-08
8890.9, -4.295e-08
8892.9, -3.803e-08
8894.9, -3.866e-08
8896.9, -4.344e-08
8898.9, -4.092e-08
8900.9, -4.2e-08
8902.9, -4.075e-08
8904.9, -4.36e-08
8906.9, -4.05e-08
8908.9, -4.449e-08
8910.9, -4.519e-08
8912.9, -4.457e-08
8914.9, -4.233e-08
8916.9, -4.037e-08
8918.9, -4.28e-08
8920.9, -4.424e-08
8922.9, -4.397e-08
8924.9, -4.329e-08
8926.9, -4.329e-08
8928.9, -3.841e-08
8930.9, -4.197e-08
8932.9, -4.122e-08
8934.9, -4.308e-08
8936.9, -4.351e-08
8938.9, -4.314e-08
8940.9, -4.181e-08
8942.9, -4.15e-08
8944.9, -4.14e-08
8946.9, -4.102e-08
8948.9, -4.263e-08
8950.9, -4.366e-08
8952.9, -4.023e-08
8954.9, -3.893e-08
8956.9, -4.266e-08
8958.9, -4.386e-08
8961.0, -4.277e-08
8963.0, -3.822e-08
8965.0, -3.962e-08
8967.0, -4.142e-08
8969.0, -4.328e-08
8971.0, -4.295e-08
8973.0, -4.206e-08
8975.0, -3.876e-08
8977.0, -3.834e-08
8979.0, -3.843e-08
8981.0, -4.115e-08
8983.0, -3.79e-08
8985.0, -4.171e-08
8987.0, -4.288e-08
8989.0, -4.167e-08
8991.0, -4.343e-08
8993.0, -4.382e-08
8995.0, -4.248e-08
8997.0, -4.38e-08
8999.0, -4.243e-08
9001.0, -3.955e-08
9003.0, -3.968e-08
9005.0, -4.139e-08
9007.0, -3.765e-08
9009.0, -4.217e-08
9011.0, -4.168e-08
9013.0, -4.371e-08
9015.0, -4.12e-08
9017.0, -4.215e-08
9019.0, -4.157e-08
9021.0, -4.079e-08
9023.0, -4.273e-08
9025.0, -4.11e-08
9027.0, -3.913e-08
9029.0, -3.994e-08
9031.0, -4.071e-08
9033.0, -4.046e-08
9035.0, -4.073e-08
9037.0, -4.001e-08
9039.0, -3.948e-08
9041.0, -3.767e-08
9043.0, -3.779e-08
9045.0, -4.069e-08
9047.0, -4.214e-08
9049.0, -4.083e-08
9051.0, -4.035e-08
9053.0, -4.26e-08
9055.0, -3.768e-08
9057.0, -3.782e-08
9059.0, -3.593e-08
9061.1, -3.579e-08
9063.1, -3.901e-08
9065.1, -4.371e-08
9067.1, -4.11e-08
9069.1, -3.927e-08
9071.1, -4.375e-08
9073.1, -4.612e-08
9075.1, -4.383e-08
9077.1, -4.306e-08
9079.1, -4.227e-08
9081.1, -4.287e-08
9083.1, -4.136e-08
9085.1, -3.932e-08
9087.1, -4.09e-08
9089.1, -3.586e-08
9091.1, -3.427e-08
9093.1, -3.849e-08
9095.1, -4.185e-08
9097.1, -3.614e-08
9099.1, -3.557e-08
9101.1, -3.606e-08
9103.1, -3.919e-08
9105.1, -3.446e-08
9107.1, -3.874e-08
9109.1, -3.538e-08
9111.1, -3.637e-08
9113.1, -3.506e-08
9115.1, -3.79e-08
9117.1, -3.571e-08
9119.1, -4.174e-08
9121.1, -3.81e-08
9123.1, -3.761e-08
9125.1, -3.708e-08
9127.1, -4.077e-08
9129.1, -3.716e-08
9131.1, -3.791e-08
9133.1, -4.009e-08
9135.1, -3.767e-08
9137.1, -3.79e-08
9139.1, -3.718e-08
9141.1, -3.602e-08
9143.1, -4.012e-08
9145.1, -4.256e-08
9147.1, -3.891e-08
9149.1, -3.868e-08
9151.1, -3.897e-08
9153.1, -3.743e-08
9155.1, -4.039e-08
9157.1, -4.185e-08
9159.1, -4.2e-08
9161.2, -4.022e-08
9163.2, -4.288e-08
9165.2, -4.151e-08
9167.2, -4.122e-08
9169.2, -4.085e-08
9171.2, -4.188e-08
9173.2, -4.509e-08
9175.2, -4.507e-08
9177.2, -4.335e-08
9179.2, -4.396e-08
9181.2, -4.257e-08
9183.2, -4.268e-08
9185.2, -4.191e-08
9187.2, -4.429e-08
9189.2, -4.25e-08
9191.2, -4.138e-08
9193.2, -4.344e-08
9195.2, -4.256e-08
9197.2, -4.077e-08
9199.2, -3.859e-08
9201.2, -4.169e-08
9203.2, -4.177e-08
9205.2, -4.544e-08
9207.2, -4.169e-08
9209.2, -3.984e-08
9211.2, -4.248e-08
9213.2, -4.323e-08
9215.2, -4.414e-08
9217.2, -4.484e-08
9219.2, -4.425e-08
9221.2, -4.401e-08
9223.2, -4.412e-08
9225.2, -4.114e-08
9227.2, -4.54e-08
9229.2, -4.234e-08
9231.2, -4.208e-08
9233.2, -4.481e-08
9235.2, -4.65e-08
9237.2, -4.455e-08
9239.2, -4.608e-08
9241.2, -4.461e-08
9243.2, -4.132e-08
9245.2, -4.437e-08
9247.2, -4.135e-08
9249.2, -3.667e-08
9251.2, -3.914e-08
9253.2, -4.027e-08
9255.2, -4.191e-08
9257.2, -4.297e-08
9259.2, -4.047e-08
9261.3, -3.932e-08
9263.3, -4.15e-08
9265.3, -4.344e-08
9267.3, -4.273e-08
9269.3, -4.216e-08
9271.3, -4.402e-08
9273.3, -4.325e-08
9275.3, -4.424e-08
9277.3, -4.322e-08
9279.3, -3.896e-08
9281.3, 1.2698e-07
9283.3, 2.7552e-07
9285.3, 2.4254e-07
9287.3, 2.6526e-07
9289.3, 2.914e-07
9291.3, 2.8054e-07
9293.3, 3.0909e-07
9295.3, 2.5363e-07
9297.3, 2.6339e-07
9299.3, 2.9132e-07
9301.3, 2.5899e-07
9303.3, 2.6545e-07
9305.3, 2.6923e-07
9307.3, 2.2446e-07
9309.3, 2.9457e-07
9311.3, 2.9866e-07
9313.3, 2.7619e-07
9315.3, 2.719e-07
9317.3, 2.7253e-07
9319.3, 2.8215e-07
9321.3, 2.5755e-07
9323.3, 2.8156e-07
9325.3, 2.3921e-07
9327.3, 3.0837e-07
9329.3, 3.2621e-07
9331.3, 3.0668e-07
9333.3, 2.8399e-07
9335.3, 2.6578e-07
9337.3, 3.0024e-07
9339.3, 2.3982e-07
9341.3, 3.143e-07
9343.3, 3.2208e-07
9345.3, 2.7368e-07
9347.3, 3.2603e-07
9349.3, 2.5676e-07
9351.3, 3.1179e-07
9353.3, 2.6756e-07
9355.3, 3.0743e-07
9357.3, 3.2132e-07
9359.3, 2.5079e-07
9361.4, 2.7441e-07
9363.4, 2.6931e-07
9365.4, 2.4016e-07
9367.4, 3.1415e-07
9369.4, 3.1365e-07
9371.4, 2.5864e-07
9373.4, 3.4019e-07
9375.4, 3.2417e-07
9377.4, 3.1206e-07
9379.4, 3.2805e-07
9381.4, 3.2007e-07
9383.4, 3.1069e-07
9385.4, 2.8736e-07
9387.4, 3.2249e-07
9389.4, 2.8865e-07
9391.4, 2.888e-07
9393.4, 2.9682e-07
9395.4, 3.1404e-07
9397.4, 3.0005e-07
9399.4, 3.2724e-07
9401.4, 2.787e-07
9403.4, 3.4381e-07
9405.4, 3.1078e-07
9407.4, 2.7406e-07
9409.4, 3.0907e-07
9411.4, 2.9369e-07
9413.4, 3.0548e-07
9415.4, 3.5073e-07
9417.4, 3.0338e-07
9419.4, 3.1699e-07
9421.4, 3.2789e-07
9423.4, 2.8835e-07
9425.4, 2.9189e-07
9427.4, 3.0626e-07
9429.4, 2.9807e-07
9431.4, 3.0172e-07
9433.4, 2.7529e-07
9435.4, 3.4073e-07
9437.4, 2.9469e-07
9439.4, 3.239e-07
9441.4, 2.7019e-07
9443.4, 3.0165e-07
9445.4, 3.137e-07
9447.4, 2.6418e-07
9449.4, 3.4764e-07
9451.4, 2.6112e-07
9453.4, 3.0326e-07
9455.4, 3.1498e-07
9457.4, 3.268e-07
9459.4, 3.0377e-07
9461.5, 3.3262e-07
9463.5, 3.2468e-07
9465.5, 3.2733e-07
9467.5, 2.9394e-07
9469.5, 3.3985e-07
9471.5, 3.166e-07
9473.5, 3.5189e-07
9475.5, 3.5624e-07
9477.5, 2.8639e-07
9479.5, 3.2556e-07
9481.5, 3.354e-07
9483.5, 3.119e-07
9485.5, 3.0228e-07
9487.5, 2.6932e-07
9489.5, 3.1793e-07
9491.5, 3.0279e-07
9493.5, 3.0565e-07
9495.5, 2.9724e-07
9497.5, 3.1299e-07
9499.5, 3.2114e-07
9501.5, 3.2527e-07
9503.5, 3.2338e-07
9505.5, 3.5686e-07
9507.5, 3.0071e-07
9509.5, 3.5546e-07
9511.5, 2.9434e-07
9513.5, 3.112e-07
9515.5, 3.4627e-07
9517.5, 2.7289e-07
9519.5, 3.3256e-07
9521.5, 3.2096e-07
9523.5, 3.3459e-07
9525.5, 3.745e-07
9527.5, 3.2692e-07
9529.5, 3.0496e-07
9531.5, 3.5903e-07
9533.5, 3.4844e-07
9535.5, 3.0118e-07
9537.5, 3.2006e-07
9539.5, 3.7554e-07
9541.5, 3.0223e-07
9543.5, 2.9063e-07
9545.5, 3.2411e-07
9547.5, 3.4852e-07
9549.5, 3.295e-07
9551.5, 3.0784e-07
9553.5, 3.2637e-07
9555.5, 3.4861e-07
9557.5, 3.1387e-07
9559.5, 3.0333e-07
9561.6, 3.5304e-07
9563.6, 3.1635e-07
9565.6, 2.9732e-07
9567.6, 3.4902e-07
9569.6, 3.4024e-07
9571.6, 3.1373e-07
9573.6, 3.298e-07
9575.6, 3.1937e-07
9577.6, 3.6747e-07
9579.6, 3.1611e-07
9581.6, 3.1918e-07
9583.6, 3.399e-07
9585.6, 3.372e-07
9587.6, 3.661e-07
9589.6, 3.3057e-07
9591.6, 3.0858e-07
9593.6, 2.9657e-07
9595.6, 3.0467e-07
9597.6, 3.2199e-07
9599.6, 3.2414e-07
9601.6, 3.4559e-07
9603.6, 3.3686e-07
9605.6, 3.2959e-07
9607.6, 2.9605e-07
9609.6, 2.8579e-07
9611.6, 3.242e-07
9613.6, 2.8504e-07
9615.6, 2.8158e-07
9617.6, 2.9355e-07
9619.6, 3.4402e-07
9621.6, 3.1827e-07
9623.6, 3.3819e-07
9625.6, 3.18e-07
9627.6, 3.5381e-07
9629.6, 3.0099e-07
9631.6, 3.2332e-07
9633.6, 3.4128e-07
9635.6, 3.2274e-07
9637.6, 2.7991e-07
9639.6, 2.9665e-07
9641.6, 3.1637e-07
9643.6, 3.0236e-07
9645.6, 3.0149e-07
9647.6, 3.2445e-07
9649.6, 3.5485e-07
9651.6, 3.4749e-07
9653.6, 3.4288e-07
9655.6, 3.5957e-07
9657.6, 3.2995e-07
9659.6, 3.0224e-07
9661.7, 3.4112e-07
9663.7, 2.993e-07
9665.7, 3.485e-07
9667.7, 2.9272e-07
9669.7, 3.1278e-07
9671.7, 3.1046e-07
9673.7, 4.0213e-07
9675.7, 3.116e-07
9677.7, 3.3064e-07
9679.7, 3.0974e-07
9681.7, 3.1044e-07
9683.7, 3.5047e-07
9685.7, 3.4964e-07
9687.7, 3.0941e-07
9689.7, 3.4912e-07
9691.7, 3.4909e-07
9693.7, 3.4439e-07
9695.7, 2.9168e-07
9697.7, 3.456e-07
9699.7, 3.126e-07
9701.7, 3.377e-07
9703.7, 3.0024e-07
9705.7, 3.379e-07
9707.7, 3.4509e-07
9709.7, 3.1873e-07
9711.7, 2.8785e-07
9713.7, 3.6419e-07
9715.7, 3.4967e-07
9717.7, 3.5572e-07
9719.7, 3.3863e-07
9721.7, 3.5183e-07
9723.7, 3.2189e-07
9725.7, 3.4469e-07
9727.7, 3.4214e-07
9729.7, 3.1953e-07
9731.7, 3.6336e-07
9733.7, 3.3288e-07
9735.7, 3.1395e-07
9737.7, 4.1837e-07
9739.7, 2.8693e-07
9741.7, 3.4348e-07
9743.7, 3.2287e-07
9745.7, 3.2585e-07
9747.7, 3.0695e-07
9749.7, 2.9137e-07
9751.7, 3.1703e-07
9753.7, 3.0422e-07
9755.7, 2.9559e-07
9757.7, 3.3807e-07
9759.7, 3.4033e-07
9761.8, 3.1458e-07
9763.8, 3.313e-07
9765.8, 3.2462e-07
9767.8, 3.1914e-07
9769.8, 3.4888e-07
9771.8, 3.4804e-07
9773.8, 3.1368e-07
9775.8, 2.8827e-07
9777.8, 3.3646e-07
9779.8, 3.247e-07
9781.8, 3.8326e-07
9783.8, 2.9794e-07
9785.8, 3.0797e-07
9787.8, 3.2346e-07
9789.8, 3.1302e-07
9791.8, 3.1775e-07
9793.8, 3.519e-07
9795.8, 3.7151e-07
9797.8, 3.0652e-07
9799.8, 3.4985e-07
9801.8, 3.2461e-07
9803.8, 3.2006e-07
9805.8, 3.3388e-07
9807.8, 3.7535e-07
9809.8, 3.2483e-07
9811.8, 3.3153e-07
9813.8, 3.1429e-07
9815.8, 3.3762e-07
9817.8, 3.2428e-07
9819.8, 3.0185e-07
9821.8, 3.0626e-07
9823.8, 3.5389e-07
9825.8, 3.8344e-07
9827.8, 3.3884e-07
9829.8, 3.4564e-07
9831.8, 2.6737e-07
9833.8, 3.1682e-07
9835.8, 3.1208e-07
9837.8, 2.6517e-07
9839.8, 3.1492e-07
9841.8, 3.3243e-07
9843.8, 3.0254e-07
9845.8, 3.3781e-07
9847.8, 3.5014e-07
9849.8, 2.9728e-07
9851.8, 2.925e-07
9853.8, 3.425e-07
9855.8, 3.1526e-07
9857.8, 2.9618e-07
9859.8, 3.3116e-07
9861.9, 3.2052e-07
9863.9, 3.1544e-07
9865.9, 3.2121e-07
9867.9, 3.3896e-07
9869.9, 3.4722e-07
9871.9, 3.3409e-07
9873.9, 3.2177e-07
9875.9, 3.4416e-07
9877.9, 3.3932e-07
9879.9, 3.3917e-07
9881.9, 3.6919e-07
9883.9, 3.3366e-07
9885.9, 3.9284e-07
9887.9, 3.2456e-07
9889.9, 3.5602e-07
9891.9, 3.0572e-07
9893.9, 3.0038e-07
9895.9, 3.659e-07
9897.9, 3.2474e-07
9899.9, 2.9764e-07
9901.9, 3.4448e-07
9903.9, 3.2728e-07
9905.9, 3.0409e-07
9907.9, 3.7939e-07
9909.9, 3.3133e-07
9911.9, 3.4562e-07
9913.9, 3.1528e-07
9915.9, 3.1137e-07
9917.9, 3.3662e-07
9919.9, 2.9808e-07
9921.9, 2.7197e-07
9923.9, 3.5688e-07
9925.9, 3.1878e-07
9927.9, 3.2907e-07
9929.9, 3.3336e-07
9931.9, 3.302e-07
9933.9, 3.2771e-07
9935.9, 3.1469e-07
9937.9, 3.2144e-07
9939.9, 2.6712e-07
9941.9, 3.5913e-07
9943.9, 2.933e-07
9945.9, 2.8877e-07
9947.9, 3.5213e-07
9949.9, 2.7193e-07
9951.9, 3.3013e-07
9953.9, 3.1176e-07
9955.9, 3.3266e-07
9957.9, 3.3491e-07
9959.9, 2.9268e-07
9962.0, 3.0399e-07
9964.0, 3.2803e-07
9966.0, 3.6054e-07
9968.0, 3.178e-07
9970.0, 3.5151e-07
9972.0, 3.232e-07
9974.0, 3.4645e-07
9976.0, 3.5259e-07
9978.0, 3.4581e-07
9980.0, 3.4376e-07
9982.0, 3.1632e-07
9984.0, 3.7834e-07
9986.0, 3.2203e-07
9988.0, 3.755e-07
9990.0, 3.2445e-07
9992.0, 3.2139e-07
9994.0, 3.1588e-07
9996.0, 3.7286e-07
9998.0, 3.24e-07
10000.0, 3.2911e-07
10002.0, 3.0286e-07
10004.0, 3.1578e-07
10006.0, 3.5918e-07
10008.0, 3.3903e-07
10010.0, 3.4634e-07
10012.0, 3.5291e-07
10014.0, 3.3043e-07
10016.0, 3.4949e-07
10018.0, 3.3316e-07
10020.0, 3.1763e-07
10022.0, 2.9319e-07
10024.0, 3.0575e-07
10026.0, 3.5084e-07
10028.0, 3.4591e-07
10030.0, 3.8743e-07
10032.0, 2.86e-07
10034.0, 3.5051e-07
10036.0, 3.337e-07
10038.0, 3.5811e-07
10040.0, 3.8111e-07
10042.0, 3.6769e-07
10044.0, 3.8955e-07
10046.0, 3.4226e-07
10048.0, 3.7448e-07
10050.0, 3.1878e-07
10052.0, 3.0803e-07
10054.0, 3.2586e-07
10056.0, 3.576e-07
10058.0, 3.4107e-07
10060.0, 3.5337e-07
10062.0, 3.3053e-07
10064.0, 3.5361e-07
10066.0, 3.5646e-07
10068.0, 3.1437e-07
10070.0, 3.5441e-07
10072.0, 3.3353e-07
10074.0, 3.0253e-07
10076.0, 3.116e-07
10078.0, 2.9661e-07
10080.0, 3.8924e-07
10082.0, 3.7197e-07
10084.0, 3.5477e-07
10086.0, 3.0432e-07
10088.0, 3.2981e-07
10090.0, 3.3578e-07
10092.0, 3.5772e-07
10094.0, 3.1363e-07
10096.0, 3.1219e-07
10098.0, 3.478e-07
10100.0, 3.2179e-07
10102.0, 3.3517e-07
10104.0, 3.5948e-07
10106.0, 3.2502e-07
10108.0, 3.7382e-07
10110.0, 3.3235e-07
10112.0, 3.116e-07
10114.0, 3.3127e-07
10116.0, 3.2195e-07
10118.0, 3.2611e-07
10120.0, 3.8103e-07
10122.0, 2.9554e-07
10124.0, 3.14e-07
10126.0, 3.6358e-07
10128.0, 3.4052e-07
10130.0, 2.9734e-07
10132.0, 3.2702e-07
10134.0, 3.139e-07
10136.0, 3.2039e-07
10138.0, 3.7006e-07
10140.0, 3.4754e-07
10142.0, 3.14e-07
10144.0, 3.0096e-07
10146.0, 3.3262e-07
10148.0, 3.6687e-07
10150.0, 3.7632e-07
10152.0, 3.1517e-07
10154.0, 3.1034e-07
10156.0, 3.3482e-07
10158.0, 3.7065e-07
10160.0, 3.8487e-07
10162.0, 3.0934e-07
10164.0, 3.0716e-07
10166.0, 3.0217e-07
10168.0, 3.2489e-07
10170.0, 3.5067e-07
10172.0, 3.2967e-07
10174.0, 3.6895e-07
10176.0, 3.5546e-07
10178.0, 3.3007e-07
10180.0, 3.3985e-07
10182.0, 3.7879e-07
10184.0, 3.1849e-07
10186.0, 2.9073e-07
10188.0, 3.3902e-07
10190.0, 3.9326e-07
10192.0, 3.431e-07
10194.0, 3.5667e-07
10196.0, 3.3706e-07
10198.0, 3.1936e-07
10200.0, 3.1071e-07
10202.0, 3.3078e-07
10204.0, 3.4886e-07
10206.0, 3.6525e-07
10208.0, 2.9113e-07
10210.0, 3.9422e-07
10212.0, 3.5131e-07
10214.0, 3.5236e-07
10216.0, 3.2178e-07
10218.0, 3.382e-07
10220.0, 3.4407e-07
10222.0, 3.176e-07
10224.0, 3.1798e-07
10226.0, 3.4578e-07
10228.0, 3.3676e-07
10230.0, 3.5516e-07
10232.0, 3.3237e-07
10234.0, 3.3065e-07
10236.0, 3.3019e-07
10238.0, 3.4096e-07
10240.0, 2.8832e-07
10242.0, 3.2809e-07
10244.0, 3.1398e-07
10246.0, 3.2093e-07
10248.0, 3.3677e-07
10250.0, 3.1451e-07
10252.0, 3.0583e-07
10254.0, 3.0103e-07
10256.0, 3.9342e-07
10258.0, 3.4811e-07
10260.0, 3.2936e-07
10262.0, 2.9196e-07
10264.0, 3.2808e-07
10266.0, 3.323e-07
10268.0, 3.5886e-07
10270.0, 2.7879e-07
10272.0, 3.5136e-07
10274.0, 3.1687e-07
10276.0, 3.3474e-07
10278.0, 3.0662e-07
10280.0, 3.181e-07
10282.0, 1.508e-07
10284.0, -3.802e-08
10286.0, -3.842e-08
10288.0, -3.783e-08
10290.0, -3.639e-08
10292.0, -3.628e-08
10294.0, -3.511e-08
10296.0, -3.429e-08
10298.0, -3.347e-08
10300.0, -3.455e-08
10302.0, -3.16e-08
10304.0, -3.514e-08
10306.0, -3.63e-08
10308.0, -3.874e-08
10310.0, -3.882e-08
10312.0, -3.976e-08
10314.0, -4.054e-08
10316.0, -4.256e-08
10318.0, -3.956e-08
10320.0, -4.074e-08
10322.0, -4.243e-08
10324.0, -4.104e-08
10326.0, -4.088e-08
10328.0, -3.798e-08
10330.0, -3.577e-08
10332.0, -4.072e-08
10334.0, -4.044e-08
10336.0, -3.567e-08
10338.0, -3.612e-08
10340.0, -3.688e-08
10342.0, -3.778e-08
10344.0, -3.852e-08
10346.0, -3.948e-08
10348.0, -3.858e-08
10350.0, -3.944e-08
10352.0, -3.48e-08
10354.0, -4.06e-08
10356.0, -3.835e-08
10358.0, -4.176e-08
10360.0, -3.973e-08
10362.0, -3.822e-08
10364.0, -3.901e-08
10366.0, -3.892e-08
10368.0, -3.746e-08
10370.0, -3.487e-08
10372.0, -3.587e-08
10374.0, -3.696e-08
10376.0, -3.525e-08
10378.0, -3.564e-08
10380.0, -3.348e-08
10382.0, -3.102e-08
10384.0, -3.917e-08
10386.0, -3.627e-08
10388.0, -3.583e-08
10390.0, -3.682e-08
10392.0, -3.737e-08
10394.0, -3.86e-08
10396.0, -3.683e-08
10398.0, -3.78e-08
10400.0, -3.574e-08
10402.0, -3.946e-08
10404.0, -3.811e-08
10406.0, -3.996e-08
10408.0, -4.04e-08
10410.0, -3.692e-08
10412.0, -3.953e-08
10414.0, -4.001e-08
10416.0, -3.926e-08
10418.0, -3.889e-08
10420.0, -3.975e-08
10422.0, -3.759e-08
10424.0, -4.105e-08
10426.0, -4.255e-08
10428.0, -4.282e-08
10430.0, -4.268e-08
10432.0, -4.039e-08
10434.0, -3.895e-08
10436.0, -4.075e-08
10438.0, -3.785e-08
10440.0, -4.257e-08
10442.0, -3.793e-08
10444.0, -4.415e-08
10446.0, -4.066e-08
10448.0, -3.825e-08
10450.0, -3.821e-08
10452.0, -3.688e-08
10454.0, -3.955e-08
10456.0, -3.979e-08
10458.0, -4.132e-08
10460.0, -4.146e-08
10462.0, -3.767e-08
10464.0, -3.674e-08
10466.0, -3.65e-08
10468.0, -3.819e-08
10470.0, -3.305e-08
10472.0, -3.669e-08
10474.0, -3.64e-08
10476.0, -3.737e-08
10478.0, -3.895e-08
10480.0, -4.363e-08
10482.0, -3.882e-08
10484.0, -4.117e-08
10486.0, -4.046e-08
10488.0, -4.013e-08
10490.0, -3.925e-08
10492.0, -3.878e-08
10494.0, -3.934e-08
10496.0, -4.038e-08
10498.0, -3.849e-08
10500.0, -4.179e-08
10502.0, -4.503e-08
10504.0, -4.466e-08
10506.0, -4.203e-08
10508.0, -3.979e-08
10510.0, -4.474e-08
10513.0, -4.428e-08
10515.0, -4.327e-08
10517.0, -4.126e-08
10519.0, -3.922e-08
10521.0, -4.003e-08
10523.0, -4.028e-08
10525.0, -4.39e-08
10527.0, -4.085e-08
10529.0, -3.797e-08
10531.0, -3.807e-08
10533.0, -3.749e-08
10535.0, -3.637e-08
10537.0, -3.846e-08
10539.0, -3.765e-08
10541.0, -3.982e-08
10543.0, -4.175e-08
10545.0, -3.868e-08
10547.0, -4.088e-08
10549.0, -4.039e-08
10551.0, -3.736e-08
10553.0, -3.873e-08
10555.0, -4.142e-08
10557.0, -4.178e-08
10559.0, -3.876e-08
10561.0, -4.137e-08
10563.0, -4.265e-08
10565.0, -4.312e-08
10567.0, -4.385e-08
10569.0, -4.417e-08
10571.0, -4.634e-08
10573.0, -4.313e-08
10575.0, -4.3e-08
10577.0, -3.771e-08
10579.0, -4.12e-08
10581.0, -4.226e-08
10583.0, -4.208e-08
10585.0, -3.896e-08
10587.0, -4.305e-08
10589.0, -4.179e-08
10591.0, -3.868e-08
10593.0, -3.614e-08
10595.0, -3.873e-08
10597.0, -3.784e-08
10599.0, -3.941e-08
10601.0, -3.738e-08
10603.0, -3.685e-08
10605.0, -4.212e-08
10607.0, -3.989e-08
10609.0, -4.078e-08
10611.0, -3.825e-08
10613.0, -3.849e-08
10615.0, -3.605e-08
10617.0, -3.731e-08
10619.0, -4.172e-08
10621.0, -4.399e-08
10623.0, -3.815e-08
10625.0, -4.22e-08
10627.0, -3.873e-08
10629.0, -3.887e-08
10631.0, -3.56e-08
10633.0, -3.381e-08
10635.0, -4.164e-08
10637.0, -3.847e-08
10639.0, -4.087e-08
10641.0, -3.95e-08
10643.0, -3.76e-08
10645.0, -3.66e-08
10647.0, -3.893e-08
10649.0, -4.078e-08
10651.0, -3.946e-08
10653.0, -4.027e-08
10655.0, -3.939e-08
10657.0, -3.895e-08
10659.0, -4.004e-08
10661.0, -4.001e-08
10663.0, -4.203e-08
10665.0, -4.227e-08
10667.0, -4.222e-08
10669.0, -4.4e-08
10671.0, -4.242e-08
10673.0, -4.062e-08
10675.0, -4.4e-08
10677.0, -4.343e-08
10679.0, -4.641e-08
10681.0, -4.222e-08
10683.0, -4.14e-08
10685.0, -4.225e-08
10687.0, -4.489e-08
10689.0, -4.45e-08
10691.0, -4.659e-08
10693.0, -4.638e-08
10695.0, -4.496e-08
10697.0, -4.032e-08
10699.0, -3.96e-08
10701.0, -4.003e-08
10703.0, -4.072e-08
10705.0, -3.981e-08
10707.0, -4.286e-08
10709.0, -3.755e-08
10711.0, -3.988e-08
10713.0, -4.256e-08
10715.0, -4.552e-08
10717.0, -4.548e-08
10719.0, -4.552e-08
10721.0, -4.329e-08
10723.0, -4.283e-08
10725.0, -4.334e-08
10727.0, -4.36e-08
10729.0, -4.902e-08
10731.0, -4.548e-08
10733.0, -4.476e-08
10735.0, -4.227e-08
10737.0, -4.478e-08
10739.0, -4.017e-08
10741.0, -4.052e-08
10743.0, -4.213e-08
10745.0, -3.861e-08
10747.0, -4.156e-08
10749.0, -4.605e-08
10751.0, -4.064e-08
10753.0, -4.236e-08
10755.0, -4.491e-08
10757.0, -4.43e-08
10759.0, -4.508e-08
10761.0, -4.466e-08
10763.0, -4.746e-08
10765.0, -4.358e-08
10767.0, -4.427e-08
10769.0, -4.298e-08
10771.0, -4.339e-08
10773.0, -4.377e-08
10775.0, -4.475e-08
10777.0, -4.412e-08
10779.0, -4.115e-08
10781.0, -3.971e-08
10783.0, -4.425e-08
10785.0, -4.122e-08
10787.0, -4.405e-08
10789.0, -4.451e-08
10791.0, -4.089e-08
10793.0, -3.629e-08
10795.0, -4.136e-08
10797.0, -4.116e-08
10799.0, -4.003e-08
10801.0, -3.998e-08
10803.0, -4.166e-08
10805.0, -3.881e-08
10807.0, -4.171e-08
10809.0, -4.322e-08
10811.0, -3.988e-08
10813.0, -4.191e-08
10815.0, -4.672e-08
10817.0, -3.838e-08
10819.0, -4.079e-08
10821.0, -3.563e-08
10823.0, -3.988e-08
10825.0, -4.038e-08
10827.0, -4.348e-08
10829.0, -4.633e-08
10831.0, -4.406e-08
10833.0, -4.307e-08
10835.0, -4.382e-08
10837.0, -4.539e-08
10839.0, -4.208e-08
10841.0, -4.08e-08
10843.0, -4.279e-08
10845.0, -4.078e-08
10847.0, -4.348e-08
10849.0, -4.109e-08
10851.0, -4.032e-08
10853.0, -4.507e-08
10855.0, -4.344e-08
10857.0, -4.252e-08
10859.0, -4.412e-08
10861.0, -4.301e-08
10863.0, -4.128e-08
10865.0, -4.365e-08
10867.0, -4.18e-08
10869.0, -4.153e-08
10871.0, -3.988e-08
10873.0, -4.222e-08
10875.0, -4.488e-08
10877.0, -4.126e-08
10879.0, -4.08e-08
10881.0, -4.098e-08
10883.0, -4.286e-08
10885.0, -4.086e-08
10887.0, -4.156e-08
10889.0, -4.282e-08
10891.0, -4.359e-08
10893.0, -4.077e-08
10895.0, -4.577e-08
10897.0, -4.376e-08
10899.0, -4.105e-08
10901.0, -3.905e-08
10903.0, -4.017e-08
10905.0, -4.239e-08
10907.0, -3.714e-08
10909.0, -4.286e-08
10911.0, -3.955e-08
10913.0, -4.055e-08
10915.0, -4.418e-08
10917.0, -4.222e-08
10919.0, -4.338e-08
10921.0, -4.43e-08
10923.0, -4.735e-08
10925.0, -4.265e-08
10927.0, -4.635e-08
10929.0, -4.326e-08
10931.0, -4.232e-08
10933.0, -4.28e-08
10935.0, -4.341e-08
10937.0, -4.234e-08
10939.0, -3.758e-08
10941.0, -4.35e-08
10943.0, -4.03e-08
10945.0, -3.939e-08
10947.0, -4.327e-08
10949.0, -4.438e-08
10951.0, -4.39e-08
10953.0, -4.005e-08
10955.0, -4.157e-08
10957.0, -4.02e-08
10959.0, -4.128e-08
10961.0, -4.159e-08
10963.0, -4.68e-08
10965.0, -3.777e-08
10967.0, -4.08e-08
10969.0, -4.1e-08
10971.0, -3.984e-08
10973.0, -3.94e-08
10975.0, -3.67e-08
10977.0, -3.94e-08
10979.0, -3.778e-08
10981.0, -3.867e-08
10983.0, -3.635e-08
10985.0, -3.759e-08
10987.0, -3.912e-08
10989.0, -4.077e-08
10991.0, -4.183e-08
10993.0, -4.114e-08
10995.0, -4.235e-08
10997.0, -3.909e-08
10999.0, -4.404e-08
11001.0, -4.194e-08
11003.0, -4.564e-08
11005.0, -4e-08
11007.0, -4.255e-08
11009.0, -3.798e-08
