Time sep (ms?), Current (A)
0.0, -3.397e-08
2.002, -2.979e-08
4.004, -3.026e-08
6.006, -3.242e-08
8.008, -3.054e-08
10.01, -3.126e-08
12.012, -3.374e-08
14.014, -3.806e-08
16.016, -3.411e-08
18.018, -3.292e-08
20.02, -3.674e-08
22.022, -3.183e-08
24.024, -3.216e-08
26.026, -3.166e-08
28.028, -3.001e-08
30.03, -3.507e-08
32.032, -3.337e-08
34.034, -3.496e-08
36.036, -3.287e-08
38.038, -3.035e-08
40.04, -3.133e-08
42.042, -3.366e-08
44.044, -3.497e-08
46.046, -3.177e-08
48.048, -3.126e-08
50.05, -2.935e-08
52.052, -3.111e-08
54.054, -3.639e-08
56.056, -3.59e-08
58.058, -3.085e-08
60.06, -3.128e-08
62.062, -3.168e-08
64.064, -3.342e-08
66.066, -3.322e-08
68.068, -3.059e-08
70.07, -3.182e-08
72.072, -3.336e-08
74.074, -3.318e-08
76.076, -3.245e-08
78.078, -3.146e-08
80.08, -2.955e-08
82.082, -3.223e-08
84.084, -2.904e-08
86.086, -2.926e-08
88.088, -2.915e-08
90.09, -2.93e-08
92.092, -3.135e-08
94.094, -3.265e-08
96.096, -3.178e-08
98.098, -2.715e-08
100.1, -3.305e-08
102.1, -3.086e-08
104.1, -2.822e-08
106.11, -2.967e-08
108.11, -2.818e-08
110.11, -3.156e-08
112.11, -3.13e-08
114.11, -3.376e-08
116.12, -2.896e-08
118.12, -2.937e-08
120.12, -2.867e-08
122.12, -3.069e-08
124.12, -3.152e-08
126.13, -2.783e-08
128.13, -2.983e-08
130.13, -3.169e-08
132.13, -3.36e-08
134.13, -3.064e-08
136.14, -2.663e-08
138.14, -2.971e-08
140.14, -3.256e-08
142.14, -3.134e-08
144.14, -2.988e-08
146.15, -2.924e-08
148.15, -2.741e-08
150.15, -3.318e-08
152.15, -3.268e-08
154.15, -3.152e-08
156.16, -3.197e-08
158.16, -3.586e-08
160.16, -2.834e-08
162.16, -3.441e-08
164.16, -2.952e-08
166.17, -3.411e-08
168.17, -2.816e-08
170.17, -3.508e-08
172.17, -3.482e-08
174.17, -3.539e-08
176.18, -3.361e-08
178.18, -3.138e-08
180.18, -2.97e-08
182.18, -3.286e-08
184.18, -3.147e-08
186.19, -3.239e-08
188.19, -2.869e-08
190.19, -3.355e-08
192.19, -3.073e-08
194.19, -3.515e-08
196.2, -3.087e-08
198.2, -3.142e-08
200.2, -3.195e-08
202.2, -3.277e-08
204.2, -3.289e-08
206.21, -3.281e-08
208.21, -3.392e-08
210.21, -3.349e-08
212.21, -3.29e-08
214.21, -2.833e-08
216.22, -3.447e-08
218.22, -3.098e-08
220.22, -3.233e-08
222.22, -2.946e-08
224.22, -3.302e-08
226.23, -3.047e-08
228.23, -3.297e-08
230.23, -3.01e-08
232.23, -3.038e-08
234.23, -3.029e-08
236.24, -3.312e-08
238.24, -3.234e-08
240.24, -2.8e-08
242.24, -3.158e-08
244.24, -3.027e-08
246.25, -2.932e-08
248.25, -2.872e-08
250.25, -2.767e-08
252.25, -2.511e-08
254.25, -2.733e-08
256.26, -3.052e-08
258.26, -3.25e-08
260.26, -2.994e-08
262.26, -3.232e-08
264.26, -2.981e-08
266.27, -3.063e-08
268.27, -3.262e-08
270.27, -2.794e-08
272.27, -2.877e-08
274.27, -3.163e-08
276.28, -2.933e-08
278.28, -2.869e-08
280.28, -3.416e-08
282.28, -3.086e-08
284.28, -2.953e-08
286.29, -2.918e-08
288.29, -3.187e-08
290.29, -3.029e-08
292.29, -3.376e-08
294.29, -3.019e-08
296.3, -3.236e-08
298.3, -3.392e-08
300.3, -2.764e-08
302.3, -3.194e-08
304.3, -2.926e-08
306.31, -3.305e-08
308.31, -3.23e-08
310.31, -3.012e-08
312.31, -3.339e-08
314.31, -3.619e-08
316.32, -3.59e-08
318.32, -3.82e-08
320.32, -3.225e-08
322.32, -3.24e-08
324.32, -3.362e-08
326.33, -3.479e-08
328.33, -3.537e-08
330.33, -3.365e-08
332.33, -3.169e-08
334.33, -3.424e-08
336.34, -3.209e-08
338.34, -2.878e-08
340.34, -3.092e-08
342.34, -3.285e-08
344.34, -3.159e-08
346.35, -2.867e-08
348.35, -2.871e-08
350.35, -3.146e-08
352.35, -3.112e-08
354.35, -3.016e-08
356.36, -2.856e-08
358.36, -3.095e-08
360.36, -3.03e-08
362.36, -3.579e-08
364.36, -3.795e-08
366.37, -3.391e-08
368.37, -3.081e-08
370.37, -3.195e-08
372.37, -3.044e-08
374.37, -2.744e-08
376.38, -2.755e-08
378.38, -2.653e-08
380.38, -2.334e-08
382.38, -2.608e-08
384.38, -2.703e-08
386.39, -2.907e-08
388.39, -2.968e-08
390.39, -2.684e-08
392.39, -2.645e-08
394.39, -2.856e-08
396.4, -2.851e-08
398.4, -2.592e-08
400.4, -2.853e-08
402.4, -2.862e-08
404.4, -3.168e-08
406.41, -2.671e-08
408.41, -3.199e-08
410.41, -3.188e-08
412.41, -3.094e-08
414.41, -3.218e-08
416.42, -3.1e-08
418.42, -2.842e-08
420.42, -2.88e-08
422.42, -2.923e-08
424.42, -2.75e-08
426.43, -2.796e-08
428.43, -3.126e-08
430.43, -2.989e-08
432.43, -3.155e-08
434.43, -2.713e-08
436.44, -2.909e-08
438.44, -2.946e-08
440.44, -3.087e-08
442.44, -3.386e-08
444.44, -3.643e-08
446.45, -3.286e-08
448.45, -3.188e-08
450.45, -2.875e-08
452.45, -2.826e-08
454.45, -3.114e-08
456.46, -2.641e-08
458.46, -3.2e-08
460.46, -3.139e-08
462.46, -3.36e-08
464.46, -2.988e-08
466.47, -3.042e-08
468.47, -2.788e-08
470.47, -2.841e-08
472.47, -3.165e-08
474.47, -3.192e-08
476.48, -3.06e-08
478.48, -3.377e-08
480.48, -2.993e-08
482.48, -3.224e-08
484.48, -3.239e-08
486.49, -3.229e-08
488.49, -3.293e-08
490.49, -3.595e-08
492.49, -3.31e-08
494.49, -3.176e-08
496.5, -3.454e-08
498.5, -3.405e-08
500.5, -3.417e-08
502.5, -3.285e-08
504.5, -3.329e-08
506.51, -2.942e-08
508.51, -2.808e-08
510.51, -3.07e-08
512.51, -2.965e-08
514.51, -3.363e-08
516.52, -3.357e-08
518.52, -3.396e-08
520.52, -3.484e-08
522.52, -3.407e-08
524.52, -3.388e-08
526.53, -3.195e-08
528.53, -3.196e-08
530.53, -3.261e-08
532.53, -2.783e-08
534.53, -3.133e-08
536.54, -3.145e-08
538.54, -3.057e-08
540.54, -3.093e-08
542.54, -3.599e-08
544.54, -3.494e-08
546.55, -3.716e-08
548.55, -3.471e-08
550.55, -3.661e-08
552.55, -3.394e-08
554.55, -3.499e-08
556.56, -3.488e-08
558.56, -3.072e-08
560.56, -3.023e-08
562.56, -3.115e-08
564.56, -3.421e-08
566.57, -3.303e-08
568.57, -3.125e-08
570.57, -3.132e-08
572.57, -3.621e-08
574.57, -3.291e-08
576.58, -3.604e-08
578.58, -3.28e-08
580.58, -3.742e-08
582.58, -3.787e-08
584.58, -4.011e-08
586.59, -3.753e-08
588.59, -3.577e-08
590.59, -3.368e-08
592.59, -3.411e-08
594.59, -3.532e-08
596.6, -3.491e-08
598.6, -3.573e-08
600.6, -3.15e-08
602.6, -3.346e-08
604.6, -3.255e-08
606.61, -3.361e-08
608.61, -3.196e-08
610.61, -3e-08
612.61, -3.165e-08
614.61, -3.532e-08
616.62, -3.426e-08
618.62, -3.454e-08
620.62, -3.382e-08
622.62, -3.345e-08
624.62, -2.954e-08
626.63, -3.013e-08
628.63, -3.48e-08
630.63, -3.369e-08
632.63, -3.269e-08
634.63, -3.061e-08
636.64, -3.115e-08
638.64, -2.898e-08
640.64, -2.91e-08
642.64, -3.145e-08
644.64, -3.255e-08
646.65, -3.176e-08
648.65, -3.082e-08
650.65, -3.21e-08
652.65, -2.991e-08
654.65, -3.41e-08
656.66, -3.291e-08
658.66, -3.518e-08
660.66, -3.879e-08
662.66, -3.346e-08
664.66, -3.106e-08
666.67, -3.437e-08
668.67, -3.422e-08
670.67, -3.608e-08
672.67, -3.382e-08
674.67, -3.64e-08
676.68, -3.485e-08
678.68, -3.809e-08
680.68, -3.552e-08
682.68, -3.284e-08
684.68, -3.375e-08
686.69, -3.376e-08
688.69, -2.63e-08
690.69, -3.2e-08
692.69, -3.319e-08
694.69, -3.241e-08
696.7, -3.645e-08
698.7, -3.911e-08
700.7, -3.166e-08
702.7, -3.46e-08
704.7, -3.358e-08
706.71, -3.345e-08
708.71, -3.458e-08
710.71, -3.262e-08
712.71, -3.241e-08
714.71, -3.042e-08
716.72, -3.339e-08
718.72, -3.322e-08
720.72, -3.314e-08
722.72, -3.241e-08
724.72, -3.625e-08
726.73, -3.042e-08
728.73, -3.06e-08
730.73, -3.079e-08
732.73, -2.82e-08
734.73, -2.923e-08
736.74, -2.778e-08
738.74, -2.541e-08
740.74, -2.532e-08
742.74, -2.941e-08
744.74, -2.576e-08
746.75, -3.129e-08
748.75, -2.963e-08
750.75, -2.829e-08
752.75, -3.007e-08
754.75, -3.006e-08
756.76, -3.418e-08
758.76, -3.365e-08
760.76, -3.201e-08
762.76, -3.347e-08
764.76, -3.425e-08
766.77, -3.131e-08
768.77, -3.146e-08
770.77, -2.959e-08
772.77, -3.345e-08
774.77, -3.507e-08
776.78, -3.14e-08
778.78, -3.618e-08
780.78, -3.735e-08
782.78, -3.567e-08
784.78, -3.432e-08
786.79, -3.364e-08
788.79, -3.427e-08
790.79, -3.537e-08
792.79, -3.284e-08
794.79, -3.147e-08
796.8, -3.251e-08
798.8, -3.307e-08
800.8, -3.526e-08
802.8, -3.292e-08
804.8, -3.236e-08
806.81, -3.255e-08
808.81, -3.073e-08
810.81, -3.342e-08
812.81, -3.414e-08
814.81, -3.273e-08
816.82, -3.137e-08
818.82, -3.144e-08
820.82, -3.219e-08
822.82, -3.044e-08
824.82, -3.411e-08
826.83, -3.038e-08
828.83, -3.095e-08
830.83, -3.442e-08
832.83, -3.033e-08
834.83, -3.128e-08
836.84, -3.323e-08
838.84, -3.443e-08
840.84, -3.155e-08
842.84, -3.506e-08
844.84, -3.165e-08
846.85, -3.395e-08
848.85, -3.212e-08
850.85, -3.054e-08
852.85, -3.056e-08
854.85, -2.777e-08
856.86, -3.111e-08
858.86, -3.247e-08
860.86, -3.236e-08
862.86, -3.341e-08
864.86, -3.351e-08
866.87, -3.592e-08
868.87, -2.647e-08
870.87, -2.924e-08
872.87, -3.206e-08
874.87, -2.865e-08
876.88, -2.848e-08
878.88, -3.043e-08
880.88, -3.026e-08
882.88, -3.154e-08
884.88, -3.485e-08
886.89, -3.194e-08
888.89, -3.132e-08
890.89, -3.21e-08
892.89, -3.367e-08
894.89, -3.644e-08
896.9, -3.296e-08
898.9, -3.216e-08
900.9, -3.43e-08
902.9, -3.552e-08
904.9, -3.537e-08
906.91, -3.804e-08
908.91, -3.58e-08
910.91, -3.738e-08
912.91, -3.483e-08
914.91, -3.581e-08
916.92, -3.531e-08
918.92, -3.482e-08
920.92, -3.558e-08
922.92, -3.696e-08
924.92, -3.627e-08
926.93, -3.658e-08
928.93, -3.547e-08
930.93, -3.313e-08
932.93, -3.466e-08
934.93, -3.658e-08
936.94, -3.851e-08
938.94, -3.569e-08
940.94, -3.206e-08
942.94, -3.211e-08
944.94, -2.841e-08
946.95, -3.009e-08
948.95, -3.223e-08
950.95, -3.346e-08
952.95, -3.106e-08
954.95, -3.225e-08
956.96, -3.544e-08
958.96, -3.579e-08
960.96, -3.221e-08
962.96, -3.565e-08
964.96, -3.561e-08
966.97, -3.649e-08
968.97, -3.315e-08
970.97, -3.074e-08
972.97, -3.184e-08
974.97, -3.28e-08
976.98, -3.421e-08
978.98, -3.028e-08
980.98, -3.308e-08
982.98, -3.189e-08
984.98, -2.905e-08
986.99, -2.882e-08
988.99, -3.15e-08
990.99, -3.035e-08
992.99, -3.207e-08
994.99, -3.134e-08
997.0, -3.224e-08
999.0, -3.598e-08
1001.0, -3.179e-08
1003.0, -3.155e-08
1005.0, -2.822e-08
1007.0, -2.747e-08
1009.0, -2.874e-08
1011.0, -3.382e-08
1013.0, 6.6267e-07
1015.0, 5.9937e-07
1017.0, 5.7574e-07
1019.0, 6.2592e-07
1021.0, 5.8137e-07
1023.0, 5.8535e-07
1025.0, 5.8788e-07
1027.0, 5.1714e-07
1029.0, 6.1626e-07
1031.0, 6.0592e-07
1033.0, 6.564e-07
1035.0, 6.5154e-07
1037.0, 5.4696e-07
1039.0, 6.5538e-07
1041.0, 6.2071e-07
1043.0, 5.6205e-07
1045.0, 6.2195e-07
1047.0, 6.5748e-07
1049.0, 6.1933e-07
1051.0, 6.1824e-07
1053.1, 6.428e-07
1055.1, 5.8035e-07
1057.1, 6.0019e-07
1059.1, 5.8742e-07
1061.1, 5.7147e-07
1063.1, 6.6943e-07
1065.1, 6.4612e-07
1067.1, 6.5977e-07
1069.1, 5.9349e-07
1071.1, 6.8193e-07
1073.1, 6.5023e-07
1075.1, 7.1748e-07
1077.1, 6.1348e-07
1079.1, 6.8328e-07
1081.1, 6.5889e-07
1083.1, 7.0659e-07
1085.1, 6.1484e-07
1087.1, 6.8279e-07
1089.1, 6.6756e-07
1091.1, 6.1218e-07
1093.1, 6.0319e-07
1095.1, 6.1777e-07
1097.1, 5.7715e-07
1099.1, 5.5788e-07
1101.1, 6.4068e-07
1103.1, 6.2962e-07
1105.1, 5.9485e-07
1107.1, 6.2816e-07
1109.1, 6.7247e-07
1111.1, 6.5237e-07
1113.1, 7.0055e-07
1115.1, 6.3739e-07
1117.1, 6.8014e-07
1119.1, 6.924e-07
1121.1, 7.2396e-07
1123.1, 5.9922e-07
1125.1, 5.9565e-07
1127.1, 6.2221e-07
1129.1, 6.9366e-07
1131.1, 6.6083e-07
1133.1, 7.0441e-07
1135.1, 6.598e-07
1137.1, 7.2539e-07
1139.1, 6.5242e-07
1141.1, 7.3593e-07
1143.1, 6.5932e-07
1145.1, 6.3599e-07
1147.1, 6.4057e-07
1149.1, 6.6815e-07
1151.1, 6.4366e-07
1153.2, 7.0541e-07
1155.2, 7.1081e-07
1157.2, 6.9458e-07
1159.2, 7.1988e-07
1161.2, 6.8217e-07
1163.2, 6.4674e-07
1165.2, 6.2415e-07
1167.2, 7.3234e-07
1169.2, 6.521e-07
1171.2, 6.5623e-07
1173.2, 6.8283e-07
1175.2, 6.7989e-07
1177.2, 6.8758e-07
1179.2, 6.5596e-07
1181.2, 7.2549e-07
1183.2, 6.8715e-07
1185.2, 6.8407e-07
1187.2, 6.1525e-07
1189.2, 7.2177e-07
1191.2, 7.3087e-07
1193.2, 6.606e-07
1195.2, 6.3644e-07
1197.2, 6.5577e-07
1199.2, 6.0123e-07
1201.2, 6.5114e-07
1203.2, 6.4485e-07
1205.2, 6.3134e-07
1207.2, 6.2761e-07
1209.2, 6.4384e-07
1211.2, 5.5732e-07
1213.2, 7.1617e-07
1215.2, 7.0207e-07
1217.2, 7.0554e-07
1219.2, 6.7783e-07
1221.2, 7.4637e-07
1223.2, 6.5413e-07
1225.2, 6.9534e-07
1227.2, 6.782e-07
1229.2, 6.5387e-07
1231.2, 7.1826e-07
1233.2, 7.1233e-07
1235.2, 6.1744e-07
1237.2, 7.4978e-07
1239.2, 6.4103e-07
1241.2, 7.6464e-07
1243.2, 5.7924e-07
1245.2, 6.9939e-07
1247.2, 6.4347e-07
1249.2, 6.8239e-07
1251.2, 7.6257e-07
1253.3, 6.8868e-07
1255.3, 6.859e-07
1257.3, 6.5759e-07
1259.3, 6.8477e-07
1261.3, 6.8684e-07
1263.3, 7.9262e-07
1265.3, 6.7554e-07
1267.3, 5.8375e-07
1269.3, 6.7006e-07
1271.3, 7.0774e-07
1273.3, 6.2487e-07
1275.3, 7.1388e-07
1277.3, 7.4578e-07
1279.3, 6.4535e-07
1281.3, 6.9336e-07
1283.3, 6.7235e-07
1285.3, 6.9606e-07
1287.3, 7.4086e-07
1289.3, 6.7001e-07
1291.3, 8.0174e-07
1293.3, 7.1896e-07
1295.3, 6.7476e-07
1297.3, 7.5867e-07
1299.3, 7.0533e-07
1301.3, 7.2579e-07
1303.3, 6.7969e-07
1305.3, 7.1817e-07
1307.3, 6.9547e-07
1309.3, 7.9799e-07
1311.3, 7.1983e-07
1313.3, 7.508e-07
1315.3, 7.4587e-07
1317.3, 6.9307e-07
1319.3, 7.2653e-07
1321.3, 7.154e-07
1323.3, 6.6726e-07
1325.3, 7.0311e-07
1327.3, 8.2634e-07
1329.3, 6.8991e-07
1331.3, 7.3303e-07
1333.3, 7.0321e-07
1335.3, 6.7914e-07
1337.3, 6.8258e-07
1339.3, 7.8628e-07
1341.3, 6.6533e-07
1343.3, 6.455e-07
1345.3, 7.123e-07
1347.3, 7.5968e-07
1349.3, 6.7102e-07
1351.3, 7.8372e-07
1353.4, 7.3049e-07
1355.4, 7.6077e-07
1357.4, 7.964e-07
1359.4, 7.9783e-07
1361.4, 7.0001e-07
1363.4, 7.2644e-07
1365.4, 6.3747e-07
1367.4, 7.1487e-07
1369.4, 7.9581e-07
1371.4, 7.4588e-07
1373.4, 6.5789e-07
1375.4, 7.9766e-07
1377.4, 6.8222e-07
1379.4, 6.9669e-07
1381.4, 6.2718e-07
1383.4, 6.6676e-07
1385.4, 7.417e-07
1387.4, 7.082e-07
1389.4, 6.9761e-07
1391.4, 7.7538e-07
1393.4, 7.3542e-07
1395.4, 6.8001e-07
1397.4, 6.7832e-07
1399.4, 6.9464e-07
1401.4, 6.0147e-07
1403.4, 7.1893e-07
1405.4, 7.9028e-07
1407.4, 7.7064e-07
1409.4, 7.8964e-07
1411.4, 6.1581e-07
1413.4, 6.6899e-07
1415.4, 7.0971e-07
1417.4, 6.7919e-07
1419.4, 7.1866e-07
1421.4, 7.4618e-07
1423.4, 7.0006e-07
1425.4, 7.4558e-07
1427.4, 7.8477e-07
1429.4, 6.892e-07
1431.4, 6.7621e-07
1433.4, 7.9337e-07
1435.4, 7.5041e-07
1437.4, 7.3909e-07
1439.4, 7.1552e-07
1441.4, 7.2812e-07
1443.4, 7.3699e-07
1445.4, 7.383e-07
1447.4, 7.3119e-07
1449.4, 7.9368e-07
1451.4, 7.1457e-07
1453.5, 7.5035e-07
1455.5, 7.0261e-07
1457.5, 7.4845e-07
1459.5, 7.206e-07
1461.5, 7.3115e-07
1463.5, 6.8249e-07
1465.5, 6.7055e-07
1467.5, 6.9638e-07
1469.5, 6.9842e-07
1471.5, 7.2556e-07
1473.5, 6.9199e-07
1475.5, 7.582e-07
1477.5, 7.2412e-07
1479.5, 7.4285e-07
1481.5, 6.4916e-07
1483.5, 6.2472e-07
1485.5, 7.5301e-07
1487.5, 6.9322e-07
1489.5, 7.1406e-07
1491.5, 6.8643e-07
1493.5, 6.8532e-07
1495.5, 7.7898e-07
1497.5, 6.973e-07
1499.5, 7.1925e-07
1501.5, 6.6721e-07
1503.5, 8.1635e-07
1505.5, 7.4658e-07
1507.5, 6.4839e-07
1509.5, 6.4509e-07
1511.5, 6.6966e-07
1513.5, 6.7856e-07
1515.5, 6.3875e-07
1517.5, 6.3117e-07
1519.5, 7.4045e-07
1521.5, 8.124e-07
1523.5, 7.1011e-07
1525.5, 6.437e-07
1527.5, 7.2989e-07
1529.5, 7.8099e-07
1531.5, 7.919e-07
1533.5, 6.4242e-07
1535.5, 7.2141e-07
1537.5, 7.7244e-07
1539.5, 6.8096e-07
1541.5, 7.2045e-07
1543.5, 6.7445e-07
1545.5, 7.0753e-07
1547.5, 7.5427e-07
1549.5, 7.5343e-07
1551.5, 7.2026e-07
1553.6, 7.0843e-07
1555.6, 7.3635e-07
1557.6, 7.9033e-07
1559.6, 6.642e-07
1561.6, 7.2533e-07
1563.6, 6.8462e-07
1565.6, 8.4119e-07
1567.6, 7.6176e-07
1569.6, 7.1122e-07
1571.6, 6.5698e-07
1573.6, 7.3239e-07
1575.6, 7.8769e-07
1577.6, 6.8068e-07
1579.6, 6.6289e-07
1581.6, 7.4117e-07
1583.6, 6.6129e-07
1585.6, 7.5693e-07
1587.6, 6.7298e-07
1589.6, 7.3161e-07
1591.6, 7.6369e-07
1593.6, 8.1476e-07
1595.6, 6.8767e-07
1597.6, 7.4462e-07
1599.6, 7.9981e-07
1601.6, 6.5863e-07
1603.6, 6.8063e-07
1605.6, 7.8298e-07
1607.6, 6.4538e-07
1609.6, 7.0501e-07
1611.6, 7.3295e-07
1613.6, 7.8161e-07
1615.6, 7.0851e-07
1617.6, 7.5619e-07
1619.6, 7.5437e-07
1621.6, 7.7785e-07
1623.6, 7.4437e-07
1625.6, 7.1812e-07
1627.6, 7.2528e-07
1629.6, 7.6481e-07
1631.6, 6.6075e-07
1633.6, 7.8267e-07
1635.6, 7.2001e-07
1637.6, 8.2373e-07
1639.6, 6.6702e-07
1641.6, 7.3103e-07
1643.6, 7.7829e-07
1645.6, 7.1529e-07
1647.6, 8.1528e-07
1649.6, 6.7026e-07
1651.6, 8.366e-07
1653.7, 7.073e-07
1655.7, 6.4964e-07
1657.7, 7.1481e-07
1659.7, 7.7588e-07
1661.7, 6.9845e-07
1663.7, 7.2779e-07
1665.7, 6.5278e-07
1667.7, 7.6452e-07
1669.7, 7.3361e-07
1671.7, 6.7827e-07
1673.7, 6.9071e-07
1675.7, 6.9972e-07
1677.7, 7.1231e-07
1679.7, 7.3872e-07
1681.7, 7.646e-07
1683.7, 6.9964e-07
1685.7, 7.3035e-07
1687.7, 7.9857e-07
1689.7, 6.0361e-07
1691.7, 7.5653e-07
1693.7, 7.1404e-07
1695.7, 7.2605e-07
1697.7, 7.1407e-07
1699.7, 7.4321e-07
1701.7, 7.5355e-07
1703.7, 6.6365e-07
1705.7, 7.3465e-07
1707.7, 7.2192e-07
1709.7, 7.5906e-07
1711.7, 7.1629e-07
1713.7, 7.1472e-07
1715.7, 7.0149e-07
1717.7, 7.5398e-07
1719.7, 7.3644e-07
1721.7, 8.0385e-07
1723.7, 6.5093e-07
1725.7, 6.6621e-07
1727.7, 7.1816e-07
1729.7, 6.8449e-07
1731.7, 6.714e-07
1733.7, 7.3407e-07
1735.7, 6.7706e-07
1737.7, 7.3123e-07
1739.7, 7.5806e-07
1741.7, 7.1948e-07
1743.7, 7.095e-07
1745.7, 6.429e-07
1747.7, 8.1568e-07
1749.7, 7.0179e-07
1751.7, 8.2089e-07
1753.8, 7.9529e-07
1755.8, 6.9507e-07
1757.8, 6.5183e-07
1759.8, 6.8487e-07
1761.8, 7.1468e-07
1763.8, 7.8468e-07
1765.8, 8.4332e-07
1767.8, 8.1871e-07
1769.8, 7.0091e-07
1771.8, 7.3424e-07
1773.8, 6.1493e-07
1775.8, 6.3242e-07
1777.8, 7.3287e-07
1779.8, 7.3683e-07
1781.8, 8.0994e-07
1783.8, 6.5832e-07
1785.8, 7.6236e-07
1787.8, 7.3134e-07
1789.8, 7.1656e-07
1791.8, 6.5028e-07
1793.8, 7.6568e-07
1795.8, 7.1581e-07
1797.8, 7.0926e-07
1799.8, 7.0309e-07
1801.8, 7.2648e-07
1803.8, 6.97e-07
1805.8, 8.0169e-07
1807.8, 7.0131e-07
1809.8, 7.5017e-07
1811.8, 7.0416e-07
1813.8, 7.6379e-07
1815.8, 7.2561e-07
1817.8, 7.2293e-07
1819.8, 7.5935e-07
1821.8, 7.2669e-07
1823.8, 7.173e-07
1825.8, 7.6731e-07
1827.8, 7.4187e-07
1829.8, 6.9398e-07
1831.8, 7.1148e-07
1833.8, 7.283e-07
1835.8, 8.0105e-07
1837.8, 6.5161e-07
1839.8, 7.5425e-07
1841.8, 8.3399e-07
1843.8, 7.5304e-07
1845.8, 8.3542e-07
1847.8, 7.3096e-07
1849.8, 6.9503e-07
1851.8, 7.01e-07
1853.9, 7.3767e-07
1855.9, 6.5553e-07
1857.9, 7.641e-07
1859.9, 8.1137e-07
1861.9, 8.3501e-07
1863.9, 6.8777e-07
1865.9, 7.2486e-07
1867.9, 6.7275e-07
1869.9, 7.9017e-07
1871.9, 7.7465e-07
1873.9, 8.1613e-07
1875.9, 7.8532e-07
1877.9, 7.357e-07
1879.9, 7.3972e-07
1881.9, 7.4634e-07
1883.9, 7.1414e-07
1885.9, 8.3374e-07
1887.9, 7.5518e-07
1889.9, 7.5346e-07
1891.9, 7.6916e-07
1893.9, 7.7029e-07
1895.9, 6.8227e-07
1897.9, 7.5058e-07
1899.9, 7.7932e-07
1901.9, 7.1183e-07
1903.9, 7.1963e-07
1905.9, 7.3423e-07
1907.9, 6.6413e-07
1909.9, 7.1017e-07
1911.9, 7.2465e-07
1913.9, 8.0295e-07
1915.9, 7.3213e-07
1917.9, 7.2056e-07
1919.9, 6.8176e-07
1921.9, 7.636e-07
1923.9, 7.4332e-07
1925.9, 7.6903e-07
1927.9, 7.893e-07
1929.9, 7.2208e-07
1931.9, 7.3654e-07
1933.9, 7.023e-07
1935.9, 6.6023e-07
1937.9, 7.9949e-07
1939.9, 7.1874e-07
1941.9, 7.4565e-07
1943.9, 7.4062e-07
1945.9, 7.1713e-07
1947.9, 7.8965e-07
1949.9, 7.5453e-07
1951.9, 5.8541e-07
1954.0, 7.1795e-07
1956.0, 7.284e-07
1958.0, 7.9702e-07
1960.0, 7.9969e-07
1962.0, 8.4218e-07
1964.0, 7.1902e-07
1966.0, 7.1905e-07
1968.0, 6.8178e-07
1970.0, 7.3504e-07
1972.0, 7.669e-07
1974.0, 7.2483e-07
1976.0, 8.1012e-07
1978.0, 6.8043e-07
1980.0, 7.0542e-07
1982.0, 8.4308e-07
1984.0, 7.7495e-07
1986.0, 8.4584e-07
1988.0, 7.4822e-07
1990.0, 6.9968e-07
1992.0, 7.6121e-07
1994.0, 8.5354e-07
1996.0, 6.7419e-07
1998.0, 7.0874e-07
2000.0, 7.7234e-07
2002.0, 8.0938e-07
2004.0, 8.2392e-07
2006.0, 6.8933e-07
2008.0, 7.3022e-07
2010.0, 6.7408e-07
2012.0, 6.8414e-07
2014.0, -2.371e-08
2016.0, -2.669e-08
2018.0, -2.814e-08
2020.0, -2.7e-08
2022.0, -2.982e-08
2024.0, -2.898e-08
2026.0, -2.929e-08
2028.0, -2.875e-08
2030.0, -3.101e-08
2032.0, -2.966e-08
2034.0, -3.11e-08
2036.0, -2.777e-08
2038.0, -3.001e-08
2040.0, -2.799e-08
2042.0, -2.654e-08
2044.0, -2.912e-08
2046.0, -2.598e-08
2048.0, -2.903e-08
2050.0, -2.632e-08
2052.0, -2.816e-08
2054.1, -2.806e-08
2056.1, -2.728e-08
2058.1, -2.695e-08
2060.1, -2.566e-08
2062.1, -2.569e-08
2064.1, -2.722e-08
2066.1, -2.69e-08
2068.1, -2.776e-08
2070.1, -2.274e-08
2072.1, -2.157e-08
2074.1, -2.292e-08
2076.1, -2.687e-08
2078.1, -2.455e-08
2080.1, -2.671e-08
2082.1, -2.532e-08
2084.1, -2.295e-08
2086.1, -2.621e-08
2088.1, -2.617e-08
2090.1, -2.818e-08
2092.1, -2.436e-08
2094.1, -2.462e-08
2096.1, -2.492e-08
2098.1, -2.789e-08
2100.1, -2.949e-08
2102.1, -2.803e-08
2104.1, -2.779e-08
2106.1, -2.656e-08
2108.1, -3.128e-08
2110.1, -3.081e-08
2112.1, -2.739e-08
2114.1, -2.555e-08
2116.1, -2.465e-08
2118.1, -2.645e-08
2120.1, -2.815e-08
2122.1, -2.989e-08
2124.1, -2.979e-08
2126.1, -2.825e-08
2128.1, -2.536e-08
2130.1, -2.896e-08
2132.1, -2.779e-08
2134.1, -2.788e-08
2136.1, -2.719e-08
2138.1, -2.948e-08
2140.1, -2.882e-08
2142.1, -2.815e-08
2144.1, -2.7e-08
2146.1, -2.728e-08
2148.1, -3.12e-08
2150.1, -2.642e-08
2152.1, -2.961e-08
2154.2, -2.637e-08
2156.2, -2.843e-08
2158.2, -3.04e-08
2160.2, -2.788e-08
2162.2, -2.971e-08
2164.2, -3.198e-08
2166.2, -2.818e-08
2168.2, -2.939e-08
2170.2, -3.161e-08
2172.2, -2.897e-08
2174.2, -3.016e-08
2176.2, -3.092e-08
2178.2, -2.862e-08
2180.2, -3.376e-08
2182.2, -2.997e-08
2184.2, -3.323e-08
2186.2, -3.167e-08
2188.2, -3.133e-08
2190.2, -3.195e-08
2192.2, -2.701e-08
2194.2, -3.053e-08
2196.2, -2.948e-08
2198.2, -2.978e-08
2200.2, -3.129e-08
2202.2, -2.6e-08
2204.2, -2.662e-08
2206.2, -3.137e-08
2208.2, -2.73e-08
2210.2, -3.313e-08
2212.2, -2.684e-08
2214.2, -3.094e-08
2216.2, -3.068e-08
2218.2, -2.766e-08
2220.2, -2.736e-08
2222.2, -2.861e-08
2224.2, -2.901e-08
2226.2, -2.989e-08
2228.2, -2.962e-08
2230.2, -3.155e-08
2232.2, -3.172e-08
2234.2, -2.928e-08
2236.2, -2.712e-08
2238.2, -2.921e-08
2240.2, -2.961e-08
2242.2, -3.127e-08
2244.2, -3.133e-08
2246.2, -3.175e-08
2248.2, -3.225e-08
2250.2, -3.381e-08
2252.2, -2.984e-08
2254.3, -3.106e-08
2256.3, -2.948e-08
2258.3, -2.851e-08
2260.3, -3.089e-08
2262.3, -3.201e-08
2264.3, -2.99e-08
2266.3, -3.056e-08
2268.3, -2.958e-08
2270.3, -2.943e-08
2272.3, -2.724e-08
2274.3, -3.103e-08
2276.3, -2.898e-08
2278.3, -3.072e-08
2280.3, -3.118e-08
2282.3, -3.15e-08
2284.3, -2.965e-08
2286.3, -2.988e-08
2288.3, -3.305e-08
2290.3, -3.354e-08
2292.3, -3.024e-08
2294.3, -3.203e-08
2296.3, -2.853e-08
2298.3, -2.793e-08
2300.3, -3.1e-08
2302.3, -3.296e-08
2304.3, -3.055e-08
2306.3, -3.357e-08
2308.3, -3.225e-08
2310.3, -2.966e-08
2312.3, -3.198e-08
2314.3, -3.041e-08
2316.3, -3.58e-08
2318.3, -3.103e-08
2320.3, -3.239e-08
2322.3, -3.044e-08
2324.3, -3.213e-08
2326.3, -2.913e-08
2328.3, -2.779e-08
2330.3, -2.896e-08
2332.3, -2.757e-08
2334.3, -2.775e-08
2336.3, -2.833e-08
2338.3, -2.689e-08
2340.3, -2.959e-08
2342.3, -2.891e-08
2344.3, -2.723e-08
2346.3, -3.063e-08
2348.3, -2.955e-08
2350.3, -3.043e-08
2352.3, -2.617e-08
2354.4, -2.84e-08
2356.4, -2.834e-08
2358.4, -3.152e-08
2360.4, -3.006e-08
2362.4, -2.72e-08
2364.4, -2.813e-08
2366.4, -2.97e-08
2368.4, -3.086e-08
2370.4, -3.024e-08
2372.4, -2.927e-08
2374.4, -2.68e-08
2376.4, -2.837e-08
2378.4, -2.885e-08
2380.4, -2.874e-08
2382.4, -2.924e-08
2384.4, -3.063e-08
2386.4, -3.146e-08
2388.4, -2.899e-08
2390.4, -3.168e-08
2392.4, -2.842e-08
2394.4, -2.972e-08
2396.4, -3.06e-08
2398.4, -3.024e-08
2400.4, -2.669e-08
2402.4, -2.881e-08
2404.4, -2.465e-08
2406.4, -3.122e-08
2408.4, -3.112e-08
2410.4, -2.936e-08
2412.4, -2.802e-08
2414.4, -3.381e-08
2416.4, -3.395e-08
2418.4, -3.246e-08
2420.4, -2.523e-08
2422.4, -3.097e-08
2424.4, -2.842e-08
2426.4, -2.748e-08
2428.4, -2.844e-08
2430.4, -3.057e-08
2432.4, -3.069e-08
2434.4, -2.893e-08
2436.4, -2.916e-08
2438.4, -2.711e-08
2440.4, -3.192e-08
2442.4, -3.02e-08
2444.4, -3.074e-08
2446.4, -3.166e-08
2448.4, -3.008e-08
2450.4, -3.095e-08
2452.4, -2.778e-08
2454.5, -3.204e-08
2456.5, -2.786e-08
2458.5, -2.979e-08
2460.5, -3.245e-08
2462.5, -3.147e-08
2464.5, -2.705e-08
2466.5, -2.849e-08
2468.5, -2.873e-08
2470.5, -2.841e-08
2472.5, -2.837e-08
2474.5, -2.911e-08
2476.5, -2.74e-08
2478.5, -2.605e-08
2480.5, -2.801e-08
2482.5, -3.01e-08
2484.5, -2.885e-08
2486.5, -2.619e-08
2488.5, -2.747e-08
2490.5, -2.665e-08
2492.5, -2.938e-08
2494.5, -3.02e-08
2496.5, -3.251e-08
2498.5, -2.921e-08
2500.5, -3.132e-08
2502.5, -2.898e-08
2504.5, -3.085e-08
2506.5, -3.064e-08
2508.5, -3.545e-08
2510.5, -3.649e-08
2512.5, -3.298e-08
2514.5, -3.145e-08
2516.5, -2.978e-08
2518.5, -3.108e-08
2520.5, -2.977e-08
2522.5, -3.45e-08
2524.5, -2.935e-08
2526.5, -3.116e-08
2528.5, -3.012e-08
2530.5, -2.918e-08
2532.5, -2.856e-08
2534.5, -2.925e-08
2536.5, -3.198e-08
2538.5, -3.129e-08
2540.5, -2.784e-08
2542.5, -3.15e-08
2544.5, -3.133e-08
2546.5, -2.944e-08
2548.5, -2.957e-08
2550.5, -2.938e-08
2552.5, -2.932e-08
2554.6, -2.748e-08
2556.6, -2.978e-08
2558.6, -2.85e-08
2560.6, -3.397e-08
2562.6, -3.277e-08
2564.6, -3.147e-08
2566.6, -3.293e-08
2568.6, -3.056e-08
2570.6, -3.018e-08
2572.6, -3.246e-08
2574.6, -3.37e-08
2576.6, -3.239e-08
2578.6, -3.088e-08
2580.6, -3.057e-08
2582.6, -2.656e-08
2584.6, -3.33e-08
2586.6, -2.844e-08
2588.6, -2.868e-08
2590.6, -2.891e-08
2592.6, -2.852e-08
2594.6, -3.133e-08
2596.6, -2.944e-08
2598.6, -2.909e-08
2600.6, -2.676e-08
2602.6, -2.915e-08
2604.6, -2.952e-08
2606.6, -2.991e-08
2608.6, -2.988e-08
2610.6, -3.012e-08
2612.6, -2.856e-08
2614.6, -2.689e-08
2616.6, -2.839e-08
2618.6, -3.052e-08
2620.6, -2.935e-08
2622.6, -3.085e-08
2624.6, -2.833e-08
2626.6, -2.847e-08
2628.6, -3.243e-08
2630.6, -2.923e-08
2632.6, -2.816e-08
2634.6, -3.066e-08
2636.6, -3.151e-08
2638.6, -2.954e-08
2640.6, -3.126e-08
2642.6, -3.179e-08
2644.6, -3.233e-08
2646.6, -2.903e-08
2648.6, -2.861e-08
2650.6, -2.799e-08
2652.6, -2.694e-08
2654.7, -2.562e-08
2656.7, -2.663e-08
2658.7, -2.636e-08
2660.7, -2.654e-08
2662.7, -2.503e-08
2664.7, -2.837e-08
2666.7, -2.478e-08
2668.7, -2.909e-08
2670.7, -2.959e-08
2672.7, -2.899e-08
2674.7, -2.929e-08
2676.7, -2.396e-08
2678.7, -2.86e-08
2680.7, -2.784e-08
2682.7, -2.798e-08
2684.7, -2.948e-08
2686.7, -2.964e-08
2688.7, -2.74e-08
2690.7, -2.357e-08
2692.7, -2.636e-08
2694.7, -2.222e-08
2696.7, -2.876e-08
2698.7, -2.592e-08
2700.7, -2.602e-08
2702.7, -2.821e-08
2704.7, -2.877e-08
2706.7, -2.668e-08
2708.7, -2.919e-08
2710.7, -2.629e-08
2712.7, -2.828e-08
2714.7, -2.91e-08
2716.7, -2.992e-08
2718.7, -2.643e-08
2720.7, -2.787e-08
2722.7, -2.886e-08
2724.7, -2.969e-08
2726.7, -3.007e-08
2728.7, -3.154e-08
2730.7, -2.509e-08
2732.7, -2.981e-08
2734.7, -3.067e-08
2736.7, -2.799e-08
2738.7, -2.831e-08
2740.7, -2.807e-08
2742.7, -3.198e-08
2744.7, -3.156e-08
2746.7, -3.325e-08
2748.7, -3.235e-08
2750.7, -3.193e-08
2752.7, -2.918e-08
2754.8, -2.806e-08
2756.8, -2.654e-08
2758.8, -2.675e-08
2760.8, -2.526e-08
2762.8, -2.722e-08
2764.8, -2.903e-08
2766.8, -2.829e-08
2768.8, -2.942e-08
2770.8, -2.56e-08
2772.8, -2.706e-08
2774.8, -2.903e-08
2776.8, -2.627e-08
2778.8, -2.793e-08
2780.8, -2.754e-08
2782.8, -2.56e-08
2784.8, -2.938e-08
2786.8, -3.051e-08
2788.8, -2.662e-08
2790.8, -2.748e-08
2792.8, -2.873e-08
2794.8, -2.886e-08
2796.8, -3.118e-08
2798.8, -2.905e-08
2800.8, -2.685e-08
2802.8, -2.504e-08
2804.8, -2.77e-08
2806.8, -3.133e-08
2808.8, -3.14e-08
2810.8, -2.837e-08
2812.8, -2.918e-08
2814.8, -3.008e-08
2816.8, -2.969e-08
2818.8, -3.025e-08
2820.8, -3.17e-08
2822.8, -2.766e-08
2824.8, -2.717e-08
2826.8, -2.638e-08
2828.8, -2.622e-08
2830.8, -2.886e-08
2832.8, -2.471e-08
2834.8, -2.925e-08
2836.8, -2.57e-08
2838.8, -2.421e-08
2840.8, -2.705e-08
2842.8, -2.948e-08
2844.8, -2.83e-08
2846.8, -2.72e-08
2848.8, -2.942e-08
2850.8, -3.211e-08
2852.8, -2.728e-08
2854.9, -3.227e-08
2856.9, -3.003e-08
2858.9, -2.308e-08
2860.9, -2.388e-08
2862.9, -2.548e-08
2864.9, -2.68e-08
2866.9, -2.97e-08
2868.9, -2.854e-08
2870.9, -2.586e-08
2872.9, -2.961e-08
2874.9, -2.667e-08
2876.9, -2.571e-08
2878.9, -2.88e-08
2880.9, -2.413e-08
2882.9, -2.764e-08
2884.9, -2.57e-08
2886.9, -2.876e-08
2888.9, -3.01e-08
2890.9, -2.744e-08
2892.9, -2.734e-08
2894.9, -2.822e-08
2896.9, -2.758e-08
2898.9, -2.935e-08
2900.9, -2.842e-08
2902.9, -2.793e-08
2904.9, -2.552e-08
2906.9, -2.765e-08
2908.9, -3.018e-08
2910.9, -3.108e-08
2912.9, -3.06e-08
2914.9, -2.964e-08
2916.9, -3.096e-08
2918.9, -3.01e-08
2920.9, -2.625e-08
2922.9, -2.834e-08
2924.9, -2.911e-08
2926.9, -3.021e-08
2928.9, -2.696e-08
2930.9, -2.416e-08
2932.9, -2.653e-08
2934.9, -2.764e-08
2936.9, -2.619e-08
2938.9, -2.646e-08
2940.9, -2.798e-08
2942.9, -2.942e-08
2944.9, -2.911e-08
2946.9, -3.15e-08
2948.9, -3.201e-08
2950.9, -2.753e-08
2952.9, -3.084e-08
2955.0, -3.051e-08
2957.0, -2.879e-08
2959.0, -3.184e-08
2961.0, -2.845e-08
2963.0, -2.834e-08
2965.0, -2.79e-08
2967.0, -2.772e-08
2969.0, -3.026e-08
2971.0, -2.862e-08
2973.0, -2.666e-08
2975.0, -2.966e-08
2977.0, -2.687e-08
2979.0, -3.054e-08
2981.0, -3.044e-08
2983.0, -2.926e-08
2985.0, -2.897e-08
2987.0, -3.196e-08
2989.0, -3.343e-08
2991.0, -3.361e-08
2993.0, -3.124e-08
2995.0, -3.067e-08
2997.0, -3.206e-08
2999.0, -3.033e-08
3001.0, -3.206e-08
3003.0, -2.611e-08
3005.0, -3.258e-08
3007.0, -3.179e-08
3009.0, -2.945e-08
3011.0, -2.944e-08
3013.0, -2.827e-08
3015.0, -3.114e-08
3017.0, -2.882e-08
3019.0, -2.844e-08
3021.0, -2.657e-08
3023.0, -3.018e-08
3025.0, -3.275e-08
3027.0, -2.919e-08
3029.0, -3.295e-08
3031.0, -3.071e-08
3033.0, -2.924e-08
3035.0, -2.73e-08
3037.0, -2.835e-08
3039.0, -2.889e-08
3041.0, -2.756e-08
3043.0, -2.974e-08
3045.0, -2.735e-08
3047.0, -3.184e-08
3049.0, -2.747e-08
3051.0, -2.693e-08
3053.0, -2.762e-08
3055.1, -2.967e-08
3057.1, -2.946e-08
3059.1, -2.959e-08
3061.1, -2.933e-08
3063.1, -2.945e-08
3065.1, -2.943e-08
3067.1, -2.841e-08
3069.1, -2.664e-08
3071.1, 3.5727e-07
3073.1, 6.5002e-07
3075.1, 6.9473e-07
3077.1, 6.8576e-07
3079.1, 5.7947e-07
3081.1, 6.0563e-07
3083.1, 5.9695e-07
3085.1, 6.6335e-07
3087.1, 5.7831e-07
3089.1, 6.2355e-07
3091.1, 6.5294e-07
3093.1, 5.9541e-07
3095.1, 6.6216e-07
3097.1, 6.9072e-07
3099.1, 7.1886e-07
3101.1, 6.0536e-07
3103.1, 6.1474e-07
3105.1, 6.1584e-07
3107.1, 5.8136e-07
3109.1, 7.1253e-07
3111.1, 6.4075e-07
3113.1, 6.0946e-07
3115.1, 6.6902e-07
3117.1, 6.0862e-07
3119.1, 6.5916e-07
3121.1, 6.0153e-07
3123.1, 6.6743e-07
3125.1, 6.5049e-07
3127.1, 6.2065e-07
3129.1, 6.8752e-07
3131.1, 6.8172e-07
3133.1, 7.0274e-07
3135.1, 7.1084e-07
3137.1, 6.3404e-07
3139.1, 6.1229e-07
3141.1, 6.7429e-07
3143.1, 6.6061e-07
3145.1, 6.1993e-07
3147.1, 5.8752e-07
3149.1, 6.3742e-07
3151.1, 6.6911e-07
3153.1, 6.2618e-07
3155.2, 7.0607e-07
3157.2, 6.5547e-07
3159.2, 5.8528e-07
3161.2, 5.6694e-07
3163.2, 5.9289e-07
3165.2, 6.904e-07
3167.2, 6.9096e-07
3169.2, 7.3753e-07
3171.2, 6.9516e-07
3173.2, 7.998e-07
3175.2, 6.0279e-07
3177.2, 6.4637e-07
3179.2, 6.209e-07
3181.2, 7.1559e-07
3183.2, 6.9946e-07
3185.2, 6.1983e-07
3187.2, 6.1158e-07
3189.2, 6.0956e-07
3191.2, 6.8049e-07
3193.2, 7.4506e-07
3195.2, 6.6015e-07
3197.2, 6.2202e-07
3199.2, 5.8876e-07
3201.2, 6.577e-07
3203.2, 6.5526e-07
3205.2, 7.7667e-07
3207.2, 6.9069e-07
3209.2, 6.8642e-07
3211.2, 6.8951e-07
3213.2, 7.0751e-07
3215.2, 6.2333e-07
3217.2, 7.2009e-07
3219.2, 7.4363e-07
3221.2, 6.3338e-07
3223.2, 7.029e-07
3225.2, 7.213e-07
3227.2, 7.333e-07
3229.2, 6.6773e-07
3231.2, 6.8837e-07
3233.2, 6.5477e-07
3235.2, 7.9286e-07
3237.2, 6.4429e-07
3239.2, 7.3052e-07
3241.2, 6.2724e-07
3243.2, 6.4142e-07
3245.2, 7.0457e-07
3247.2, 6.8977e-07
3249.2, 7.0157e-07
3251.2, 6.3395e-07
3253.2, 6.5551e-07
3255.3, 6.5383e-07
3257.3, 6.807e-07
3259.3, 6.7457e-07
3261.3, 7.1048e-07
3263.3, 6.3325e-07
3265.3, 7.2053e-07
3267.3, 7.253e-07
3269.3, 6.0585e-07
3271.3, 6.7936e-07
3273.3, 6.4521e-07
3275.3, 6.9253e-07
3277.3, 6.1136e-07
3279.3, 6.3612e-07
3281.3, 7.3114e-07
3283.3, 7.395e-07
3285.3, 7.6202e-07
3287.3, 6.3424e-07
3289.3, 6.8134e-07
3291.3, 7.4847e-07
3293.3, 6.6452e-07
3295.3, 6.4357e-07
3297.3, 7.0991e-07
3299.3, 7.5158e-07
3301.3, 6.9934e-07
3303.3, 6.837e-07
3305.3, 7.7962e-07
3307.3, 6.1564e-07
3309.3, 7.4703e-07
3311.3, 7.2924e-07
3313.3, 6.5371e-07
3315.3, 7.0239e-07
3317.3, 6.1753e-07
3319.3, 7.2883e-07
3321.3, 6.7508e-07
3323.3, 7.3263e-07
3325.3, 7.6191e-07
3327.3, 6.4552e-07
3329.3, 7.004e-07
3331.3, 6.8663e-07
3333.3, 8.1494e-07
3335.3, 8.1361e-07
3337.3, 6.2926e-07
3339.3, 7.4294e-07
3341.3, 7.0727e-07
3343.3, 6.5327e-07
3345.3, 6.8332e-07
3347.3, 7.4078e-07
3349.3, 7.6024e-07
3351.3, 7.0699e-07
3353.3, 7.0192e-07
3355.4, 7.1686e-07
3357.4, 6.2126e-07
3359.4, 7.2083e-07
3361.4, 7.0989e-07
3363.4, 8.0015e-07
3365.4, 7.2382e-07
3367.4, 6.8463e-07
3369.4, 8.0068e-07
3371.4, 7.8528e-07
3373.4, 7.35e-07
3375.4, 7.8248e-07
3377.4, 6.9488e-07
3379.4, 6.9412e-07
3381.4, 7.1269e-07
3383.4, 7.2772e-07
3385.4, 6.3064e-07
3387.4, 7.7651e-07
3389.4, 6.4261e-07
3391.4, 7.402e-07
3393.4, 8.0007e-07
3395.4, 6.7055e-07
3397.4, 7.3786e-07
3399.4, 7.3154e-07
3401.4, 7.1773e-07
3403.4, 7.598e-07
3405.4, 6.8512e-07
3407.4, 6.7156e-07
3409.4, 6.6102e-07
3411.4, 7.1827e-07
3413.4, 7.5668e-07
3415.4, 7.1839e-07
3417.4, 7.461e-07
3419.4, 8.3807e-07
3421.4, 8.0366e-07
3423.4, 6.6405e-07
3425.4, 6.7757e-07
3427.4, 6.8159e-07
3429.4, 6.5744e-07
3431.4, 7.5905e-07
3433.4, 8.1269e-07
3435.4, 8.0783e-07
3437.4, 6.878e-07
3439.4, 7.598e-07
3441.4, 7.0024e-07
3443.4, 7.0419e-07
3445.4, 6.5396e-07
3447.4, 7.0392e-07
3449.4, 7.1229e-07
3451.4, 7.4393e-07
3453.4, 6.8184e-07
3455.5, 7.0509e-07
3457.5, 7.2531e-07
3459.5, 6.4508e-07
3461.5, 7.1916e-07
3463.5, 6.9855e-07
3465.5, 7.1428e-07
3467.5, 6.6754e-07
3469.5, 7.0508e-07
3471.5, 6.8347e-07
3473.5, 7.4343e-07
3475.5, 6.7804e-07
3477.5, 6.9226e-07
3479.5, 6.9102e-07
3481.5, 6.7728e-07
3483.5, 7.1276e-07
3485.5, 7.7891e-07
3487.5, 7.3325e-07
3489.5, 7.5816e-07
3491.5, 6.7478e-07
3493.5, 7.5339e-07
3495.5, 7.4276e-07
3497.5, 8.1335e-07
3499.5, 6.9381e-07
3501.5, 7.0165e-07
3503.5, 6.9306e-07
3505.5, 7.3692e-07
3507.5, 6.9716e-07
3509.5, 7.5398e-07
3511.5, 7.0305e-07
3513.5, 7.5828e-07
3515.5, 7.4316e-07
3517.5, 7.8547e-07
3519.5, 7.9282e-07
3521.5, 7.0522e-07
3523.5, 7.4139e-07
3525.5, 7.9229e-07
3527.5, 6.8788e-07
3529.5, 7.2997e-07
3531.5, 7.7629e-07
3533.5, 7.2361e-07
3535.5, 6.9566e-07
3537.5, 8.3934e-07
3539.5, 6.9065e-07
3541.5, 7.7392e-07
3543.5, 6.7326e-07
3545.5, 6.8681e-07
3547.5, 6.7824e-07
3549.5, 7.1308e-07
3551.5, 7.0439e-07
3553.5, 7.1837e-07
3555.6, 7.3587e-07
3557.6, 7.4787e-07
3559.6, 7.0815e-07
3561.6, 8.7273e-07
3563.6, 7.3032e-07
3565.6, 7.6989e-07
3567.6, 6.9567e-07
3569.6, 7.1208e-07
3571.6, 7.2768e-07
3573.6, 7.005e-07
3575.6, 6.6363e-07
3577.6, 6.7361e-07
3579.6, 7.1533e-07
3581.6, 7.3472e-07
3583.6, 5.9716e-07
3585.6, 6.3685e-07
3587.6, 7.8407e-07
3589.6, 7.4876e-07
3591.6, 6.4158e-07
3593.6, 8.1678e-07
3595.6, 7.2111e-07
3597.6, 6.9561e-07
3599.6, 6.6997e-07
3601.6, 6.787e-07
3603.6, 8.264e-07
3605.6, 7.4946e-07
3607.6, 7.5394e-07
3609.6, 6.4032e-07
3611.6, 7.6783e-07
3613.6, 7.5161e-07
3615.6, 6.9742e-07
3617.6, 7.3472e-07
3619.6, 7.5084e-07
3621.6, 7.263e-07
3623.6, 7.7387e-07
3625.6, 7.3326e-07
3627.6, 7.2625e-07
3629.6, 6.8434e-07
3631.6, 7.6895e-07
3633.6, 7.3103e-07
3635.6, 7.8637e-07
3637.6, 7.1228e-07
3639.6, 7.2089e-07
3641.6, 7.7674e-07
3643.6, 7.7572e-07
3645.6, 8.212e-07
3647.6, 7.2677e-07
3649.6, 8.0434e-07
3651.6, 7.9837e-07
3653.6, 7.8782e-07
3655.7, 7.6805e-07
3657.7, 7.3803e-07
3659.7, 8.2595e-07
3661.7, 7.1134e-07
3663.7, 8.6355e-07
3665.7, 8.2607e-07
3667.7, 8.0217e-07
3669.7, 7.3355e-07
3671.7, 8.0628e-07
3673.7, 7.7375e-07
3675.7, 7.3228e-07
3677.7, 7.7812e-07
3679.7, 6.9203e-07
3681.7, 7.6287e-07
3683.7, 7.3689e-07
3685.7, 7.0337e-07
3687.7, 7.6962e-07
3689.7, 7.783e-07
3691.7, 7.6166e-07
3693.7, 7.6178e-07
3695.7, 7.0698e-07
3697.7, 8.2337e-07
3699.7, 7.9792e-07
3701.7, 7.5871e-07
3703.7, 7.2121e-07
3705.7, 5.9401e-07
3707.7, 6.1389e-07
3709.7, 6.8902e-07
3711.7, 7.2835e-07
3713.7, 7.8254e-07
3715.7, 7.4607e-07
3717.7, 7.0212e-07
3719.7, 7.8936e-07
3721.7, 7.0214e-07
3723.7, 8.1953e-07
3725.7, 7.6742e-07
3727.7, 7.3243e-07
3729.7, 7.0704e-07
3731.7, 7.0532e-07
3733.7, 7.0558e-07
3735.7, 7.5262e-07
3737.7, 7.5156e-07
3739.7, 8.4614e-07
3741.7, 7.2137e-07
3743.7, 6.9456e-07
3745.7, 7.2223e-07
3747.7, 7.8868e-07
3749.7, 7.9121e-07
3751.7, 7.6363e-07
3753.7, 7.1745e-07
3755.8, 6.4277e-07
3757.8, 7.0053e-07
3759.8, 7.7854e-07
3761.8, 7.6653e-07
3763.8, 7.1337e-07
3765.8, 8.7409e-07
3767.8, 7.8263e-07
3769.8, 7.2354e-07
3771.8, 7.8674e-07
3773.8, 6.9689e-07
3775.8, 7.2317e-07
3777.8, 7.1898e-07
3779.8, 6.929e-07
3781.8, 7.4149e-07
3783.8, 7.6013e-07
3785.8, 6.7178e-07
3787.8, 7.9385e-07
3789.8, 7.7063e-07
3791.8, 7.7519e-07
3793.8, 7.2251e-07
3795.8, 7.0577e-07
3797.8, 7.3064e-07
3799.8, 7.6964e-07
3801.8, 6.8569e-07
3803.8, 8.3277e-07
3805.8, 7.6277e-07
3807.8, 6.904e-07
3809.8, 7.7056e-07
3811.8, 7.9493e-07
3813.8, 7.3708e-07
3815.8, 7.3227e-07
3817.8, 7.6229e-07
3819.8, 7.3111e-07
3821.8, 7.8603e-07
3823.8, 7.9848e-07
3825.8, 7.9209e-07
3827.8, 8.588e-07
3829.8, 7.0482e-07
3831.8, 7.1832e-07
3833.8, 7.0648e-07
3835.8, 7.6501e-07
3837.8, 7.2536e-07
3839.8, 8.3975e-07
3841.8, 7.4852e-07
3843.8, 7.5177e-07
3845.8, 7.5001e-07
3847.8, 6.9194e-07
3849.8, 7.1986e-07
3851.8, 7.7182e-07
3853.8, 6.8683e-07
3855.9, 7.158e-07
3857.9, 7.4515e-07
3859.9, 7.3532e-07
3861.9, 6.8578e-07
3863.9, 7.4558e-07
3865.9, 7.2121e-07
3867.9, 8.0182e-07
3869.9, 7.152e-07
3871.9, 8.0064e-07
3873.9, 7.6691e-07
3875.9, 6.9282e-07
3877.9, 7.5974e-07
3879.9, 7.4246e-07
3881.9, 6.2151e-07
3883.9, 7.4998e-07
3885.9, 6.8974e-07
3887.9, 7.5172e-07
3889.9, 7.2104e-07
3891.9, 7.5606e-07
3893.9, 8.0764e-07
3895.9, 7.5475e-07
3897.9, 7.7348e-07
3899.9, 7.7413e-07
3901.9, 8.0765e-07
3903.9, 6.9433e-07
3905.9, 7.1957e-07
3907.9, 7.6861e-07
3909.9, 7.1536e-07
3911.9, 7.8048e-07
3913.9, 7.6742e-07
3915.9, 7.2127e-07
3917.9, 7.8872e-07
3919.9, 7.9162e-07
3921.9, 7.2154e-07
3923.9, 7.258e-07
3925.9, 7.2281e-07
3927.9, 6.7654e-07
3929.9, 7.1935e-07
3931.9, 7.779e-07
3933.9, 8.0036e-07
3935.9, 7.5518e-07
3937.9, 7.0828e-07
3939.9, 7.8009e-07
3941.9, 7.6052e-07
3943.9, 7.4666e-07
3945.9, 6.9631e-07
3947.9, 7.3676e-07
3949.9, 7.7004e-07
3951.9, 8.2387e-07
3953.9, 7.3426e-07
3956.0, 7.46e-07
3958.0, 7.9693e-07
3960.0, 8.0585e-07
3962.0, 6.8735e-07
3964.0, 8.2954e-07
3966.0, 7.938e-07
3968.0, 7.3839e-07
3970.0, 7.1201e-07
3972.0, 6.5654e-07
3974.0, 7.4347e-07
3976.0, 7.1835e-07
3978.0, 6.4924e-07
3980.0, 6.3084e-07
3982.0, 8.0064e-07
3984.0, 7.0845e-07
3986.0, 7.7525e-07
3988.0, 6.5098e-07
3990.0, 7.7272e-07
3992.0, 7.6524e-07
3994.0, 7.1717e-07
3996.0, 6.6899e-07
3998.0, 7.1753e-07
4000.0, 7.3085e-07
4002.0, 7.7896e-07
4004.0, 7.0415e-07
4006.0, 7.7504e-07
4008.0, 6.7261e-07
4010.0, 7.4679e-07
4012.0, 7.297e-07
4014.0, 7.5122e-07
4016.0, 7.1264e-07
4018.0, 7.3619e-07
4020.0, 7.4498e-07
4022.0, 7.4955e-07
4024.0, 7.8489e-07
4026.0, 7.7351e-07
4028.0, 7.3244e-07
4030.0, 7.5406e-07
4032.0, 7.0241e-07
4034.0, 7.8006e-07
4036.0, 7.6689e-07
4038.0, 7.4625e-07
4040.0, 8.2424e-07
4042.0, 6.882e-07
4044.0, 8.1609e-07
4046.0, 7.3913e-07
4048.0, 8.4552e-07
4050.0, 7.3466e-07
4052.0, 6.7582e-07
4054.0, 7.7073e-07
4056.1, 8.1418e-07
4058.1, 7.7114e-07
4060.1, 7.3773e-07
4062.1, 7.2339e-07
4064.1, 7.803e-07
4066.1, 8.0786e-07
4068.1, 7.4493e-07
4070.1, 8.2417e-07
4072.1, 3.4282e-07
4074.1, -2.654e-08
4076.1, -3.251e-08
4078.1, -2.687e-08
4080.1, -2.793e-08
4082.1, -2.738e-08
4084.1, -2.742e-08
4086.1, -2.66e-08
4088.1, -2.986e-08
4090.1, -3.052e-08
4092.1, -2.782e-08
4094.1, -3.043e-08
4096.1, -2.971e-08
4098.1, -2.67e-08
4100.1, -2.693e-08
4102.1, -2.714e-08
4104.1, -2.934e-08
4106.1, -2.723e-08
4108.1, -2.846e-08
4110.1, -3.171e-08
4112.1, -3.15e-08
4114.1, -3.224e-08
4116.1, -2.872e-08
4118.1, -3.003e-08
4120.1, -2.815e-08
4122.1, -2.637e-08
4124.1, -2.772e-08
4126.1, -2.968e-08
4128.1, -2.71e-08
4130.1, -2.597e-08
4132.1, -2.877e-08
4134.1, -2.681e-08
4136.1, -3.099e-08
4138.1, -2.801e-08
4140.1, -2.77e-08
4142.1, -2.815e-08
4144.1, -2.964e-08
4146.1, -3.003e-08
4148.1, -3.095e-08
4150.1, -2.826e-08
4152.1, -2.881e-08
4154.1, -2.901e-08
4156.2, -2.851e-08
4158.2, -2.99e-08
4160.2, -2.83e-08
4162.2, -2.946e-08
4164.2, -2.778e-08
4166.2, -2.485e-08
4168.2, -3.264e-08
4170.2, -3.112e-08
4172.2, -2.882e-08
4174.2, -3.102e-08
4176.2, -3.036e-08
4178.2, -3.094e-08
4180.2, -3.142e-08
4182.2, -3.301e-08
4184.2, -3.169e-08
4186.2, -3.2e-08
4188.2, -2.772e-08
4190.2, -3.317e-08
4192.2, -2.883e-08
4194.2, -3.011e-08
4196.2, -3.016e-08
4198.2, -3.307e-08
4200.2, -2.801e-08
4202.2, -3.27e-08
4204.2, -2.861e-08
4206.2, -3.002e-08
4208.2, -2.915e-08
4210.2, -3.074e-08
4212.2, -3.129e-08
4214.2, -3.325e-08
4216.2, -3.158e-08
4218.2, -3.001e-08
4220.2, -3.193e-08
4222.2, -3.058e-08
4224.2, -3.125e-08
4226.2, -3.317e-08
4228.2, -3.401e-08
4230.2, -3.201e-08
4232.2, -2.968e-08
4234.2, -2.7e-08
4236.2, -2.944e-08
4238.2, -2.745e-08
4240.2, -3.066e-08
4242.2, -3.18e-08
4244.2, -3.089e-08
4246.2, -3.035e-08
4248.2, -3.491e-08
4250.2, -3.247e-08
4252.2, -2.924e-08
4254.2, -2.874e-08
4256.3, -3.065e-08
4258.3, -2.965e-08
4260.3, -2.903e-08
4262.3, -2.649e-08
4264.3, -2.56e-08
4266.3, -3.272e-08
4268.3, -3.206e-08
4270.3, -3.046e-08
4272.3, -2.866e-08
4274.3, -3.017e-08
4276.3, -2.844e-08
4278.3, -2.995e-08
4280.3, -3.423e-08
4282.3, -3.261e-08
4284.3, -3.104e-08
4286.3, -3.192e-08
4288.3, -3.029e-08
4290.3, -3.307e-08
4292.3, -3.131e-08
4294.3, -3.166e-08
4296.3, -3.024e-08
4298.3, -3.04e-08
4300.3, -3.252e-08
4302.3, -2.866e-08
4304.3, -3.085e-08
4306.3, -2.67e-08
4308.3, -2.756e-08
4310.3, -2.58e-08
4312.3, -2.528e-08
4314.3, -2.374e-08
4316.3, -2.816e-08
4318.3, -3.263e-08
4320.3, -3.108e-08
4322.3, -2.865e-08
4324.3, -2.851e-08
4326.3, -2.804e-08
4328.3, -2.891e-08
4330.3, -2.821e-08
4332.3, -3.14e-08
4334.3, -2.965e-08
4336.3, -3.25e-08
4338.3, -2.765e-08
4340.3, -2.827e-08
4342.3, -2.916e-08
4344.3, -2.785e-08
4346.3, -3.125e-08
4348.3, -3.17e-08
4350.3, -3.323e-08
4352.3, -3.11e-08
4354.3, -3.134e-08
4356.4, -2.985e-08
4358.4, -3.346e-08
4360.4, -3.729e-08
4362.4, -3.178e-08
4364.4, -3.274e-08
4366.4, -2.867e-08
4368.4, -3.191e-08
4370.4, -2.863e-08
4372.4, -3.111e-08
4374.4, -3.323e-08
4376.4, -3.31e-08
4378.4, -3.455e-08
4380.4, -3.288e-08
4382.4, -3.405e-08
4384.4, -3.101e-08
4386.4, -3.09e-08
4388.4, -3.363e-08
4390.4, -3.201e-08
4392.4, -3.188e-08
4394.4, -3.144e-08
4396.4, -3.201e-08
4398.4, -2.952e-08
4400.4, -3.037e-08
4402.4, -3.142e-08
4404.4, -2.796e-08
4406.4, -2.638e-08
4408.4, -2.882e-08
4410.4, -3.082e-08
4412.4, -3.006e-08
4414.4, -2.858e-08
4416.4, -3.111e-08
4418.4, -3.165e-08
4420.4, -3.307e-08
4422.4, -3.41e-08
4424.4, -3.181e-08
4426.4, -3.364e-08
4428.4, -3.397e-08
4430.4, -3.103e-08
4432.4, -3.272e-08
4434.4, -3.199e-08
4436.4, -2.986e-08
4438.4, -3.058e-08
4440.4, -3.385e-08
4442.4, -2.915e-08
4444.4, -3.138e-08
4446.4, -3.085e-08
4448.4, -3.367e-08
4450.4, -3.073e-08
4452.4, -3.22e-08
4454.4, -2.792e-08
4456.5, -3.302e-08
4458.5, -2.911e-08
4460.5, -3.011e-08
4462.5, -2.781e-08
4464.5, -2.94e-08
4466.5, -2.998e-08
4468.5, -3.095e-08
4470.5, -2.98e-08
4472.5, -3.191e-08
4474.5, -3.112e-08
4476.5, -3.217e-08
4478.5, -3.264e-08
4480.5, -3.195e-08
4482.5, -3.557e-08
4484.5, -3.522e-08
4486.5, -3.382e-08
4488.5, -3.253e-08
4490.5, -3.25e-08
4492.5, -3.457e-08
4494.5, -2.89e-08
4496.5, -3.078e-08
4498.5, -3.425e-08
4500.5, -3.382e-08
4502.5, -3.042e-08
4504.5, -2.769e-08
4506.5, -2.981e-08
4508.5, -3.175e-08
4510.5, -2.695e-08
4512.5, -3.245e-08
4514.5, -2.942e-08
4516.5, -3.353e-08
4518.5, -3.238e-08
4520.5, -3.367e-08
4522.5, -3.042e-08
4524.5, -3.216e-08
4526.5, -3.103e-08
4528.5, -3.339e-08
4530.5, -3.456e-08
4532.5, -3.239e-08
4534.5, -2.889e-08
4536.5, -3.249e-08
4538.5, -3.265e-08
4540.5, -3.211e-08
4542.5, -3.035e-08
4544.5, -2.701e-08
4546.5, -3.21e-08
4548.5, -3.028e-08
4550.5, -3.491e-08
4552.5, -3.191e-08
4554.5, -3.377e-08
4556.6, -3.34e-08
4558.6, -3.152e-08
4560.6, -3.345e-08
4562.6, -3.024e-08
4564.6, -3.219e-08
4566.6, -3.099e-08
4568.6, -3.049e-08
4570.6, -3.783e-08
4572.6, -3.427e-08
4574.6, -3.124e-08
4576.6, -2.921e-08
4578.6, -3.06e-08
4580.6, -2.959e-08
4582.6, -3.062e-08
4584.6, -3.052e-08
4586.6, -3.087e-08
4588.6, -2.828e-08
4590.6, -3.128e-08
4592.6, -3.028e-08
4594.6, -3.053e-08
4596.6, -3.139e-08
4598.6, -3.241e-08
4600.6, -3.008e-08
4602.6, -2.986e-08
4604.6, -2.617e-08
4606.6, -2.507e-08
4608.6, -2.655e-08
4610.6, -2.634e-08
4612.6, -3.158e-08
4614.6, -2.916e-08
4616.6, -3.346e-08
4618.6, -3.222e-08
4620.6, -3.257e-08
4622.6, -3.059e-08
4624.6, -2.852e-08
4626.6, -3.092e-08
4628.6, -3.254e-08
4630.6, -3.085e-08
4632.6, -3.078e-08
4634.6, -3.144e-08
4636.6, -3.059e-08
4638.6, -2.639e-08
4640.6, -2.828e-08
4642.6, -2.976e-08
4644.6, -2.654e-08
4646.6, -2.93e-08
4648.6, -2.986e-08
4650.6, -2.902e-08
4652.6, -2.866e-08
4654.6, -3.077e-08
4656.7, -2.988e-08
4658.7, -2.856e-08
4660.7, -2.692e-08
4662.7, -3.309e-08
4664.7, -3.181e-08
4666.7, -3.263e-08
4668.7, -3.173e-08
4670.7, -2.853e-08
4672.7, -2.647e-08
4674.7, -2.677e-08
4676.7, -2.678e-08
4678.7, -2.836e-08
4680.7, -2.924e-08
4682.7, -2.914e-08
4684.7, -2.734e-08
4686.7, -2.807e-08
4688.7, -3e-08
4690.7, -3.1e-08
4692.7, -2.811e-08
4694.7, -3.11e-08
4696.7, -3.037e-08
4698.7, -3.185e-08
4700.7, -2.983e-08
4702.7, -3.171e-08
4704.7, -3.071e-08
4706.7, -3.373e-08
4708.7, -3.234e-08
4710.7, -3.222e-08
4712.7, -3.109e-08
4714.7, -2.878e-08
4716.7, -3.22e-08
4718.7, -3.375e-08
4720.7, -3.3e-08
4722.7, -3.16e-08
4724.7, -3.139e-08
4726.7, -2.914e-08
4728.7, -3.004e-08
4730.7, -3.153e-08
4732.7, -3.26e-08
4734.7, -3.102e-08
4736.7, -3.122e-08
4738.7, -2.925e-08
4740.7, -3.23e-08
4742.7, -3.085e-08
4744.7, -2.955e-08
4746.7, -2.863e-08
4748.7, -3.067e-08
4750.7, -3.331e-08
4752.7, -3.059e-08
4754.7, -2.907e-08
4756.8, -3.638e-08
4758.8, -3.145e-08
4760.8, -3.246e-08
4762.8, -3.498e-08
4764.8, -3.123e-08
4766.8, -3.357e-08
4768.8, -3.185e-08
4770.8, -2.934e-08
4772.8, -3.2e-08
4774.8, -3.094e-08
4776.8, -3.315e-08
4778.8, -3.178e-08
4780.8, -3.184e-08
4782.8, -3.029e-08
4784.8, -2.805e-08
4786.8, -2.751e-08
4788.8, -2.798e-08
4790.8, -3.073e-08
4792.8, -2.885e-08
4794.8, -2.855e-08
4796.8, -2.84e-08
4798.8, -2.868e-08
4800.8, -2.786e-08
4802.8, -2.805e-08
4804.8, -2.883e-08
4806.8, -3.322e-08
4808.8, -3.216e-08
4810.8, -3.206e-08
4812.8, -2.968e-08
4814.8, -3.015e-08
4816.8, -3.372e-08
4818.8, -2.859e-08
4820.8, -3.67e-08
4822.8, -2.924e-08
4824.8, -3.112e-08
4826.8, -3.117e-08
4828.8, -3.455e-08
4830.8, -3.026e-08
4832.8, -3.606e-08
4834.8, -2.763e-08
4836.8, -3.073e-08
4838.8, -2.93e-08
4840.8, -2.675e-08
4842.8, -2.551e-08
4844.8, -2.721e-08
4846.8, -2.661e-08
4848.8, -2.863e-08
4850.8, -2.987e-08
4852.8, -2.577e-08
4854.8, -2.634e-08
4856.9, -2.484e-08
4858.9, -2.621e-08
4860.9, -2.609e-08
4862.9, -2.844e-08
4864.9, -2.389e-08
4866.9, -2.253e-08
4868.9, -2.574e-08
4870.9, -2.573e-08
4872.9, -2.623e-08
4874.9, -2.746e-08
4876.9, -2.759e-08
4878.9, -2.964e-08
4880.9, -2.734e-08
4882.9, -2.826e-08
4884.9, -2.868e-08
4886.9, -2.588e-08
4888.9, -3.241e-08
4890.9, -3.053e-08
4892.9, -3.123e-08
4894.9, -2.86e-08
4896.9, -2.975e-08
4898.9, -3.375e-08
4900.9, -2.61e-08
4902.9, -2.535e-08
4904.9, -2.889e-08
4906.9, -2.343e-08
4908.9, -2.965e-08
4910.9, -3.039e-08
4912.9, -2.947e-08
4914.9, -2.681e-08
4916.9, -2.329e-08
4918.9, -2.722e-08
4920.9, -2.911e-08
4922.9, -3.341e-08
4924.9, -3.061e-08
4926.9, -2.831e-08
4928.9, -2.872e-08
4930.9, -3.063e-08
4932.9, -3.093e-08
4934.9, -2.718e-08
4936.9, -2.788e-08
4938.9, -2.554e-08
4940.9, -2.607e-08
4942.9, -2.463e-08
4944.9, -2.855e-08
4946.9, -3.049e-08
4948.9, -3.216e-08
4950.9, -2.87e-08
4952.9, -2.871e-08
4954.9, -2.701e-08
4957.0, -3.002e-08
4959.0, -2.605e-08
4961.0, -2.78e-08
4963.0, -2.512e-08
4965.0, -2.745e-08
4967.0, -2.931e-08
4969.0, -2.637e-08
4971.0, -2.917e-08
4973.0, -2.729e-08
4975.0, -2.778e-08
4977.0, -2.406e-08
4979.0, -2.622e-08
4981.0, -2.784e-08
4983.0, -2.473e-08
4985.0, -2.927e-08
4987.0, -2.793e-08
4989.0, -2.59e-08
4991.0, -2.628e-08
4993.0, -2.783e-08
4995.0, -2.397e-08
4997.0, -2.651e-08
4999.0, -2.894e-08
5001.0, -2.892e-08
5003.0, -3.142e-08
5005.0, -2.971e-08
5007.0, -3.013e-08
5009.0, -2.475e-08
5011.0, -2.965e-08
5013.0, -2.758e-08
5015.0, -2.894e-08
5017.0, -3.059e-08
5019.0, -2.929e-08
5021.0, -2.817e-08
5023.0, -2.996e-08
5025.0, -3.045e-08
5027.0, -3.181e-08
5029.0, -2.776e-08
5031.0, -2.65e-08
5033.0, -2.748e-08
5035.0, -2.562e-08
5037.0, -2.791e-08
5039.0, -3.111e-08
5041.0, -3.116e-08
5043.0, -2.887e-08
5045.0, -2.972e-08
5047.0, -3.066e-08
5049.0, -3.068e-08
5051.0, -3.129e-08
5053.0, -3.009e-08
5055.0, -3.277e-08
5057.1, -2.855e-08
5059.1, -3.277e-08
5061.1, -2.727e-08
5063.1, -3.313e-08
5065.1, -3.45e-08
5067.1, -3.362e-08
5069.1, -2.851e-08
5071.1, -3.045e-08
5073.1, -3.031e-08
5075.1, -3.106e-08
5077.1, -2.728e-08
5079.1, -2.73e-08
5081.1, -2.899e-08
5083.1, -2.97e-08
5085.1, -2.657e-08
5087.1, -2.997e-08
5089.1, -2.674e-08
5091.1, -2.759e-08
5093.1, -3.048e-08
5095.1, -2.842e-08
5097.1, -2.76e-08
5099.1, -3.092e-08
5101.1, -3.001e-08
5103.1, -2.386e-08
5105.1, -2.669e-08
5107.1, -2.845e-08
5109.1, -2.626e-08
5111.1, -2.619e-08
5113.1, -2.86e-08
5115.1, -2.809e-08
5117.1, -2.852e-08
5119.1, 3.5445e-07
5121.1, 5.8791e-07
5123.1, 6.4408e-07
5125.1, 6.4352e-07
5127.1, 5.6509e-07
5129.1, 5.9136e-07
5131.1, 6.1149e-07
5133.1, 6.4028e-07
5135.1, 7.2313e-07
5137.1, 5.8882e-07
5139.1, 6.3096e-07
5141.1, 5.7383e-07
5143.1, 6.2752e-07
5145.1, 6.8967e-07
5147.1, 6.9464e-07
5149.1, 6.5031e-07
5151.1, 7.1831e-07
5153.1, 6.0726e-07
5155.1, 6.1477e-07
5157.2, 5.9148e-07
5159.2, 6.1883e-07
5161.2, 7.1516e-07
5163.2, 6.5243e-07
5165.2, 7.1444e-07
5167.2, 6.6768e-07
5169.2, 7.476e-07
5171.2, 5.6323e-07
5173.2, 6.4627e-07
5175.2, 6.48e-07
5177.2, 6.6279e-07
5179.2, 6.783e-07
5181.2, 6.785e-07
5183.2, 6.4089e-07
5185.2, 6.2963e-07
5187.2, 6.7345e-07
5189.2, 6.9738e-07
5191.2, 6.4566e-07
5193.2, 6.8522e-07
5195.2, 6.7833e-07
5197.2, 5.9408e-07
5199.2, 5.7439e-07
5201.2, 6.2085e-07
5203.2, 6.4478e-07
5205.2, 6.2914e-07
5207.2, 6.472e-07
5209.2, 6.5473e-07
5211.2, 6.7687e-07
5213.2, 5.6772e-07
5215.2, 7.0351e-07
5217.2, 6.0092e-07
5219.2, 6.5466e-07
5221.2, 7.0094e-07
5223.2, 7.1332e-07
5225.2, 6.2109e-07
5227.2, 7.2157e-07
5229.2, 6.2708e-07
5231.2, 6.8343e-07
5233.2, 6.2575e-07
5235.2, 6.5803e-07
5237.2, 6.2822e-07
5239.2, 6.882e-07
5241.2, 7.4363e-07
5243.2, 6.9438e-07
5245.2, 6.5352e-07
5247.2, 6.1163e-07
5249.2, 5.8527e-07
5251.2, 6.5098e-07
5253.2, 5.9885e-07
5255.2, 6.0691e-07
5257.3, 5.9404e-07
5259.3, 7.0442e-07
5261.3, 6.8354e-07
5263.3, 6.6939e-07
5265.3, 6.5988e-07
5267.3, 5.3442e-07
5269.3, 5.416e-07
5271.3, 6.1847e-07
5273.3, 7.3958e-07
5275.3, 7.5482e-07
5277.3, 6.2386e-07
5279.3, 6.5684e-07
5281.3, 6.6065e-07
5283.3, 6.7443e-07
5285.3, 7.3289e-07
5287.3, 6.7761e-07
5289.3, 6.4637e-07
5291.3, 6.6158e-07
5293.3, 7.0036e-07
5295.3, 7.7416e-07
5297.3, 7.2607e-07
5299.3, 7.1556e-07
5301.3, 6.4631e-07
5303.3, 6.6858e-07
5305.3, 6.1027e-07
5307.3, 7.0576e-07
5309.3, 6.6522e-07
5311.3, 5.7517e-07
5313.3, 6.6706e-07
5315.3, 6.2996e-07
5317.3, 7.4383e-07
5319.3, 6.7934e-07
5321.3, 6.5794e-07
5323.3, 6.7911e-07
5325.3, 6.8299e-07
5327.3, 7.1948e-07
5329.3, 6.8355e-07
5331.3, 7.6622e-07
5333.3, 6.2017e-07
5335.3, 6.3841e-07
5337.3, 6.2397e-07
5339.3, 6.6518e-07
5341.3, 6.5759e-07
5343.3, 7.4935e-07
5345.3, 7.1421e-07
5347.3, 6.4827e-07
5349.3, 6.7173e-07
5351.3, 6.8251e-07
5353.3, 7.7161e-07
5355.3, 7.209e-07
5357.4, 6.5637e-07
5359.4, 6.1268e-07
5361.4, 6.9087e-07
5363.4, 7.1139e-07
5365.4, 7.7519e-07
5367.4, 7.4405e-07
5369.4, 6.606e-07
5371.4, 7.0075e-07
5373.4, 7.3969e-07
5375.4, 6.6308e-07
5377.4, 7.4084e-07
5379.4, 6.8718e-07
5381.4, 6.6529e-07
5383.4, 7.134e-07
5385.4, 7.2568e-07
5387.4, 6.4396e-07
5389.4, 6.642e-07
5391.4, 7.2242e-07
5393.4, 6.4731e-07
5395.4, 6.3856e-07
5397.4, 7.5304e-07
5399.4, 6.8447e-07
5401.4, 6.0168e-07
5403.4, 5.9193e-07
5405.4, 6.5752e-07
5407.4, 8.2421e-07
5409.4, 6.4275e-07
5411.4, 6.5334e-07
5413.4, 7.361e-07
5415.4, 6.5868e-07
5417.4, 6.9192e-07
5419.4, 7.3206e-07
5421.4, 6.4757e-07
5423.4, 7.1571e-07
5425.4, 6.9674e-07
5427.4, 7.5172e-07
5429.4, 7.3652e-07
5431.4, 8.0427e-07
5433.4, 7.4251e-07
5435.4, 7.3139e-07
5437.4, 7.3124e-07
5439.4, 7.3269e-07
5441.4, 6.7042e-07
5443.4, 7.4123e-07
5445.4, 6.9999e-07
5447.4, 6.852e-07
5449.4, 6.6655e-07
5451.4, 6.4232e-07
5453.4, 6.3962e-07
5455.4, 7.0024e-07
5457.5, 7.4002e-07
5459.5, 7.2447e-07
5461.5, 7.0605e-07
5463.5, 6.3947e-07
5465.5, 7.1771e-07
5467.5, 6.9732e-07
5469.5, 6.7131e-07
5471.5, 7.4263e-07
5473.5, 6.9517e-07
5475.5, 7.0483e-07
5477.5, 6.4749e-07
5479.5, 7.6955e-07
5481.5, 7.775e-07
5483.5, 6.8799e-07
5485.5, 6.0489e-07
5487.5, 6.7125e-07
5489.5, 7.1532e-07
5491.5, 7.8475e-07
5493.5, 6.9208e-07
5495.5, 6.2785e-07
5497.5, 7.4986e-07
5499.5, 7.2238e-07
5501.5, 7.2491e-07
5503.5, 7.0194e-07
5505.5, 7.2964e-07
5507.5, 7.9726e-07
5509.5, 7.7513e-07
5511.5, 6.5095e-07
5513.5, 7.1183e-07
5515.5, 7.198e-07
5517.5, 7.4489e-07
5519.5, 7.3686e-07
5521.5, 7.4011e-07
5523.5, 6.831e-07
5525.5, 7.9345e-07
5527.5, 7.4491e-07
5529.5, 7.4187e-07
5531.5, 7.4e-07
5533.5, 7.2284e-07
5535.5, 7.1314e-07
5537.5, 7.2814e-07
5539.5, 8.076e-07
5541.5, 7.0053e-07
5543.5, 6.8121e-07
5545.5, 8.1858e-07
5547.5, 8.0517e-07
5549.5, 7.5458e-07
5551.5, 7.9078e-07
5553.5, 7.0501e-07
5555.5, 7.4082e-07
5557.6, 6.1249e-07
5559.6, 6.6744e-07
5561.6, 7.0887e-07
5563.6, 6.8753e-07
5565.6, 7.4105e-07
5567.6, 7.422e-07
5569.6, 6.7983e-07
5571.6, 6.5817e-07
5573.6, 7.5525e-07
5575.6, 7.6905e-07
5577.6, 6.8871e-07
5579.6, 7.6478e-07
5581.6, 7.2314e-07
5583.6, 6.6907e-07
5585.6, 7.4541e-07
5587.6, 7.44e-07
5589.6, 7.2221e-07
5591.6, 7.537e-07
5593.6, 7.3911e-07
5595.6, 7.773e-07
5597.6, 7.2186e-07
5599.6, 7.0304e-07
5601.6, 6.8702e-07
5603.6, 7.5396e-07
5605.6, 7.3368e-07
5607.6, 7.0783e-07
5609.6, 7.5633e-07
5611.6, 7.3801e-07
5613.6, 7.2825e-07
5615.6, 7.3518e-07
5617.6, 6.5021e-07
5619.6, 6.896e-07
5621.6, 7.5115e-07
5623.6, 7.4074e-07
5625.6, 7.2652e-07
5627.6, 7.6494e-07
5629.6, 7.0466e-07
5631.6, 6.972e-07
5633.6, 7.2527e-07
5635.6, 7.2627e-07
5637.6, 6.8178e-07
5639.6, 7.5776e-07
5641.6, 8.1285e-07
5643.6, 7.3299e-07
5645.6, 7.3935e-07
5647.6, 7.5445e-07
5649.6, 7.1238e-07
5651.6, 7.3905e-07
5653.6, 6.7864e-07
5655.6, 7.0744e-07
5657.7, 7.4153e-07
5659.7, 7.9314e-07
5661.7, 7.0272e-07
5663.7, 7.2659e-07
5665.7, 7.9106e-07
5667.7, 7.2581e-07
5669.7, 7.6443e-07
5671.7, 7.341e-07
5673.7, 7.2058e-07
5675.7, 7.9855e-07
5677.7, 7.1081e-07
5679.7, 6.6286e-07
5681.7, 7.7408e-07
5683.7, 7.3252e-07
5685.7, 6.9606e-07
5687.7, 7.2428e-07
5689.7, 6.6067e-07
5691.7, 6.8427e-07
5693.7, 7.3933e-07
5695.7, 6.6077e-07
5697.7, 6.4569e-07
5699.7, 6.6021e-07
5701.7, 6.8579e-07
5703.7, 7.2702e-07
5705.7, 7.4567e-07
5707.7, 7.846e-07
5709.7, 7.1468e-07
5711.7, 7.3825e-07
5713.7, 7.0242e-07
5715.7, 6.8256e-07
5717.7, 7.225e-07
5719.7, 7.1473e-07
5721.7, 7.6177e-07
5723.7, 7.2539e-07
5725.7, 7.9098e-07
5727.7, 7.1745e-07
5729.7, 7.6049e-07
5731.7, 6.5699e-07
5733.7, 6.7132e-07
5735.7, 7.2325e-07
5737.7, 7.1446e-07
5739.7, 7.2243e-07
5741.7, 7.655e-07
5743.7, 7.3195e-07
5745.7, 6.9451e-07
5747.7, 7.395e-07
5749.7, 7.784e-07
5751.7, 7.8051e-07
5753.7, 7.5094e-07
5755.7, 7.8401e-07
5757.8, 7.1411e-07
5759.8, 7.166e-07
5761.8, 7.1872e-07
5763.8, 7.0555e-07
5765.8, 7.2916e-07
5767.8, 7.4469e-07
5769.8, 7.2381e-07
5771.8, 7.1594e-07
5773.8, 7.569e-07
5775.8, 8.0466e-07
5777.8, 7.3868e-07
5779.8, 6.9929e-07
5781.8, 7.8254e-07
5783.8, 6.8754e-07
5785.8, 6.6552e-07
5787.8, 6.8338e-07
5789.8, 6.5131e-07
5791.8, 7.0643e-07
5793.8, 7.4068e-07
5795.8, 7.5096e-07
5797.8, 6.8521e-07
5799.8, 7.1435e-07
5801.8, 6.8926e-07
5803.8, 6.9184e-07
5805.8, 6.9091e-07
5807.8, 7.283e-07
5809.8, 7.4158e-07
5811.8, 6.6549e-07
5813.8, 7.2253e-07
5815.8, 7.7321e-07
5817.8, 7.2795e-07
5819.8, 7.5154e-07
5821.8, 7.8223e-07
5823.8, 7.5972e-07
5825.8, 8.4313e-07
5827.8, 7.2277e-07
5829.8, 7.3688e-07
5831.8, 7.2805e-07
5833.8, 8.1927e-07
5835.8, 7.6353e-07
5837.8, 7.4206e-07
5839.8, 7.6186e-07
5841.8, 7.6888e-07
5843.8, 7.7001e-07
5845.8, 7.6608e-07
5847.8, 7.3541e-07
5849.8, 7.4209e-07
5851.8, 7.1489e-07
5853.8, 7.5786e-07
5855.8, 7.3226e-07
5857.9, 7.2979e-07
5859.9, 6.9918e-07
5861.9, 7.1389e-07
5863.9, 7.4315e-07
5865.9, 8.1533e-07
5867.9, 6.9625e-07
5869.9, 6.8778e-07
5871.9, 7.4112e-07
5873.9, 6.692e-07
5875.9, 7.3483e-07
5877.9, 6.821e-07
5879.9, 6.8968e-07
5881.9, 6.6535e-07
5883.9, 7.1087e-07
5885.9, 6.8881e-07
5887.9, 6.7101e-07
5889.9, 6.8065e-07
5891.9, 7.2443e-07
5893.9, 7.294e-07
5895.9, 7.6592e-07
5897.9, 7.2523e-07
5899.9, 7.5491e-07
5901.9, 7.417e-07
5903.9, 7.0612e-07
5905.9, 7.3728e-07
5907.9, 7.2441e-07
5909.9, 6.5837e-07
5911.9, 6.6118e-07
5913.9, 6.6513e-07
5915.9, 7.5518e-07
5917.9, 7.3257e-07
5919.9, 6.7185e-07
5921.9, 7.4314e-07
5923.9, 7.7687e-07
5925.9, 7.8575e-07
5927.9, 7.3591e-07
5929.9, 7.3217e-07
5931.9, 7.1767e-07
5933.9, 7.4964e-07
5935.9, 8.1732e-07
5937.9, 7.7247e-07
5939.9, 6.9994e-07
5941.9, 7.0589e-07
5943.9, 6.6545e-07
5945.9, 7.21e-07
5947.9, 6.9756e-07
5949.9, 7.1668e-07
5951.9, 7.2549e-07
5953.9, 7.8405e-07
5955.9, 7.7761e-07
5958.0, 7.1652e-07
5960.0, 7.2151e-07
5962.0, 7.3548e-07
5964.0, 6.9126e-07
5966.0, 7.3015e-07
5968.0, 7.6164e-07
5970.0, 7.4388e-07
5972.0, 7.4073e-07
5974.0, 6.6883e-07
5976.0, 6.5215e-07
5978.0, 7.4161e-07
5980.0, 8.1251e-07
5982.0, 6.9169e-07
5984.0, 7.4822e-07
5986.0, 7.345e-07
5988.0, 7.0075e-07
5990.0, 7.3554e-07
5992.0, 6.7258e-07
5994.0, 7.0736e-07
5996.0, 6.9887e-07
5998.0, 8.1309e-07
6000.0, 7.107e-07
6002.0, 6.2503e-07
6004.0, 7.045e-07
6006.0, 7.87e-07
6008.0, 8.149e-07
6010.0, 7.3386e-07
6012.0, 7.2174e-07
6014.0, 7.318e-07
6016.0, 8.2971e-07
6018.0, 7.2194e-07
6020.0, 7.9324e-07
6022.0, 7.313e-07
6024.0, 7.6878e-07
6026.0, 7.225e-07
6028.0, 7.8512e-07
6030.0, 7.1251e-07
6032.0, 6.9548e-07
6034.0, 7.3531e-07
6036.0, 7.4467e-07
6038.0, 7.4414e-07
6040.0, 8.0121e-07
6042.0, 7.2165e-07
6044.0, 7.1293e-07
6046.0, 7.6113e-07
6048.0, 7.0682e-07
6050.0, 7.826e-07
6052.0, 7.4985e-07
6054.0, 7.2678e-07
6056.0, 6.5653e-07
6058.1, 7.2838e-07
6060.1, 7.4655e-07
6062.1, 8.3769e-07
6064.1, 7.5465e-07
6066.1, 8.1059e-07
6068.1, 7.436e-07
6070.1, 8.22e-07
6072.1, 7.355e-07
6074.1, 7.4535e-07
6076.1, 7.667e-07
6078.1, 7.7533e-07
6080.1, 7.7048e-07
6082.1, 8.2535e-07
6084.1, 6.8356e-07
6086.1, 7.6511e-07
6088.1, 6.3605e-07
6090.1, 7.016e-07
6092.1, 7.1752e-07
6094.1, 8.3869e-07
6096.1, 6.601e-07
6098.1, 6.7667e-07
6100.1, 8.1167e-07
6102.1, 7.736e-07
6104.1, 7.6894e-07
6106.1, 7.0384e-07
6108.1, 7.4036e-07
6110.1, 7.5838e-07
6112.1, 7.0238e-07
6114.1, 7.2326e-07
6116.1, 7.222e-07
6118.1, 7.3266e-07
6120.1, 1.4144e-07
6122.1, -3.106e-08
6124.1, -3.348e-08
6126.1, -3.045e-08
6128.1, -3.542e-08
6130.1, -3.157e-08
6132.1, -3.223e-08
6134.1, -3.142e-08
6136.1, -3.072e-08
6138.1, -3.113e-08
6140.1, -2.861e-08
6142.1, -3.081e-08
6144.1, -3.024e-08
6146.1, -3.075e-08
6148.1, -3.041e-08
6150.1, -3.177e-08
6152.1, -3.153e-08
6154.1, -3.292e-08
6156.1, -3.386e-08
6158.2, -2.934e-08
6160.2, -3.208e-08
6162.2, -2.922e-08
6164.2, -2.859e-08
6166.2, -2.969e-08
6168.2, -3.149e-08
6170.2, -3.016e-08
6172.2, -2.896e-08
6174.2, -3.008e-08
6176.2, -2.986e-08
6178.2, -3.333e-08
6180.2, -3.314e-08
6182.2, -2.922e-08
6184.2, -2.969e-08
6186.2, -3.112e-08
6188.2, -3.155e-08
6190.2, -3.41e-08
6192.2, -3.584e-08
6194.2, -3.125e-08
6196.2, -3.246e-08
6198.2, -3.132e-08
6200.2, -3.265e-08
6202.2, -3.333e-08
6204.2, -3.182e-08
6206.2, -2.975e-08
6208.2, -3.026e-08
6210.2, -3.586e-08
6212.2, -3.141e-08
6214.2, -3.048e-08
6216.2, -2.898e-08
6218.2, -3.122e-08
6220.2, -2.867e-08
6222.2, -3.14e-08
6224.2, -3.05e-08
6226.2, -2.942e-08
6228.2, -2.779e-08
6230.2, -2.899e-08
6232.2, -2.764e-08
6234.2, -2.742e-08
6236.2, -2.762e-08
6238.2, -2.695e-08
6240.2, -2.924e-08
6242.2, -2.664e-08
6244.2, -3.165e-08
6246.2, -2.937e-08
6248.2, -2.97e-08
6250.2, -3.092e-08
6252.2, -3.095e-08
6254.2, -3.157e-08
6256.2, -3.204e-08
6258.3, -3.202e-08
6260.3, -2.855e-08
6262.3, -2.97e-08
6264.3, -2.862e-08
6266.3, -2.618e-08
6268.3, -2.923e-08
6270.3, -3.022e-08
6272.3, -2.927e-08
6274.3, -2.69e-08
6276.3, -3.207e-08
6278.3, -3e-08
6280.3, -3.26e-08
6282.3, -3.045e-08
6284.3, -3.153e-08
6286.3, -2.951e-08
6288.3, -3.207e-08
6290.3, -3.369e-08
6292.3, -3.416e-08
6294.3, -3.105e-08
6296.3, -3.163e-08
6298.3, -3.197e-08
6300.3, -3.142e-08
6302.3, -3.238e-08
6304.3, -3.142e-08
6306.3, -3.156e-08
6308.3, -3.191e-08
6310.3, -3.418e-08
6312.3, -3.606e-08
6314.3, -3.381e-08
6316.3, -3.26e-08
6318.3, -3.71e-08
6320.3, -3.154e-08
6322.3, -3.294e-08
6324.3, -3.442e-08
6326.3, -3.235e-08
6328.3, -3.166e-08
6330.3, -3.142e-08
6332.3, -3.644e-08
6334.3, -3.143e-08
6336.3, -3.137e-08
6338.3, -3.133e-08
6340.3, -3.248e-08
6342.3, -3.31e-08
6344.3, -3.343e-08
6346.3, -3.199e-08
6348.3, -3.117e-08
6350.3, -3.347e-08
6352.3, -3.433e-08
6354.3, -3.148e-08
6356.3, -2.796e-08
6358.4, -3.065e-08
6360.4, -3.681e-08
6362.4, -3.423e-08
6364.4, -3.463e-08
6366.4, -3.095e-08
6368.4, -3.094e-08
6370.4, -3.158e-08
6372.4, -3.299e-08
6374.4, -3.268e-08
6376.4, -2.749e-08
6378.4, -3.43e-08
6380.4, -3.28e-08
6382.4, -3.034e-08
6384.4, -3.124e-08
6386.4, -2.72e-08
6388.4, -2.935e-08
6390.4, -2.925e-08
6392.4, -3.064e-08
6394.4, -3.202e-08
6396.4, -3.017e-08
6398.4, -3.202e-08
6400.4, -3.078e-08
6402.4, -3.156e-08
6404.4, -2.466e-08
6406.4, -2.572e-08
6408.4, -2.885e-08
6410.4, -2.653e-08
6412.4, -2.799e-08
6414.4, -2.79e-08
6416.4, -3.19e-08
6418.4, -2.947e-08
6420.4, -3.171e-08
6422.4, -3.141e-08
6424.4, -2.707e-08
6426.4, -2.696e-08
6428.4, -2.763e-08
6430.4, -2.777e-08
6432.4, -2.808e-08
6434.4, -2.712e-08
6436.4, -2.704e-08
6438.4, -3.1e-08
6440.4, -2.787e-08
6442.4, -2.495e-08
6444.4, -2.523e-08
6446.4, -2.238e-08
6448.4, -2.552e-08
6450.4, -2.629e-08
6452.4, -2.701e-08
6454.4, -2.936e-08
6456.4, -2.864e-08
6458.5, -2.934e-08
6460.5, -2.72e-08
6462.5, -3.017e-08
6464.5, -2.698e-08
6466.5, -3.036e-08
6468.5, -2.864e-08
6470.5, -2.693e-08
6472.5, -3.001e-08
6474.5, -2.942e-08
6476.5, -2.854e-08
6478.5, -2.945e-08
6480.5, -2.63e-08
6482.5, -3.122e-08
6484.5, -2.92e-08
6486.5, -2.797e-08
6488.5, -3.096e-08
6490.5, -2.948e-08
6492.5, -3.161e-08
6494.5, -2.997e-08
6496.5, -3.155e-08
6498.5, -2.99e-08
6500.5, -2.907e-08
6502.5, -3.037e-08
6504.5, -2.894e-08
6506.5, -2.851e-08
6508.5, -3.11e-08
6510.5, -2.95e-08
6512.5, -3.02e-08
6514.5, -2.923e-08
6516.5, -2.918e-08
6518.5, -2.903e-08
6520.5, -2.944e-08
6522.5, -2.311e-08
6524.5, -2.605e-08
6526.5, -2.488e-08
6528.5, -2.908e-08
6530.5, -2.924e-08
6532.5, -2.807e-08
6534.5, -2.856e-08
6536.5, -2.556e-08
6538.5, -2.893e-08
6540.5, -3.247e-08
6542.5, -2.928e-08
6544.5, -2.688e-08
6546.5, -2.638e-08
6548.5, -2.797e-08
6550.5, -2.603e-08
6552.5, -2.619e-08
6554.5, -2.708e-08
6556.5, -2.776e-08
6558.6, -2.774e-08
6560.6, -3.159e-08
6562.6, -2.747e-08
6564.6, -2.49e-08
6566.6, -2.528e-08
6568.6, -2.741e-08
6570.6, -2.744e-08
6572.6, -2.962e-08
6574.6, -2.496e-08
6576.6, -2.741e-08
6578.6, -2.512e-08
6580.6, -2.75e-08
6582.6, -2.713e-08
6584.6, -2.616e-08
6586.6, -2.921e-08
6588.6, -2.499e-08
6590.6, -2.752e-08
6592.6, -2.602e-08
6594.6, -2.937e-08
6596.6, -2.752e-08
6598.6, -2.501e-08
6600.6, -2.983e-08
6602.6, -2.547e-08
6604.6, -2.558e-08
6606.6, -2.824e-08
6608.6, -2.839e-08
6610.6, -2.577e-08
6612.6, -2.723e-08
6614.6, -2.759e-08
6616.6, -2.767e-08
6618.6, -2.827e-08
6620.6, -2.753e-08
6622.6, -2.548e-08
6624.6, -3.08e-08
6626.6, -3.177e-08
6628.6, -3.149e-08
6630.6, -2.659e-08
6632.6, -2.953e-08
6634.6, -3.102e-08
6636.6, -2.639e-08
6638.6, -2.551e-08
6640.6, -2.904e-08
6642.6, -2.706e-08
6644.6, -2.543e-08
6646.6, -2.721e-08
6648.6, -2.677e-08
6650.6, -2.568e-08
6652.6, -2.814e-08
6654.6, -2.878e-08
6656.6, -2.706e-08
6658.7, -2.953e-08
6660.7, -2.667e-08
6662.7, -3.313e-08
6664.7, -3.119e-08
6666.7, -3.132e-08
6668.7, -3.061e-08
6670.7, -3.338e-08
6672.7, -2.931e-08
6674.7, -3.102e-08
6676.7, -3.195e-08
6678.7, -3.095e-08
6680.7, -3.193e-08
6682.7, -3.5e-08
6684.7, -3.071e-08
6686.7, -3.208e-08
6688.7, -2.965e-08
6690.7, -2.69e-08
6692.7, -2.834e-08
6694.7, -3.132e-08
6696.7, -3.274e-08
6698.7, -3.209e-08
6700.7, -3.275e-08
6702.7, -3.244e-08
6704.7, -2.625e-08
6706.7, -2.872e-08
6708.7, -2.883e-08
6710.7, -3.117e-08
6712.7, -3.022e-08
6714.7, -2.914e-08
6716.7, -2.92e-08
6718.7, -2.723e-08
6720.7, -2.757e-08
6722.7, -2.59e-08
6724.7, -2.538e-08
6726.7, -2.628e-08
6728.7, -2.389e-08
6730.7, -2.684e-08
6732.7, -2.751e-08
6734.7, -2.773e-08
6736.7, -2.885e-08
6738.7, -3.073e-08
6740.7, -3.191e-08
6742.7, -3.171e-08
6744.7, -3.188e-08
6746.7, -2.906e-08
6748.7, -2.965e-08
6750.7, -2.794e-08
6752.7, -2.587e-08
6754.7, -2.699e-08
6756.7, -2.881e-08
6758.8, -2.857e-08
6760.8, -2.579e-08
6762.8, -2.811e-08
6764.8, -2.967e-08
6766.8, -2.789e-08
6768.8, -3.126e-08
6770.8, -2.947e-08
6772.8, -3.093e-08
6774.8, -2.791e-08
6776.8, -2.763e-08
6778.8, -2.685e-08
6780.8, -2.443e-08
6782.8, -2.472e-08
6784.8, -3.073e-08
6786.8, -2.702e-08
6788.8, -3.039e-08
6790.8, -2.58e-08
6792.8, -2.569e-08
6794.8, -2.467e-08
6796.8, -2.853e-08
6798.8, -2.701e-08
6800.8, -2.847e-08
6802.8, -2.746e-08
6804.8, -2.753e-08
6806.8, -2.754e-08
6808.8, -2.988e-08
6810.8, -2.649e-08
6812.8, -3.247e-08
6814.8, -2.796e-08
6816.8, -2.957e-08
6818.8, -2.577e-08
6820.8, -2.565e-08
6822.8, -2.882e-08
6824.8, -2.511e-08
6826.8, -2.83e-08
6828.8, -2.955e-08
6830.8, -2.559e-08
6832.8, -2.851e-08
6834.8, -2.761e-08
6836.8, -2.725e-08
6838.8, -2.737e-08
6840.8, -2.864e-08
6842.8, -2.632e-08
6844.8, -2.446e-08
6846.8, -2.78e-08
6848.8, -2.635e-08
6850.8, -2.633e-08
6852.8, -2.749e-08
6854.8, -2.753e-08
6856.8, -2.249e-08
6858.9, -2.77e-08
6860.9, -2.989e-08
6862.9, -2.745e-08
6864.9, -2.854e-08
6866.9, -2.983e-08
6868.9, -3.153e-08
6870.9, -2.542e-08
6872.9, -2.857e-08
6874.9, -2.608e-08
6876.9, -2.763e-08
6878.9, -2.623e-08
6880.9, -2.815e-08
6882.9, -2.729e-08
6884.9, -2.721e-08
6886.9, -3.09e-08
6888.9, -2.778e-08
6890.9, -3.125e-08
6892.9, -2.878e-08
6894.9, -2.637e-08
6896.9, -2.689e-08
6898.9, -2.933e-08
6900.9, -2.926e-08
6902.9, -2.65e-08
6904.9, -2.632e-08
6906.9, -2.366e-08
6908.9, -2.639e-08
6910.9, -2.912e-08
6912.9, -2.951e-08
6914.9, -2.595e-08
6916.9, -2.678e-08
6918.9, -2.656e-08
6920.9, -2.741e-08
6922.9, -2.836e-08
6924.9, -2.863e-08
6926.9, -3.089e-08
6928.9, -2.77e-08
6930.9, -2.637e-08
6932.9, -3.072e-08
6934.9, -2.97e-08
6936.9, -2.663e-08
6938.9, -2.761e-08
6940.9, -2.965e-08
6942.9, -2.812e-08
6944.9, -2.597e-08
6946.9, -2.534e-08
6948.9, -2.645e-08
6950.9, -2.708e-08
6952.9, -2.755e-08
6954.9, -2.793e-08
6956.9, -2.591e-08
6959.0, -2.944e-08
6961.0, -2.723e-08
6963.0, -2.792e-08
6965.0, -2.71e-08
6967.0, -3.115e-08
6969.0, -2.935e-08
6971.0, -2.779e-08
6973.0, -2.687e-08
6975.0, -2.829e-08
6977.0, -2.978e-08
6979.0, -2.802e-08
6981.0, -3.243e-08
6983.0, -2.925e-08
6985.0, -3.258e-08
6987.0, -2.849e-08
6989.0, -2.848e-08
6991.0, -3.174e-08
6993.0, -3.02e-08
6995.0, -2.786e-08
6997.0, -2.504e-08
6999.0, -2.538e-08
7001.0, -2.916e-08
7003.0, -2.979e-08
7005.0, -2.774e-08
7007.0, -2.643e-08
7009.0, -2.894e-08
7011.0, -3.046e-08
7013.0, -2.867e-08
7015.0, -3.058e-08
7017.0, -2.951e-08
7019.0, -2.815e-08
7021.0, -2.63e-08
7023.0, -2.771e-08
7025.0, -2.464e-08
7027.0, -2.56e-08
7029.0, -2.507e-08
7031.0, -2.898e-08
7033.0, -2.464e-08
7035.0, -2.783e-08
7037.0, -2.723e-08
7039.0, -2.561e-08
7041.0, -2.668e-08
7043.0, -2.945e-08
7045.0, -2.9e-08
7047.0, -2.686e-08
7049.0, -2.79e-08
7051.0, -2.819e-08
7053.0, -2.758e-08
7055.0, -2.953e-08
7057.0, -2.63e-08
7059.1, -2.684e-08
7061.1, -2.237e-08
7063.1, -2.453e-08
7065.1, -2.405e-08
7067.1, -2.167e-08
7069.1, -2.62e-08
7071.1, -2.643e-08
7073.1, -2.379e-08
7075.1, -2.25e-08
7077.1, -2.484e-08
7079.1, -2.721e-08
7081.1, -2.83e-08
7083.1, -2.883e-08
7085.1, -2.695e-08
7087.1, -2.648e-08
7089.1, -3.092e-08
7091.1, -3.442e-08
7093.1, -2.665e-08
7095.1, -3.067e-08
7097.1, -3.106e-08
7099.1, -2.692e-08
7101.1, -2.553e-08
7103.1, -2.845e-08
7105.1, -3.198e-08
7107.1, -2.968e-08
7109.1, -2.874e-08
7111.1, -3.14e-08
7113.1, -2.933e-08
7115.1, -2.757e-08
7117.1, -3.152e-08
7119.1, -2.658e-08
7121.1, -2.652e-08
7123.1, -2.58e-08
7125.1, -2.777e-08
7127.1, -2.801e-08
7129.1, -2.641e-08
7131.1, -3.028e-08
7133.1, -2.909e-08
7135.1, -2.787e-08
7137.1, -2.443e-08
7139.1, -2.671e-08
7141.1, -3.118e-08
7143.1, -2.983e-08
7145.1, -2.926e-08
7147.1, -2.799e-08
7149.1, -2.67e-08
7151.1, -2.888e-08
7153.1, -3.047e-08
7155.1, -3.036e-08
7157.1, -2.701e-08
7159.2, -3.139e-08
7161.2, -3.325e-08
7163.2, -2.7e-08
7165.2, -2.96e-08
7167.2, -2.639e-08
7169.2, -2.589e-08
7171.2, -2.62e-08
7173.2, -2.476e-08
7175.2, 3.4716e-07
7177.2, 6.0649e-07
7179.2, 6.0266e-07
7181.2, 6.8493e-07
7183.2, 6.1353e-07
7185.2, 6.4303e-07
7187.2, 6.1202e-07
7189.2, 6.6782e-07
7191.2, 7.062e-07
7193.2, 5.5464e-07
7195.2, 6.8616e-07
7197.2, 6.4058e-07
7199.2, 6.3698e-07
7201.2, 6.62e-07
7203.2, 6.6474e-07
7205.2, 6.4917e-07
7207.2, 6.8398e-07
7209.2, 6.7167e-07
7211.2, 6.3378e-07
7213.2, 6.7439e-07
7215.2, 6.1941e-07
7217.2, 5.6793e-07
7219.2, 6.2027e-07
7221.2, 6.4202e-07
7223.2, 7.5637e-07
7225.2, 5.845e-07
7227.2, 6.4591e-07
7229.2, 6.4174e-07
7231.2, 6.542e-07
7233.2, 6.6452e-07
7235.2, 6.6839e-07
7237.2, 5.8747e-07
7239.2, 7.2784e-07
7241.2, 7.206e-07
7243.2, 7.654e-07
7245.2, 6.3953e-07
7247.2, 6.3374e-07
7249.2, 6.7785e-07
7251.2, 6.5797e-07
7253.2, 6.84e-07
7255.2, 6.4661e-07
7257.2, 6.8651e-07
7259.3, 6.7809e-07
7261.3, 7.216e-07
7263.3, 6.6822e-07
7265.3, 6.3565e-07
7267.3, 8.1006e-07
7269.3, 7.4989e-07
7271.3, 6.4652e-07
7273.3, 6.3879e-07
7275.3, 6.2764e-07
7277.3, 7.4125e-07
7279.3, 6.6066e-07
7281.3, 6.8829e-07
7283.3, 6.9525e-07
7285.3, 6.8971e-07
7287.3, 6.8658e-07
7289.3, 6.3183e-07
7291.3, 7.298e-07
7293.3, 6.7908e-07
7295.3, 5.8411e-07
7297.3, 6.2201e-07
7299.3, 6.4665e-07
7301.3, 6.9518e-07
7303.3, 7.2389e-07
7305.3, 6.1712e-07
7307.3, 6.9959e-07
7309.3, 6.9871e-07
7311.3, 6.903e-07
7313.3, 7.345e-07
7315.3, 7.501e-07
7317.3, 8.0202e-07
7319.3, 7.0805e-07
7321.3, 7.9261e-07
7323.3, 6.7643e-07
7325.3, 6.8673e-07
7327.3, 7.311e-07
7329.3, 6.2809e-07
7331.3, 6.5763e-07
7333.3, 7.4538e-07
7335.3, 7.1051e-07
7337.3, 6.9451e-07
7339.3, 7.0644e-07
7341.3, 7.8237e-07
7343.3, 6.6071e-07
7345.3, 7.0949e-07
7347.3, 7.4047e-07
7349.3, 6.6911e-07
7351.3, 7.5221e-07
7353.3, 7.5752e-07
7355.3, 7.1733e-07
7357.3, 7.2313e-07
7359.4, 7.5774e-07
7361.4, 7.6061e-07
7363.4, 6.7321e-07
7365.4, 7.9769e-07
7367.4, 6.9648e-07
7369.4, 6.5531e-07
7371.4, 6.7412e-07
7373.4, 7.5431e-07
7375.4, 7.4801e-07
7377.4, 6.636e-07
7379.4, 6.7777e-07
7381.4, 7.2648e-07
7383.4, 6.6517e-07
7385.4, 7.7264e-07
7387.4, 6.9493e-07
7389.4, 6.7872e-07
7391.4, 6.7726e-07
7393.4, 7.1125e-07
7395.4, 6.7495e-07
7397.4, 6.7775e-07
7399.4, 6.8345e-07
7401.4, 6.3725e-07
7403.4, 7.0544e-07
7405.4, 7.0365e-07
7407.4, 6.8712e-07
7409.4, 7.9484e-07
7411.4, 7.1956e-07
7413.4, 7.0666e-07
7415.4, 7.3359e-07
7417.4, 7.3668e-07
7419.4, 7.6483e-07
7421.4, 8.4841e-07
7423.4, 6.694e-07
7425.4, 7.4117e-07
7427.4, 6.9426e-07
7429.4, 7.2216e-07
7431.4, 7.4242e-07
7433.4, 7.0298e-07
7435.4, 6.7387e-07
7437.4, 7.6459e-07
7439.4, 7.6231e-07
7441.4, 7.4417e-07
7443.4, 7.407e-07
7445.4, 6.7672e-07
7447.4, 7.9335e-07
7449.4, 6.9964e-07
7451.4, 7.6656e-07
7453.4, 6.6379e-07
7455.4, 6.9808e-07
7457.4, 7.5961e-07
7459.5, 7.3607e-07
7461.5, 7.4017e-07
7463.5, 7.2138e-07
7465.5, 7.8464e-07
7467.5, 6.6639e-07
7469.5, 6.8631e-07
7471.5, 7.5299e-07
7473.5, 6.8628e-07
7475.5, 7.5489e-07
7477.5, 7.7539e-07
7479.5, 7.4292e-07
7481.5, 7.1123e-07
7483.5, 7.4194e-07
7485.5, 7.3361e-07
7487.5, 7.0108e-07
7489.5, 7.2732e-07
7491.5, 7.2106e-07
7493.5, 7.1722e-07
7495.5, 6.5732e-07
7497.5, 7.0221e-07
7499.5, 7.1318e-07
7501.5, 6.6175e-07
7503.5, 6.7393e-07
7505.5, 7.1557e-07
7507.5, 6.2896e-07
7509.5, 7.2468e-07
7511.5, 7.3755e-07
7513.5, 7.23e-07
7515.5, 7.0311e-07
7517.5, 7.2911e-07
7519.5, 6.7644e-07
7521.5, 6.5928e-07
7523.5, 7.5968e-07
7525.5, 7.3911e-07
7527.5, 7.3499e-07
7529.5, 7.6696e-07
7531.5, 7.4434e-07
7533.5, 6.7188e-07
7535.5, 7.0583e-07
7537.5, 7.4184e-07
7539.5, 6.9951e-07
7541.5, 7.6648e-07
7543.5, 7.509e-07
7545.5, 7.2698e-07
7547.5, 6.8384e-07
7549.5, 7.1856e-07
7551.5, 7.2166e-07
7553.5, 6.9638e-07
7555.5, 6.6281e-07
7557.5, 7.8358e-07
7559.6, 7.3561e-07
7561.6, 7.4687e-07
7563.6, 7.0898e-07
7565.6, 7.4534e-07
7567.6, 7.4201e-07
7569.6, 6.7526e-07
7571.6, 7.9263e-07
7573.6, 6.3154e-07
7575.6, 7.3717e-07
7577.6, 6.9675e-07
7579.6, 7.5588e-07
7581.6, 7.5067e-07
7583.6, 6.954e-07
7585.6, 7.1483e-07
7587.6, 6.8195e-07
7589.6, 7.9006e-07
7591.6, 7.897e-07
7593.6, 7.8008e-07
7595.6, 7.5969e-07
7597.6, 7.2826e-07
7599.6, 6.8507e-07
7601.6, 7.5368e-07
7603.6, 8.1389e-07
7605.6, 6.9759e-07
7607.6, 7.9175e-07
7609.6, 7.8318e-07
7611.6, 7.3147e-07
7613.6, 6.6531e-07
7615.6, 7.8044e-07
7617.6, 7.0263e-07
7619.6, 7.5635e-07
7621.6, 7.0125e-07
7623.6, 7.5417e-07
7625.6, 7.6271e-07
7627.6, 7.7389e-07
7629.6, 7.2681e-07
7631.6, 7.0856e-07
7633.6, 6.8732e-07
7635.6, 7.3703e-07
7637.6, 6.1953e-07
7639.6, 7.9971e-07
7641.6, 7.3754e-07
7643.6, 6.7547e-07
7645.6, 7.4569e-07
7647.6, 7.8002e-07
7649.6, 7.4522e-07
7651.6, 8.0113e-07
7653.6, 6.9538e-07
7655.6, 7.4762e-07
7657.6, 7.5207e-07
7659.7, 7.5181e-07
7661.7, 6.6705e-07
7663.7, 6.7807e-07
7665.7, 8.3981e-07
7667.7, 7.21e-07
7669.7, 7.8065e-07
7671.7, 7.6031e-07
7673.7, 8e-07
7675.7, 7.6006e-07
7677.7, 7.4663e-07
7679.7, 7.9763e-07
7681.7, 7.8389e-07
7683.7, 7.1464e-07
7685.7, 7.0531e-07
7687.7, 8.4328e-07
7689.7, 6.8433e-07
7691.7, 7.6206e-07
7693.7, 6.9318e-07
7695.7, 6.7138e-07
7697.7, 7.521e-07
7699.7, 7.4819e-07
7701.7, 7.5441e-07
7703.7, 7.133e-07
7705.7, 7.0917e-07
7707.7, 8.0374e-07
7709.7, 7.482e-07
7711.7, 7.3553e-07
7713.7, 7.9046e-07
7715.7, 6.4103e-07
7717.7, 7.3107e-07
7719.7, 7.6462e-07
7721.7, 7.0147e-07
7723.7, 6.4777e-07
7725.7, 6.6769e-07
7727.7, 6.9641e-07
7729.7, 7.3028e-07
7731.7, 7.0529e-07
7733.7, 7.4756e-07
7735.7, 7.4029e-07
7737.7, 7.2054e-07
7739.7, 7.0255e-07
7741.7, 7.8861e-07
7743.7, 7.3308e-07
7745.7, 8.0214e-07
7747.7, 7.4082e-07
7749.7, 7.5311e-07
7751.7, 7.283e-07
7753.7, 7.573e-07
7755.7, 7.5724e-07
7757.7, 8.4601e-07
7759.8, 7.2881e-07
7761.8, 7.3942e-07
7763.8, 7.8669e-07
7765.8, 6.9266e-07
7767.8, 8.1127e-07
7769.8, 7.3819e-07
7771.8, 7.6793e-07
7773.8, 7.6194e-07
7775.8, 7.4542e-07
7777.8, 7.7698e-07
7779.8, 7.7462e-07
7781.8, 7.7281e-07
7783.8, 6.4987e-07
7785.8, 7.1441e-07
7787.8, 7.2148e-07
7789.8, 7.718e-07
7791.8, 7.4606e-07
7793.8, 7.8906e-07
7795.8, 7.1409e-07
7797.8, 7.495e-07
7799.8, 7.6786e-07
7801.8, 7.3933e-07
7803.8, 7.613e-07
7805.8, 7.6059e-07
7807.8, 7.798e-07
7809.8, 7.4995e-07
7811.8, 7.3205e-07
7813.8, 7.5749e-07
7815.8, 8.0971e-07
7817.8, 6.994e-07
7819.8, 7.8857e-07
7821.8, 8.1178e-07
7823.8, 6.2907e-07
7825.8, 7.0111e-07
7827.8, 8.5798e-07
7829.8, 7.1366e-07
7831.8, 8.2295e-07
7833.8, 7.4835e-07
7835.8, 6.8867e-07
7837.8, 7.4965e-07
7839.8, 8.337e-07
7841.8, 7.2631e-07
7843.8, 6.5835e-07
7845.8, 7.7222e-07
7847.8, 6.6218e-07
7849.8, 7.7183e-07
7851.8, 7.8835e-07
7853.8, 8.4874e-07
7855.8, 8.4803e-07
7857.8, 7.0939e-07
7859.9, 7.529e-07
7861.9, 7.1708e-07
7863.9, 8.0712e-07
7865.9, 8.1911e-07
7867.9, 7.7055e-07
7869.9, 7.5059e-07
7871.9, 8.2989e-07
7873.9, 7.5718e-07
7875.9, 7.7007e-07
7877.9, 7.7345e-07
7879.9, 8.0495e-07
7881.9, 7.4219e-07
7883.9, 7.7309e-07
7885.9, 7.1551e-07
7887.9, 8.1329e-07
7889.9, 7.9378e-07
7891.9, 8.1271e-07
7893.9, 7.6097e-07
7895.9, 7.8363e-07
7897.9, 7.8682e-07
7899.9, 7.1879e-07
7901.9, 8.3753e-07
7903.9, 6.9311e-07
7905.9, 7.7151e-07
7907.9, 7.3087e-07
7909.9, 7.2165e-07
7911.9, 7.2338e-07
7913.9, 8.0795e-07
7915.9, 7.3238e-07
7917.9, 7.9084e-07
7919.9, 7.2848e-07
7921.9, 6.882e-07
7923.9, 7.1677e-07
7925.9, 7.6145e-07
7927.9, 7.5557e-07
7929.9, 7.7396e-07
7931.9, 7.2365e-07
7933.9, 7.1316e-07
7935.9, 7.2484e-07
7937.9, 7.6712e-07
7939.9, 8.0057e-07
7941.9, 7.2298e-07
7943.9, 7.4795e-07
7945.9, 7.1889e-07
7947.9, 7.6098e-07
7949.9, 7.7315e-07
7951.9, 8.328e-07
7953.9, 8.0908e-07
7955.9, 7.2575e-07
7957.9, 6.9281e-07
7960.0, 8.233e-07
7962.0, 6.9967e-07
7964.0, 7.2756e-07
7966.0, 8.1509e-07
7968.0, 7.0166e-07
7970.0, 8.0668e-07
7972.0, 7.1184e-07
7974.0, 8.136e-07
7976.0, 6.8365e-07
7978.0, 7.0629e-07
7980.0, 8.0661e-07
7982.0, 8.0975e-07
7984.0, 8.1099e-07
7986.0, 7.1512e-07
7988.0, 8.2464e-07
7990.0, 7.5992e-07
7992.0, 7.2398e-07
7994.0, 8.5012e-07
7996.0, 7.6997e-07
7998.0, 7.7752e-07
8000.0, 7.6837e-07
8002.0, 7.3418e-07
8004.0, 8.5803e-07
8006.0, 7.5472e-07
8008.0, 7.5085e-07
8010.0, 6.8001e-07
8012.0, 7.1455e-07
8014.0, 7.7855e-07
8016.0, 7.6981e-07
8018.0, 7.6158e-07
8020.0, 7.7594e-07
8022.0, 7.2883e-07
8024.0, 7.7975e-07
8026.0, 7.9375e-07
8028.0, 7.7664e-07
8030.0, 7.4295e-07
8032.0, 7.5238e-07
8034.0, 6.9351e-07
8036.0, 7.0767e-07
8038.0, 7.947e-07
8040.0, 7.3475e-07
8042.0, 7.083e-07
8044.0, 7.0402e-07
8046.0, 7.9122e-07
8048.0, 7.1473e-07
8050.0, 6.9723e-07
8052.0, 7.366e-07
8054.0, 7.9663e-07
8056.0, 8.5077e-07
8058.0, 7.4154e-07
8060.1, 7.4598e-07
8062.1, 7.8108e-07
8064.1, 7.6853e-07
8066.1, 7.0863e-07
8068.1, 6.6604e-07
8070.1, 8.3999e-07
8072.1, 7.4712e-07
8074.1, 6.2968e-07
8076.1, 7.2802e-07
8078.1, 7.3843e-07
8080.1, 6.9741e-07
8082.1, 7.5581e-07
8084.1, 7.2102e-07
8086.1, 7.7068e-07
8088.1, 6.2986e-07
8090.1, 7.6953e-07
8092.1, 7.4005e-07
8094.1, 7.9086e-07
8096.1, 7.5384e-07
8098.1, 6.6204e-07
8100.1, 7.5218e-07
8102.1, 8.0229e-07
8104.1, 7.8365e-07
8106.1, 7.0906e-07
8108.1, 7.8246e-07
8110.1, 7.4087e-07
8112.1, 7.3286e-07
8114.1, 7.2263e-07
8116.1, 8.2488e-07
8118.1, 8.2499e-07
8120.1, 6.7585e-07
8122.1, 6.7209e-07
8124.1, 7.6494e-07
8126.1, 7.7426e-07
8128.1, 6.9093e-07
8130.1, 7.3176e-07
8132.1, 7.8884e-07
8134.1, 7.7764e-07
8136.1, 6.7697e-07
8138.1, 7.6806e-07
8140.1, 7.3501e-07
8142.1, 8.2957e-07
8144.1, 7.8535e-07
8146.1, 7.6325e-07
8148.1, 7.6051e-07
8150.1, 7.4151e-07
8152.1, 7.054e-07
8154.1, 7.2959e-07
8156.1, 7.9629e-07
8158.1, 8.102e-07
8160.2, 7.4326e-07
8162.2, 7.4653e-07
8164.2, 7.5429e-07
8166.2, 6.414e-07
8168.2, 7.727e-07
8170.2, 7.9954e-07
8172.2, 7.2431e-07
8174.2, 7.7731e-07
8176.2, 2.8567e-07
8178.2, -2.797e-08
8180.2, -2.919e-08
8182.2, -2.881e-08
8184.2, -3.04e-08
8186.2, -2.917e-08
8188.2, -3.089e-08
8190.2, -2.933e-08
8192.2, -2.904e-08
8194.2, -2.883e-08
8196.2, -2.885e-08
8198.2, -2.535e-08
8200.2, -2.595e-08
8202.2, -3.083e-08
8204.2, -2.935e-08
8206.2, -2.816e-08
8208.2, -2.741e-08
8210.2, -2.847e-08
8212.2, -3.007e-08
8214.2, -3.16e-08
8216.2, -2.935e-08
8218.2, -2.849e-08
8220.2, -2.986e-08
8222.2, -3.087e-08
8224.2, -3.011e-08
8226.2, -2.952e-08
8228.2, -3.134e-08
8230.2, -3.05e-08
8232.2, -3.039e-08
8234.2, -3.076e-08
8236.2, -2.983e-08
8238.2, -3.268e-08
8240.2, -3.396e-08
8242.2, -3.297e-08
8244.2, -3.26e-08
8246.2, -3.184e-08
8248.2, -3.006e-08
8250.2, -3.21e-08
8252.2, -3.432e-08
8254.2, -3.447e-08
8256.2, -3.148e-08
8258.2, -3.348e-08
8260.3, -3.734e-08
8262.3, -3.443e-08
8264.3, -3.393e-08
8266.3, -3.215e-08
8268.3, -3.253e-08
8270.3, -3.525e-08
8272.3, -3.417e-08
8274.3, -3.386e-08
8276.3, -3.087e-08
8278.3, -3.36e-08
8280.3, -3.413e-08
8282.3, -3.345e-08
8284.3, -3.236e-08
8286.3, -3.36e-08
8288.3, -3.15e-08
8290.3, -2.899e-08
8292.3, -3.094e-08
8294.3, -3.257e-08
8296.3, -3.054e-08
8298.3, -3.174e-08
8300.3, -3.496e-08
8302.3, -3.471e-08
8304.3, -3.299e-08
8306.3, -3.347e-08
8308.3, -3.304e-08
8310.3, -3.003e-08
8312.3, -3.302e-08
8314.3, -3.076e-08
8316.3, -3.327e-08
8318.3, -2.954e-08
8320.3, -3.459e-08
8322.3, -3.605e-08
8324.3, -3.517e-08
8326.3, -3.844e-08
8328.3, -3.572e-08
8330.3, -3.539e-08
8332.3, -3.659e-08
8334.3, -3.59e-08
8336.3, -3.649e-08
8338.3, -3.48e-08
8340.3, -3.557e-08
8342.3, -3.571e-08
8344.3, -3.49e-08
8346.3, -3.846e-08
8348.3, -3.685e-08
8350.3, -3.559e-08
8352.3, -3.323e-08
8354.3, -3.46e-08
8356.3, -3.465e-08
8358.3, -3.155e-08
8360.4, -3.494e-08
8362.4, -3.527e-08
8364.4, -3.332e-08
8366.4, -3.251e-08
8368.4, -3.345e-08
8370.4, -3.609e-08
8372.4, -3.314e-08
8374.4, -3.175e-08
8376.4, -3.432e-08
8378.4, -3.497e-08
8380.4, -3.46e-08
8382.4, -3.698e-08
8384.4, -3.641e-08
8386.4, -3.202e-08
8388.4, -3.48e-08
8390.4, -3.362e-08
8392.4, -3.44e-08
8394.4, -3.364e-08
8396.4, -3.601e-08
8398.4, -3.748e-08
8400.4, -3.727e-08
8402.4, -3.625e-08
8404.4, -3.694e-08
8406.4, -3.46e-08
8408.4, -3.799e-08
8410.4, -3.688e-08
8412.4, -3.963e-08
8414.4, -3.742e-08
8416.4, -3.528e-08
8418.4, -3.742e-08
8420.4, -3.275e-08
8422.4, -3.546e-08
8424.4, -3.55e-08
8426.4, -3.414e-08
8428.4, -3.409e-08
8430.4, -3.646e-08
8432.4, -3.509e-08
8434.4, -3.704e-08
8436.4, -3.685e-08
8438.4, -3.489e-08
8440.4, -4.088e-08
8442.4, -3.972e-08
8444.4, -3.733e-08
8446.4, -3.768e-08
8448.4, -3.527e-08
8450.4, -3.6e-08
8452.4, -3.447e-08
8454.4, -3.32e-08
8456.4, -3.702e-08
8458.4, -3.764e-08
8460.5, -3.883e-08
8462.5, -3.726e-08
8464.5, -3.777e-08
8466.5, -3.802e-08
8468.5, -3.658e-08
8470.5, -3.82e-08
8472.5, -3.596e-08
8474.5, -3.693e-08
8476.5, -3.678e-08
8478.5, -3.428e-08
8480.5, -3.432e-08
8482.5, -3.372e-08
8484.5, -3.455e-08
8486.5, -3.165e-08
8488.5, -3.312e-08
8490.5, -3.758e-08
8492.5, -3.942e-08
8494.5, -3.65e-08
8496.5, -3.67e-08
8498.5, -3.942e-08
8500.5, -3.973e-08
8502.5, -3.784e-08
8504.5, -3.905e-08
8506.5, -3.708e-08
8508.5, -3.551e-08
8510.5, -3.674e-08
8512.5, -3.933e-08
8514.5, -3.445e-08
8516.5, -3.379e-08
8518.5, -3.695e-08
8520.5, -3.556e-08
8522.5, -3.867e-08
8524.5, -3.728e-08
8526.5, -3.812e-08
8528.5, -3.763e-08
8530.5, -3.461e-08
8532.5, -3.164e-08
8534.5, -3.295e-08
8536.5, -3.268e-08
8538.5, -3.605e-08
8540.5, -3.507e-08
8542.5, -3.327e-08
8544.5, -3.165e-08
8546.5, -3.184e-08
8548.5, -3.478e-08
8550.5, -3.394e-08
8552.5, -3.198e-08
8554.5, -3.142e-08
8556.5, -3.416e-08
8558.5, -3.241e-08
8560.6, -3.668e-08
8562.6, -3.511e-08
8564.6, -3.612e-08
8566.6, -3.491e-08
8568.6, -3.537e-08
8570.6, -3.554e-08
8572.6, -4.081e-08
8574.6, -3.77e-08
8576.6, -3.635e-08
8578.6, -3.429e-08
8580.6, -3.553e-08
8582.6, -3.621e-08
8584.6, -3.259e-08
8586.6, -3.515e-08
8588.6, -3.332e-08
8590.6, -3.388e-08
8592.6, -3.388e-08
8594.6, -3.373e-08
8596.6, -3.358e-08
8598.6, -3.188e-08
8600.6, -3.728e-08
8602.6, -3.546e-08
8604.6, -3.29e-08
8606.6, -3.088e-08
8608.6, -3.557e-08
8610.6, -3.155e-08
8612.6, -3.213e-08
8614.6, -3.12e-08
8616.6, -3.193e-08
8618.6, -3.051e-08
8620.6, -3.058e-08
8622.6, -3.288e-08
8624.6, -3.539e-08
8626.6, -2.973e-08
8628.6, -3.376e-08
8630.6, -3.212e-08
8632.6, -3.379e-08
8634.6, -3.458e-08
8636.6, -3.454e-08
8638.6, -3.5e-08
8640.6, -3.529e-08
8642.6, -3.543e-08
8644.6, -3.563e-08
8646.6, -3.812e-08
8648.6, -3.548e-08
8650.6, -3.482e-08
8652.6, -3.827e-08
8654.6, -3.66e-08
8656.6, -3.86e-08
8658.6, -3.638e-08
8660.7, -3.474e-08
8662.7, -3.558e-08
8664.7, -3.578e-08
8666.7, -3.453e-08
8668.7, -3.519e-08
8670.7, -3.489e-08
8672.7, -3.628e-08
8674.7, -3.676e-08
8676.7, -3.359e-08
8678.7, -3.301e-08
8680.7, -3.468e-08
8682.7, -3.107e-08
8684.7, -3.31e-08
8686.7, -3.299e-08
8688.7, -3.351e-08
8690.7, -3.412e-08
8692.7, -3.492e-08
8694.7, -3.425e-08
8696.7, -3.526e-08
8698.7, -3.356e-08
8700.7, -3.077e-08
8702.7, -3.361e-08
8704.7, -3.456e-08
8706.7, -2.88e-08
8708.7, -3.168e-08
8710.7, -3.107e-08
8712.7, -3.255e-08
8714.7, -3.484e-08
8716.7, -3.446e-08
8718.7, -3.146e-08
8720.7, -3.095e-08
8722.7, -3.363e-08
8724.7, -3.414e-08
8726.7, -3.281e-08
8728.7, -3.669e-08
8730.7, -3.538e-08
8732.7, -3.249e-08
8734.7, -3.532e-08
8736.7, -3.624e-08
8738.7, -3.165e-08
8740.7, -3.294e-08
8742.7, -3.427e-08
8744.7, -3.525e-08
8746.7, -3.299e-08
8748.7, -3.304e-08
8750.7, -3.346e-08
8752.7, -3.333e-08
8754.7, -3.375e-08
8756.7, -2.769e-08
8758.7, -3.276e-08
8760.8, -3.221e-08
8762.8, -3.369e-08
8764.8, -3.14e-08
8766.8, -3.292e-08
8768.8, -3.118e-08
8770.8, -2.873e-08
8772.8, -3.236e-08
8774.8, -3.681e-08
8776.8, -3.115e-08
8778.8, -2.689e-08
8780.8, -3.274e-08
8782.8, -3.147e-08
8784.8, -3.578e-08
8786.8, -3.313e-08
8788.8, -3.734e-08
8790.8, -3.404e-08
8792.8, -3.415e-08
8794.8, -3.317e-08
8796.8, -3.301e-08
8798.8, -3.188e-08
8800.8, -3.263e-08
8802.8, -2.909e-08
8804.8, -2.819e-08
8806.8, -3.212e-08
8808.8, -3.278e-08
8810.8, -3.323e-08
8812.8, -3.38e-08
8814.8, -3.406e-08
8816.8, -3.439e-08
8818.8, -3.421e-08
8820.8, -3.246e-08
8822.8, -3.391e-08
8824.8, -3.181e-08
8826.8, -3.059e-08
8828.8, -3.332e-08
8830.8, -3.652e-08
8832.8, -3.441e-08
8834.8, -3.69e-08
8836.8, -3.353e-08
8838.8, -3.313e-08
8840.8, -3.419e-08
8842.8, -3.421e-08
8844.8, -4.019e-08
8846.8, -4.055e-08
8848.8, -3.652e-08
8850.8, -3.559e-08
8852.8, -3.395e-08
8854.8, -3.181e-08
8856.8, -3.494e-08
8858.8, -3.642e-08
8860.9, -3.384e-08
8862.9, -3.385e-08
8864.9, -3.444e-08
8866.9, -3.619e-08
8868.9, -3.254e-08
8870.9, -3.421e-08
8872.9, -3.545e-08
8874.9, -3.921e-08
8876.9, -3.413e-08
8878.9, -3.694e-08
8880.9, -3.269e-08
8882.9, -3.793e-08
8884.9, -3.472e-08
8886.9, -3.475e-08
8888.9, -3.234e-08
8890.9, -3.345e-08
8892.9, -3.473e-08
8894.9, -3.391e-08
8896.9, -3.523e-08
8898.9, -3.437e-08
8900.9, -3.362e-08
8902.9, -3.34e-08
8904.9, -3.536e-08
8906.9, -3.348e-08
8908.9, -3.281e-08
8910.9, -3.466e-08
8912.9, -3.429e-08
8914.9, -3.693e-08
8916.9, -3.496e-08
8918.9, -3.385e-08
8920.9, -3.338e-08
8922.9, -3.69e-08
8924.9, -3.399e-08
8926.9, -3.912e-08
8928.9, -3.485e-08
8930.9, -3.661e-08
8932.9, -3.547e-08
8934.9, -3.398e-08
8936.9, -3.501e-08
8938.9, -3.661e-08
8940.9, -3.776e-08
8942.9, -3.722e-08
8944.9, -3.84e-08
8946.9, -3.339e-08
8948.9, -3.317e-08
8950.9, -3.349e-08
8952.9, -3.903e-08
8954.9, -3.39e-08
8956.9, -3.777e-08
8958.9, -3.518e-08
8961.0, -3.472e-08
8963.0, -3.822e-08
8965.0, -3.842e-08
8967.0, -3.589e-08
8969.0, -4.209e-08
8971.0, -3.662e-08
8973.0, -3.684e-08
8975.0, -3.569e-08
8977.0, -3.757e-08
8979.0, -3.516e-08
8981.0, -3.48e-08
8983.0, -3.493e-08
8985.0, -3.769e-08
8987.0, -3.342e-08
8989.0, -3.241e-08
8991.0, -3.654e-08
8993.0, -3.922e-08
8995.0, -3.577e-08
8997.0, -3.967e-08
8999.0, -3.618e-08
9001.0, -3.591e-08
9003.0, -3.395e-08
9005.0, -3.506e-08
9007.0, -3.497e-08
9009.0, -3.512e-08
9011.0, -3.494e-08
9013.0, -3.686e-08
9015.0, -3.448e-08
9017.0, -3.673e-08
9019.0, -3.618e-08
9021.0, -3.667e-08
9023.0, -3.474e-08
9025.0, -3.262e-08
9027.0, -3.178e-08
9029.0, -3.35e-08
9031.0, -3.402e-08
9033.0, -3.529e-08
9035.0, -3.897e-08
9037.0, -3.558e-08
9039.0, -3.897e-08
9041.0, -3.706e-08
9043.0, -3.942e-08
9045.0, -3.467e-08
9047.0, -3.41e-08
9049.0, -3.88e-08
9051.0, -3.67e-08
9053.0, -3.724e-08
9055.0, -3.808e-08
9057.0, -3.771e-08
9059.0, -3.687e-08
9061.1, -3.565e-08
9063.1, -3.615e-08
9065.1, -3.514e-08
9067.1, -3.642e-08
9069.1, -3.646e-08
9071.1, -3.503e-08
9073.1, -3.371e-08
9075.1, -3.38e-08
9077.1, -3.286e-08
9079.1, -3.375e-08
9081.1, -3.507e-08
9083.1, -3.339e-08
9085.1, -3.222e-08
9087.1, -2.966e-08
9089.1, -3.647e-08
9091.1, -3.155e-08
9093.1, -3.325e-08
9095.1, -3.208e-08
9097.1, -3.057e-08
9099.1, -2.668e-08
9101.1, -3.079e-08
9103.1, -3.079e-08
9105.1, -2.959e-08
9107.1, -3.136e-08
9109.1, -3.26e-08
9111.1, -3.122e-08
9113.1, -3.204e-08
9115.1, -3.158e-08
9117.1, -3.173e-08
9119.1, -3.117e-08
9121.1, -3.455e-08
9123.1, -3.564e-08
9125.1, -3.18e-08
9127.1, -3.463e-08
9129.1, -3.311e-08
9131.1, -3.447e-08
9133.1, -3.174e-08
9135.1, -3.404e-08
9137.1, -3.306e-08
9139.1, -3.009e-08
9141.1, -3.289e-08
9143.1, -3.331e-08
9145.1, -3.464e-08
9147.1, -3.532e-08
9149.1, -3.583e-08
9151.1, -3.293e-08
9153.1, -3.325e-08
9155.1, -3.25e-08
9157.1, -3.124e-08
9159.1, -3.062e-08
9161.2, -3.419e-08
9163.2, -3.308e-08
9165.2, -3.362e-08
9167.2, -3.312e-08
9169.2, -2.878e-08
9171.2, -3.213e-08
9173.2, -3.135e-08
9175.2, -3.345e-08
9177.2, -3.457e-08
9179.2, -3.411e-08
9181.2, -3.133e-08
9183.2, -3.486e-08
9185.2, -3.429e-08
9187.2, -3.269e-08
9189.2, -2.817e-08
9191.2, -3.15e-08
9193.2, -3.433e-08
9195.2, -2.788e-08
9197.2, -2.915e-08
9199.2, -3.436e-08
9201.2, -3.123e-08
9203.2, -3.057e-08
9205.2, -3.58e-08
9207.2, -3.342e-08
9209.2, -3.645e-08
9211.2, 4.244e-07
9213.2, 5.4007e-07
9215.2, 6.2739e-07
9217.2, 6.4045e-07
9219.2, 6.2157e-07
9221.2, 6.1094e-07
9223.2, 6.3094e-07
9225.2, 5.6916e-07
9227.2, 6.8881e-07
9229.2, 7.0991e-07
9231.2, 5.9889e-07
9233.2, 6.1917e-07
9235.2, 7.1216e-07
9237.2, 5.8434e-07
9239.2, 6.6073e-07
9241.2, 6.2593e-07
9243.2, 6.3883e-07
9245.2, 6.3818e-07
9247.2, 6.0894e-07
9249.2, 6.1146e-07
9251.2, 6.852e-07
9253.2, 6.37e-07
9255.2, 6.5633e-07
9257.2, 7.1361e-07
9259.2, 6.5832e-07
9261.3, 6.2419e-07
9263.3, 6.2728e-07
9265.3, 6.9593e-07
9267.3, 6.5413e-07
9269.3, 6.9547e-07
9271.3, 6.1872e-07
9273.3, 5.3481e-07
9275.3, 6.5143e-07
9277.3, 6.6036e-07
9279.3, 6.7114e-07
9281.3, 5.9161e-07
9283.3, 6.1229e-07
9285.3, 6.8582e-07
9287.3, 6.7977e-07
9289.3, 6.5762e-07
9291.3, 6.9924e-07
9293.3, 6.5433e-07
9295.3, 6.9068e-07
9297.3, 6.0725e-07
9299.3, 6.2298e-07
9301.3, 6.9056e-07
9303.3, 6.6315e-07
9305.3, 6.8892e-07
9307.3, 6.7844e-07
9309.3, 6.4404e-07
9311.3, 6.6346e-07
9313.3, 6.0756e-07
9315.3, 5.9628e-07
9317.3, 7.4484e-07
9319.3, 6.5527e-07
9321.3, 7.018e-07
9323.3, 6.9756e-07
9325.3, 6.6577e-07
9327.3, 6.3771e-07
9329.3, 7.1806e-07
9331.3, 6.8617e-07
9333.3, 6.5643e-07
9335.3, 7.3832e-07
9337.3, 6.7497e-07
9339.3, 6.4992e-07
9341.3, 6.7729e-07
9343.3, 6.8284e-07
9345.3, 7.0121e-07
9347.3, 5.8339e-07
9349.3, 6.6843e-07
9351.3, 6.4537e-07
9353.3, 6.6131e-07
9355.3, 6.7213e-07
9357.3, 6.9037e-07
9359.3, 6.8418e-07
9361.4, 7.0605e-07
9363.4, 6.2898e-07
9365.4, 6.2624e-07
9367.4, 7.016e-07
9369.4, 6.9684e-07
9371.4, 6.8812e-07
9373.4, 6.4595e-07
9375.4, 7.2127e-07
9377.4, 7.1151e-07
9379.4, 6.775e-07
9381.4, 6.7552e-07
9383.4, 6.6517e-07
9385.4, 6.625e-07
9387.4, 7.3942e-07
9389.4, 6.9479e-07
9391.4, 6.1673e-07
9393.4, 6.3956e-07
9395.4, 6.9573e-07
9397.4, 6.8746e-07
9399.4, 6.9921e-07
9401.4, 6.7391e-07
9403.4, 7.1658e-07
9405.4, 6.1212e-07
9407.4, 6.6413e-07
9409.4, 6.8451e-07
9411.4, 6.9217e-07
9413.4, 6.169e-07
9415.4, 7.5949e-07
9417.4, 7.1461e-07
9419.4, 7.7181e-07
9421.4, 6.9414e-07
9423.4, 6.7048e-07
9425.4, 6.2905e-07
9427.4, 7.6106e-07
9429.4, 7.5256e-07
9431.4, 6.9844e-07
9433.4, 6.5277e-07
9435.4, 6.9434e-07
9437.4, 6.9947e-07
9439.4, 7.0655e-07
9441.4, 6.883e-07
9443.4, 6.9122e-07
9445.4, 6.6623e-07
9447.4, 6.5235e-07
9449.4, 6.253e-07
9451.4, 6.8701e-07
9453.4, 7.5644e-07
9455.4, 7.089e-07
9457.4, 6.6739e-07
9459.4, 6.3929e-07
9461.5, 6.9254e-07
9463.5, 6.7091e-07
9465.5, 6.8297e-07
9467.5, 6.4575e-07
9469.5, 7.1131e-07
9471.5, 7.3332e-07
9473.5, 8.1861e-07
9475.5, 6.3293e-07
9477.5, 6.7643e-07
9479.5, 7.1517e-07
9481.5, 7.598e-07
9483.5, 7.6061e-07
9485.5, 7.3773e-07
9487.5, 8.1706e-07
9489.5, 6.732e-07
9491.5, 6.9856e-07
9493.5, 7.2104e-07
9495.5, 7.5312e-07
9497.5, 7.7841e-07
9499.5, 7.5519e-07
9501.5, 7.3924e-07
9503.5, 7.7058e-07
9505.5, 7.1037e-07
9507.5, 6.3447e-07
9509.5, 7.254e-07
9511.5, 7.8448e-07
9513.5, 7.0999e-07
9515.5, 7.2363e-07
9517.5, 6.8577e-07
9519.5, 7.0498e-07
9521.5, 7.18e-07
9523.5, 6.5759e-07
9525.5, 7.8488e-07
9527.5, 8.4042e-07
9529.5, 7.3838e-07
9531.5, 6.8854e-07
9533.5, 7.1856e-07
9535.5, 6.4421e-07
9537.5, 7.2436e-07
9539.5, 6.8216e-07
9541.5, 7.3878e-07
9543.5, 7.0245e-07
9545.5, 6.7868e-07
9547.5, 6.9323e-07
9549.5, 7.409e-07
9551.5, 6.7252e-07
9553.5, 6.6232e-07
9555.5, 6.9559e-07
9557.5, 7.7962e-07
9559.5, 7.0124e-07
9561.6, 8.0808e-07
9563.6, 8.6743e-07
9565.6, 6.8727e-07
9567.6, 7.1851e-07
9569.6, 7.8239e-07
9571.6, 7.2664e-07
9573.6, 7.3115e-07
9575.6, 7.2773e-07
9577.6, 7.301e-07
9579.6, 7.2249e-07
9581.6, 7.3199e-07
9583.6, 7.5123e-07
9585.6, 6.6042e-07
9587.6, 7.4451e-07
9589.6, 6.7548e-07
9591.6, 7.7462e-07
9593.6, 6.6005e-07
9595.6, 7.7703e-07
9597.6, 7.2348e-07
9599.6, 7.5564e-07
9601.6, 8.0241e-07
9603.6, 7.499e-07
9605.6, 8.0902e-07
9607.6, 7.4158e-07
9609.6, 7.7008e-07
9611.6, 7.6911e-07
9613.6, 7.1091e-07
9615.6, 7.4963e-07
9617.6, 6.5322e-07
9619.6, 7.57e-07
9621.6, 6.8264e-07
9623.6, 6.7519e-07
9625.6, 7.0045e-07
9627.6, 6.9005e-07
9629.6, 7.0102e-07
9631.6, 7.505e-07
9633.6, 7.8552e-07
9635.6, 7.6103e-07
9637.6, 7.4786e-07
9639.6, 7.1078e-07
9641.6, 7.4029e-07
9643.6, 7.1963e-07
9645.6, 7.4128e-07
9647.6, 7.4022e-07
9649.6, 6.3008e-07
9651.6, 7.6922e-07
9653.6, 6.8504e-07
9655.6, 7.6996e-07
9657.6, 8.4191e-07
9659.6, 7.6277e-07
9661.7, 7.3826e-07
9663.7, 6.982e-07
9665.7, 7.4852e-07
9667.7, 7.4423e-07
9669.7, 6.6978e-07
9671.7, 8.367e-07
9673.7, 7.1405e-07
9675.7, 7.6862e-07
9677.7, 7.109e-07
9679.7, 6.6353e-07
9681.7, 7.9559e-07
9683.7, 8.6184e-07
9685.7, 6.6136e-07
9687.7, 7.1606e-07
9689.7, 6.9579e-07
9691.7, 7.4548e-07
9693.7, 6.8606e-07
9695.7, 7.2057e-07
9697.7, 7.0306e-07
9699.7, 8.9622e-07
9701.7, 7.4833e-07
9703.7, 8.0027e-07
9705.7, 7.2951e-07
9707.7, 7.1574e-07
9709.7, 7.1023e-07
9711.7, 6.4631e-07
9713.7, 7.8483e-07
9715.7, 7.2729e-07
9717.7, 7.6715e-07
9719.7, 7.8762e-07
9721.7, 7.5826e-07
9723.7, 6.5971e-07
9725.7, 7.726e-07
9727.7, 7.1937e-07
9729.7, 8.0041e-07
9731.7, 7.5028e-07
9733.7, 7.4365e-07
9735.7, 7.0991e-07
9737.7, 8.0175e-07
9739.7, 6.9104e-07
9741.7, 6.9458e-07
9743.7, 7.2385e-07
9745.7, 7.8603e-07
9747.7, 6.8339e-07
9749.7, 6.7514e-07
9751.7, 7.2996e-07
9753.7, 6.8236e-07
9755.7, 6.9748e-07
9757.7, 7.5982e-07
9759.7, 6.7143e-07
9761.8, 6.966e-07
9763.8, 6.3423e-07
9765.8, 6.9652e-07
9767.8, 7.6715e-07
9769.8, 7.0072e-07
9771.8, 7.6958e-07
9773.8, 7.9719e-07
9775.8, 6.8136e-07
9777.8, 7.4704e-07
9779.8, 7.6751e-07
9781.8, 7.6795e-07
9783.8, 6.8552e-07
9785.8, 7.6181e-07
9787.8, 7.572e-07
9789.8, 7.2953e-07
9791.8, 7.2212e-07
9793.8, 7.6645e-07
9795.8, 7.3944e-07
9797.8, 7.0545e-07
9799.8, 7.9271e-07
9801.8, 7.3606e-07
9803.8, 7.8403e-07
9805.8, 7.264e-07
9807.8, 7.6929e-07
9809.8, 6.6549e-07
9811.8, 6.7141e-07
9813.8, 6.8074e-07
9815.8, 8.2162e-07
9817.8, 7.5978e-07
9819.8, 7.5515e-07
9821.8, 6.5335e-07
9823.8, 7.0596e-07
9825.8, 7.5266e-07
9827.8, 6.9938e-07
9829.8, 6.9747e-07
9831.8, 7.7031e-07
9833.8, 7.5275e-07
9835.8, 7.964e-07
9837.8, 6.6184e-07
9839.8, 7.5492e-07
9841.8, 7.8931e-07
9843.8, 7.4212e-07
9845.8, 7.5393e-07
9847.8, 7.3447e-07
9849.8, 7.2891e-07
9851.8, 7.2262e-07
9853.8, 7.3919e-07
9855.8, 7.7577e-07
9857.8, 8.4778e-07
9859.8, 7.0669e-07
9861.9, 7.0196e-07
9863.9, 7.0001e-07
9865.9, 7.6001e-07
9867.9, 6.6506e-07
9869.9, 7.2306e-07
9871.9, 7.8971e-07
9873.9, 7.4572e-07
9875.9, 7.2441e-07
9877.9, 7.5398e-07
9879.9, 7.8286e-07
9881.9, 7.708e-07
9883.9, 7.6898e-07
9885.9, 6.9613e-07
9887.9, 7.7263e-07
9889.9, 7.5099e-07
9891.9, 7.8305e-07
9893.9, 7.3428e-07
9895.9, 7.8488e-07
9897.9, 8.1273e-07
9899.9, 7.6979e-07
9901.9, 6.5143e-07
9903.9, 7.5243e-07
9905.9, 7.3488e-07
9907.9, 7.8439e-07
9909.9, 7.0597e-07
9911.9, 6.633e-07
9913.9, 7.3837e-07
9915.9, 7.0837e-07
9917.9, 7.4487e-07
9919.9, 7.0998e-07
9921.9, 7.469e-07
9923.9, 7.5482e-07
9925.9, 7.212e-07
9927.9, 8.1238e-07
9929.9, 7.7078e-07
9931.9, 7.4291e-07
9933.9, 6.7498e-07
9935.9, 7.838e-07
9937.9, 7.7412e-07
9939.9, 7.2598e-07
9941.9, 6.9398e-07
9943.9, 7.3391e-07
9945.9, 7.4005e-07
9947.9, 8.2648e-07
9949.9, 7.9789e-07
9951.9, 6.7326e-07
9953.9, 6.9392e-07
9955.9, 6.7801e-07
9957.9, 7.2859e-07
9959.9, 7.1071e-07
9962.0, 6.9194e-07
9964.0, 7.0414e-07
9966.0, 7.0703e-07
9968.0, 7.7932e-07
9970.0, 8.0983e-07
9972.0, 7.1676e-07
9974.0, 8.3891e-07
9976.0, 8.5226e-07
9978.0, 7.0045e-07
9980.0, 7.8363e-07
9982.0, 8.1463e-07
9984.0, 7.944e-07
9986.0, 7.7478e-07
9988.0, 7.6305e-07
9990.0, 7.7035e-07
9992.0, 6.521e-07
9994.0, 6.8695e-07
9996.0, 7.616e-07
9998.0, 7.682e-07
10000.0, 7.2958e-07
10002.0, 8.0738e-07
10004.0, 7.4008e-07
10006.0, 6.2674e-07
10008.0, 7.119e-07
10010.0, 7.1687e-07
10012.0, 7.2503e-07
10014.0, 6.6257e-07
10016.0, 7.3933e-07
10018.0, 7.4705e-07
10020.0, 7.4652e-07
10022.0, 6.969e-07
10024.0, 7.2486e-07
10026.0, 6.4702e-07
10028.0, 7.469e-07
10030.0, 7.4629e-07
10032.0, 7.4518e-07
10034.0, 6.3243e-07
10036.0, 6.995e-07
10038.0, 6.7584e-07
10040.0, 7.29e-07
10042.0, 7.4679e-07
10044.0, 6.7236e-07
10046.0, 6.8354e-07
10048.0, 5.9922e-07
10050.0, 8.4745e-07
10052.0, 7.7977e-07
10054.0, 7.1703e-07
10056.0, 7.3682e-07
10058.0, 6.8146e-07
10060.0, 7.6447e-07
10062.0, 6.7347e-07
10064.0, 7.024e-07
10066.0, 6.7827e-07
10068.0, 7.0773e-07
10070.0, 6.9292e-07
10072.0, 7.8083e-07
10074.0, 8.2116e-07
10076.0, 7.9613e-07
10078.0, 7.7122e-07
10080.0, 8.0375e-07
10082.0, 7.8688e-07
10084.0, 8.7587e-07
10086.0, 7.1597e-07
10088.0, 7.4928e-07
10090.0, 7.4754e-07
10092.0, 7.9366e-07
10094.0, 7.4776e-07
10096.0, 7.6832e-07
10098.0, 6.6238e-07
10100.0, 7.128e-07
10102.0, 7.8076e-07
10104.0, 6.659e-07
10106.0, 7.3152e-07
10108.0, 7.589e-07
10110.0, 7.8598e-07
10112.0, 7.686e-07
10114.0, 7.2121e-07
10116.0, 6.4773e-07
10118.0, 8.1309e-07
10120.0, 7.0113e-07
10122.0, 6.9051e-07
10124.0, 7.3161e-07
10126.0, 8.241e-07
10128.0, 6.888e-07
10130.0, 7.986e-07
10132.0, 6.7012e-07
10134.0, 6.9518e-07
10136.0, 7.2391e-07
10138.0, 6.8927e-07
10140.0, 7.531e-07
10142.0, 7.4445e-07
10144.0, 7.1327e-07
10146.0, 7.2975e-07
10148.0, 7.7801e-07
10150.0, 7.7609e-07
10152.0, 6.7227e-07
10154.0, 7.2876e-07
10156.0, 7.7738e-07
10158.0, 8.0317e-07
10160.0, 8.1159e-07
10162.0, 7.457e-07
10164.0, 8.0509e-07
10166.0, 6.7693e-07
10168.0, 7.2962e-07
10170.0, 7.6816e-07
10172.0, 8.1218e-07
10174.0, 7.7028e-07
10176.0, 7.679e-07
10178.0, 7.6184e-07
10180.0, 7.4536e-07
10182.0, 7.2324e-07
10184.0, 7.9981e-07
10186.0, 6.2811e-07
10188.0, 7.4939e-07
10190.0, 7.4199e-07
10192.0, 6.7375e-07
10194.0, 6.9872e-07
10196.0, 7.7973e-07
10198.0, 7.8753e-07
10200.0, 7.0514e-07
10202.0, 8.2476e-07
10204.0, 7.5793e-07
10206.0, 7.4248e-07
10208.0, 6.6825e-07
10210.0, 7.8238e-07
10212.0, 2.8674e-07
10214.0, -3.694e-08
10216.0, -3.626e-08
10218.0, -3.344e-08
10220.0, -3.373e-08
10222.0, -3.729e-08
10224.0, -3.877e-08
10226.0, -3.863e-08
10228.0, -3.641e-08
10230.0, -3.807e-08
10232.0, -3.721e-08
10234.0, -4.053e-08
10236.0, -4.01e-08
10238.0, -3.806e-08
10240.0, -3.61e-08
10242.0, -3.847e-08
10244.0, -3.556e-08
10246.0, -4.007e-08
10248.0, -3.633e-08
10250.0, -3.971e-08
10252.0, -3.544e-08
10254.0, -3.747e-08
10256.0, -3.981e-08
10258.0, -3.897e-08
10260.0, -3.855e-08
10262.0, -3.789e-08
10264.0, -3.827e-08
10266.0, -3.765e-08
10268.0, -3.583e-08
10270.0, -3.46e-08
10272.0, -3.334e-08
10274.0, -3.93e-08
10276.0, -4.021e-08
10278.0, -3.969e-08
10280.0, -3.692e-08
10282.0, -3.163e-08
10284.0, -3.591e-08
10286.0, -3.726e-08
10288.0, -3.873e-08
10290.0, -3.491e-08
10292.0, -3.569e-08
10294.0, -3.563e-08
10296.0, -3.576e-08
10298.0, -3.481e-08
10300.0, -3.365e-08
10302.0, -3.578e-08
10304.0, -3.447e-08
10306.0, -3.279e-08
10308.0, -3.429e-08
10310.0, -3.278e-08
10312.0, -3.647e-08
10314.0, -3.47e-08
10316.0, -3.487e-08
10318.0, -3.657e-08
10320.0, -3.849e-08
10322.0, -3.453e-08
10324.0, -3.407e-08
10326.0, -3.301e-08
10328.0, -3.446e-08
10330.0, -3.591e-08
10332.0, -3.227e-08
10334.0, -3.48e-08
10336.0, -3.575e-08
10338.0, -3.909e-08
10340.0, -3.7e-08
10342.0, -3.761e-08
10344.0, -3.599e-08
10346.0, -3.875e-08
10348.0, -3.764e-08
10350.0, -3.656e-08
10352.0, -3.768e-08
10354.0, -3.67e-08
10356.0, -4.061e-08
10358.0, -3.85e-08
10360.0, -3.529e-08
10362.0, -3.615e-08
10364.0, -3.809e-08
10366.0, -3.598e-08
10368.0, -3.481e-08
10370.0, -3.997e-08
10372.0, -3.943e-08
10374.0, -4.08e-08
10376.0, -4.178e-08
10378.0, -3.613e-08
10380.0, -3.616e-08
10382.0, -3.398e-08
10384.0, -3.419e-08
10386.0, -3.413e-08
10388.0, -3.571e-08
10390.0, -3.214e-08
10392.0, -3.371e-08
10394.0, -3.781e-08
10396.0, -3.417e-08
10398.0, -3.35e-08
10400.0, -3.345e-08
10402.0, -4.009e-08
10404.0, -4.094e-08
10406.0, -3.868e-08
10408.0, -4.05e-08
10410.0, -4.129e-08
10412.0, -3.595e-08
10414.0, -3.917e-08
10416.0, -3.79e-08
10418.0, -3.795e-08
10420.0, -4.185e-08
10422.0, -3.907e-08
10424.0, -3.879e-08
10426.0, -4.09e-08
10428.0, -3.965e-08
10430.0, -3.945e-08
10432.0, -3.759e-08
10434.0, -3.899e-08
10436.0, -3.734e-08
10438.0, -3.751e-08
10440.0, -3.56e-08
10442.0, -3.681e-08
10444.0, -4.023e-08
10446.0, -3.966e-08
10448.0, -3.387e-08
10450.0, -3.783e-08
10452.0, -3.66e-08
10454.0, -3.912e-08
10456.0, -3.791e-08
10458.0, -3.73e-08
10460.0, -3.621e-08
10462.0, -3.669e-08
10464.0, -3.596e-08
10466.0, -3.587e-08
10468.0, -3.691e-08
10470.0, -3.9e-08
10472.0, -3.509e-08
10474.0, -3.885e-08
10476.0, -3.668e-08
10478.0, -4.208e-08
10480.0, -3.733e-08
10482.0, -3.702e-08
10484.0, -3.868e-08
10486.0, -4.051e-08
10488.0, -3.797e-08
10490.0, -3.951e-08
10492.0, -3.587e-08
10494.0, -3.604e-08
10496.0, -3.71e-08
10498.0, -3.51e-08
10500.0, -3.646e-08
10502.0, -3.528e-08
10504.0, -3.289e-08
10506.0, -3.219e-08
10508.0, -3.211e-08
10510.0, -3.742e-08
10513.0, -3.422e-08
10515.0, -3.303e-08
10517.0, -3.499e-08
10519.0, -3.428e-08
10521.0, -3.691e-08
10523.0, -3.783e-08
10525.0, -3.789e-08
10527.0, -3.5e-08
10529.0, -3.83e-08
10531.0, -3.316e-08
10533.0, -3.374e-08
10535.0, -3.735e-08
10537.0, -3.314e-08
10539.0, -3.534e-08
10541.0, -3.304e-08
10543.0, -3.259e-08
10545.0, -3.824e-08
10547.0, -3.493e-08
10549.0, -3.389e-08
10551.0, -3.269e-08
10553.0, -3.87e-08
10555.0, -3.742e-08
10557.0, -3.915e-08
10559.0, -3.7e-08
10561.0, -3.774e-08
10563.0, -3.91e-08
10565.0, -3.745e-08
10567.0, -3.59e-08
10569.0, -3.604e-08
10571.0, -3.548e-08
10573.0, -3.629e-08
10575.0, -3.579e-08
10577.0, -3.863e-08
10579.0, -3.713e-08
10581.0, -4.138e-08
10583.0, -3.553e-08
10585.0, -3.641e-08
10587.0, -3.557e-08
10589.0, -3.503e-08
10591.0, -3.486e-08
10593.0, -3.64e-08
10595.0, -3.448e-08
10597.0, -3.45e-08
10599.0, -3.689e-08
10601.0, -3.737e-08
10603.0, -3.897e-08
10605.0, -3.725e-08
10607.0, -3.673e-08
10609.0, -3.743e-08
10611.0, -3.255e-08
10613.0, -3.699e-08
10615.0, -3.539e-08
10617.0, -3.773e-08
10619.0, -3.505e-08
10621.0, -3.627e-08
10623.0, -3.728e-08
10625.0, -3.904e-08
10627.0, -3.992e-08
10629.0, -4.115e-08
10631.0, -3.819e-08
10633.0, -4.18e-08
10635.0, -3.728e-08
10637.0, -3.996e-08
10639.0, -3.636e-08
10641.0, -3.585e-08
10643.0, -3.572e-08
10645.0, -3.606e-08
10647.0, -3.715e-08
10649.0, -3.707e-08
10651.0, -3.919e-08
10653.0, -3.924e-08
10655.0, -3.88e-08
10657.0, -3.848e-08
10659.0, -3.56e-08
10661.0, -4.093e-08
10663.0, -3.525e-08
10665.0, -3.744e-08
10667.0, -3.647e-08
10669.0, -3.517e-08
10671.0, -3.823e-08
10673.0, -3.406e-08
10675.0, -3.639e-08
10677.0, -3.491e-08
10679.0, -3.881e-08
10681.0, -4.051e-08
10683.0, -3.96e-08
10685.0, -3.894e-08
10687.0, -4.164e-08
10689.0, -3.752e-08
10691.0, -4.154e-08
10693.0, -3.972e-08
10695.0, -4.089e-08
10697.0, -3.98e-08
10699.0, -4.373e-08
10701.0, -4.034e-08
10703.0, -3.851e-08
10705.0, -3.673e-08
10707.0, -3.674e-08
10709.0, -3.575e-08
10711.0, -4.055e-08
10713.0, -3.416e-08
10715.0, -3.632e-08
10717.0, -4.023e-08
10719.0, -3.507e-08
10721.0, -3.817e-08
10723.0, -3.924e-08
10725.0, -3.689e-08
10727.0, -3.568e-08
10729.0, -3.943e-08
10731.0, -3.899e-08
10733.0, -3.753e-08
10735.0, -4.084e-08
10737.0, -3.841e-08
10739.0, -3.956e-08
10741.0, -3.681e-08
10743.0, -3.673e-08
10745.0, -4.201e-08
10747.0, -4.33e-08
10749.0, -4.118e-08
10751.0, -4.27e-08
10753.0, -4.277e-08
10755.0, -3.734e-08
10757.0, -4.022e-08
10759.0, -3.887e-08
10761.0, -3.729e-08
10763.0, -3.796e-08
10765.0, -3.999e-08
10767.0, -3.682e-08
10769.0, -4.15e-08
10771.0, -3.698e-08
10773.0, -3.906e-08
10775.0, -3.995e-08
10777.0, -3.982e-08
10779.0, -3.867e-08
10781.0, -4.011e-08
10783.0, -3.784e-08
10785.0, -4.086e-08
10787.0, -3.661e-08
10789.0, -3.833e-08
10791.0, -3.351e-08
10793.0, -3.652e-08
10795.0, -3.41e-08
10797.0, -3.342e-08
10799.0, -3.728e-08
10801.0, -3.775e-08
10803.0, -3.759e-08
10805.0, -3.529e-08
10807.0, -3.836e-08
10809.0, -3.592e-08
10811.0, -3.693e-08
10813.0, -4.024e-08
10815.0, -4.011e-08
10817.0, -4.149e-08
10819.0, -3.662e-08
10821.0, -3.578e-08
10823.0, -3.94e-08
10825.0, -4.336e-08
10827.0, -4.462e-08
10829.0, -4.166e-08
10831.0, -4.067e-08
10833.0, -4.3e-08
10835.0, -4.052e-08
10837.0, -3.712e-08
10839.0, -3.617e-08
10841.0, -3.706e-08
10843.0, -3.686e-08
10845.0, -3.818e-08
10847.0, -3.601e-08
10849.0, -3.889e-08
10851.0, -3.775e-08
10853.0, -3.648e-08
10855.0, -3.77e-08
10857.0, -3.506e-08
10859.0, -3.533e-08
10861.0, -3.439e-08
10863.0, -3.378e-08
10865.0, -3.775e-08
10867.0, -3.732e-08
10869.0, -3.464e-08
10871.0, -3.471e-08
10873.0, -3.512e-08
10875.0, -3.72e-08
10877.0, -3.503e-08
10879.0, -3.759e-08
10881.0, -3.691e-08
10883.0, -3.621e-08
10885.0, -3.552e-08
10887.0, -3.746e-08
10889.0, -3.599e-08
10891.0, -3.87e-08
10893.0, -3.715e-08
10895.0, -3.864e-08
10897.0, -3.846e-08
10899.0, -3.679e-08
10901.0, -3.201e-08
10903.0, -3.487e-08
10905.0, -3.437e-08
10907.0, -3.576e-08
10909.0, -3.192e-08
10911.0, -3.491e-08
10913.0, -3.927e-08
10915.0, -3.674e-08
10917.0, -3.837e-08
10919.0, -3.624e-08
10921.0, -3.701e-08
10923.0, -3.713e-08
10925.0, -4.106e-08
10927.0, -3.7e-08
10929.0, -3.683e-08
10931.0, -3.683e-08
10933.0, -3.689e-08
10935.0, -3.726e-08
10937.0, -3.143e-08
10939.0, -3.531e-08
10941.0, -3.536e-08
10943.0, -3.456e-08
10945.0, -3.425e-08
10947.0, -3.662e-08
10949.0, -3.175e-08
10951.0, -3.249e-08
10953.0, -3.173e-08
10955.0, -3.114e-08
10957.0, -3.819e-08
10959.0, -3.652e-08
10961.0, -3.564e-08
10963.0, -3.862e-08
10965.0, -3.383e-08
10967.0, -3.651e-08
10969.0, -3.598e-08
10971.0, -3.077e-08
10973.0, -3.362e-08
10975.0, -3.572e-08
10977.0, -3.516e-08
10979.0, -3.649e-08
10981.0, -3.646e-08
10983.0, -3.533e-08
10985.0, -3.145e-08
10987.0, -3.207e-08
10989.0, -3.007e-08
10991.0, -3.316e-08
10993.0, -2.994e-08
10995.0, -3.359e-08
10997.0, -3.595e-08
10999.0, -3.236e-08
11001.0, -3.617e-08
11003.0, -3.59e-08
11005.0, -3.81e-08
11007.0, -3.737e-08
11009.0, -3.439e-08
