Time sep (ms?), Current (A)
0.0, -3.634e-08
2.002, -3.366e-08
4.004, -3.455e-08
6.006, -3.532e-08
8.008, -3.704e-08
10.01, -3.912e-08
12.012, -3.762e-08
14.014, -3.668e-08
16.016, -3.528e-08
18.018, -3.879e-08
20.02, -3.947e-08
22.022, -3.559e-08
24.024, -3.409e-08
26.026, -3.132e-08
28.028, -3.524e-08
30.03, -3.519e-08
32.032, -3.584e-08
34.034, -3.505e-08
36.036, -3.409e-08
38.038, -3.584e-08
40.04, -3.848e-08
42.042, -3.77e-08
44.044, -4e-08
46.046, -3.853e-08
48.048, -3.826e-08
50.05, -3.769e-08
52.052, -3.566e-08
54.054, -3.59e-08
56.056, -4.036e-08
58.058, -3.964e-08
60.06, -4.144e-08
62.062, -3.898e-08
64.064, -4.141e-08
66.066, -3.786e-08
68.068, -3.871e-08
70.07, -4.216e-08
72.072, -3.537e-08
74.074, -3.599e-08
76.076, -3.878e-08
78.078, -4.034e-08
80.08, -3.745e-08
82.082, -3.715e-08
84.084, -4.15e-08
86.086, -3.754e-08
88.088, -3.667e-08
90.09, -3.725e-08
92.092, -3.5e-08
94.094, -3.822e-08
96.096, -3.766e-08
98.098, -3.864e-08
100.1, -4.134e-08
102.1, -4.105e-08
104.1, -4.023e-08
106.11, -4.291e-08
108.11, -3.973e-08
110.11, -4.065e-08
112.11, -4.539e-08
114.11, -4.19e-08
116.12, -3.947e-08
118.12, -4.118e-08
120.12, -3.771e-08
122.12, -4.16e-08
124.12, -3.926e-08
126.13, -3.817e-08
128.13, -3.901e-08
130.13, -3.465e-08
132.13, -3.886e-08
134.13, -3.843e-08
136.14, -3.988e-08
138.14, -4.139e-08
140.14, -3.865e-08
142.14, -3.795e-08
144.14, -3.739e-08
146.15, -3.841e-08
148.15, -4.127e-08
150.15, -3.929e-08
152.15, -3.704e-08
154.15, -3.788e-08
156.16, -3.929e-08
158.16, -4.03e-08
160.16, -3.78e-08
162.16, -4.125e-08
164.16, -3.853e-08
166.17, -4.078e-08
168.17, -4.261e-08
170.17, -4.39e-08
172.17, -4.235e-08
174.17, -3.923e-08
176.18, -4.076e-08
178.18, -4.012e-08
180.18, -4.045e-08
182.18, -3.999e-08
184.18, -3.732e-08
186.19, -4.068e-08
188.19, -4.164e-08
190.19, -4.136e-08
192.19, -4.097e-08
194.19, -3.958e-08
196.2, -4.06e-08
198.2, -3.872e-08
200.2, -3.734e-08
202.2, -3.598e-08
204.2, -3.578e-08
206.21, -3.452e-08
208.21, -3.902e-08
210.21, -4.27e-08
212.21, -3.643e-08
214.21, -4.011e-08
216.22, -4.532e-08
218.22, -3.998e-08
220.22, -4.006e-08
222.22, -3.946e-08
224.22, -3.574e-08
226.23, -3.527e-08
228.23, -3.875e-08
230.23, -3.612e-08
232.23, -3.714e-08
234.23, -3.704e-08
236.24, -3.782e-08
238.24, -3.802e-08
240.24, -3.856e-08
242.24, -3.903e-08
244.24, -3.791e-08
246.25, -3.899e-08
248.25, -4.124e-08
250.25, -3.925e-08
252.25, -3.572e-08
254.25, -3.179e-08
256.26, -3.581e-08
258.26, -3.721e-08
260.26, -3.599e-08
262.26, -3.359e-08
264.26, -3.404e-08
266.27, -3.501e-08
268.27, -3.814e-08
270.27, -3.757e-08
272.27, -3.658e-08
274.27, -3.791e-08
276.28, -3.803e-08
278.28, -3.744e-08
280.28, -3.28e-08
282.28, -3.769e-08
284.28, -3.423e-08
286.29, -3.887e-08
288.29, -3.403e-08
290.29, -3.606e-08
292.29, -3.217e-08
294.29, -3.421e-08
296.3, -3.295e-08
298.3, -3.389e-08
300.3, -3.33e-08
302.3, -3.494e-08
304.3, -3.658e-08
306.31, -3.59e-08
308.31, -3.639e-08
310.31, -3.533e-08
312.31, -3.751e-08
314.31, -3.413e-08
316.32, -3.859e-08
318.32, -3.321e-08
320.32, -4.334e-08
322.32, -3.908e-08
324.32, -3.747e-08
326.33, -3.893e-08
328.33, -3.594e-08
330.33, -3.704e-08
332.33, -3.709e-08
334.33, -3.417e-08
336.34, -3.895e-08
338.34, -3.812e-08
340.34, -3.857e-08
342.34, -3.707e-08
344.34, -3.652e-08
346.35, -3.537e-08
348.35, -3.819e-08
350.35, -3.818e-08
352.35, -3.466e-08
354.35, -3.762e-08
356.36, -3.764e-08
358.36, -3.378e-08
360.36, -3.963e-08
362.36, -3.662e-08
364.36, -3.802e-08
366.37, -3.426e-08
368.37, -3.344e-08
370.37, -3.555e-08
372.37, -3.58e-08
374.37, -3.456e-08
376.38, -3.695e-08
378.38, -3.566e-08
380.38, -3.624e-08
382.38, -3.35e-08
384.38, -3.743e-08
386.39, -3.652e-08
388.39, -3.72e-08
390.39, -3.939e-08
392.39, -3.73e-08
394.39, -3.473e-08
396.4, -3.616e-08
398.4, -3.564e-08
400.4, -3.401e-08
402.4, -3.58e-08
404.4, -3.421e-08
406.41, -3.884e-08
408.41, -3.843e-08
410.41, -3.971e-08
412.41, -3.942e-08
414.41, -3.695e-08
416.42, -3.846e-08
418.42, -3.924e-08
420.42, -4.359e-08
422.42, -3.778e-08
424.42, -4.029e-08
426.43, -4.051e-08
428.43, -3.75e-08
430.43, -3.937e-08
432.43, -3.868e-08
434.43, -3.843e-08
436.44, -3.991e-08
438.44, -3.624e-08
440.44, -3.79e-08
442.44, -3.992e-08
444.44, -3.71e-08
446.45, -3.995e-08
448.45, -3.967e-08
450.45, -4.222e-08
452.45, -3.846e-08
454.45, -3.655e-08
456.46, -3.467e-08
458.46, -3.476e-08
460.46, -3.631e-08
462.46, -3.59e-08
464.46, -3.637e-08
466.47, -3.792e-08
468.47, -3.707e-08
470.47, -3.912e-08
472.47, -3.787e-08
474.47, -3.435e-08
476.48, -3.854e-08
478.48, -3.718e-08
480.48, -3.782e-08
482.48, -3.692e-08
484.48, -3.848e-08
486.49, -3.173e-08
488.49, -3.803e-08
490.49, -3.73e-08
492.49, -3.734e-08
494.49, -3.654e-08
496.5, -3.782e-08
498.5, -3.631e-08
500.5, -3.561e-08
502.5, -3.459e-08
504.5, -3.845e-08
506.51, -3.911e-08
508.51, -3.712e-08
510.51, -3.773e-08
512.51, -3.698e-08
514.51, -3.587e-08
516.52, -3.993e-08
518.52, -3.939e-08
520.52, -4.015e-08
522.52, -3.83e-08
524.52, -3.612e-08
526.53, -3.541e-08
528.53, -3.577e-08
530.53, -3.44e-08
532.53, -3.598e-08
534.53, -3.479e-08
536.54, -3.44e-08
538.54, -3.322e-08
540.54, -3.661e-08
542.54, -3.542e-08
544.54, -3.511e-08
546.55, -3.506e-08
548.55, -3.775e-08
550.55, -3.795e-08
552.55, -3.607e-08
554.55, -3.572e-08
556.56, -3.81e-08
558.56, -3.785e-08
560.56, -3.763e-08
562.56, -3.671e-08
564.56, -3.72e-08
566.57, -4.027e-08
568.57, -4.322e-08
570.57, -3.655e-08
572.57, -3.363e-08
574.57, -3.615e-08
576.58, -3.529e-08
578.58, -3.7e-08
580.58, -3.854e-08
582.58, -3.577e-08
584.58, -3.866e-08
586.59, -3.627e-08
588.59, -3.536e-08
590.59, -3.578e-08
592.59, -3.779e-08
594.59, -3.801e-08
596.6, -3.483e-08
598.6, -3.369e-08
600.6, -3.637e-08
602.6, -3.504e-08
604.6, -3.563e-08
606.61, -3.829e-08
608.61, -4.014e-08
610.61, -4.075e-08
612.61, -3.556e-08
614.61, -3.656e-08
616.62, -3.391e-08
618.62, -3.574e-08
620.62, -3.4e-08
622.62, -3.522e-08
624.62, -3.561e-08
626.63, -3.713e-08
628.63, -3.689e-08
630.63, -3.361e-08
632.63, -3.614e-08
634.63, -3.741e-08
636.64, -3.98e-08
638.64, -3.592e-08
640.64, -3.684e-08
642.64, -3.81e-08
644.64, -3.826e-08
646.65, -3.303e-08
648.65, -3.376e-08
650.65, -3.434e-08
652.65, -2.922e-08
654.65, -3.622e-08
656.66, -3.591e-08
658.66, -3.517e-08
660.66, -3.467e-08
662.66, -3.058e-08
664.66, -3.226e-08
666.67, -3.49e-08
668.67, -3.7e-08
670.67, -3.367e-08
672.67, -2.902e-08
674.67, -3.377e-08
676.68, -3.718e-08
678.68, -3.499e-08
680.68, -3.841e-08
682.68, -3.626e-08
684.68, -3.718e-08
686.69, -3.769e-08
688.69, -3.692e-08
690.69, -3.797e-08
692.69, -3.672e-08
694.69, -3.915e-08
696.7, -4.102e-08
698.7, -3.947e-08
700.7, -3.912e-08
702.7, -3.809e-08
704.7, -3.786e-08
706.71, -4.029e-08
708.71, -3.594e-08
710.71, -3.883e-08
712.71, -3.816e-08
714.71, -3.598e-08
716.72, -3.616e-08
718.72, -3.792e-08
720.72, -3.903e-08
722.72, -3.677e-08
724.72, -3.696e-08
726.73, -3.77e-08
728.73, -3.991e-08
730.73, -3.905e-08
732.73, -4.081e-08
734.73, -3.933e-08
736.74, -4.056e-08
738.74, -4.19e-08
740.74, -4.064e-08
742.74, -4.008e-08
744.74, -3.696e-08
746.75, -3.761e-08
748.75, -4.146e-08
750.75, -3.625e-08
752.75, -4.007e-08
754.75, -4.254e-08
756.76, -4.157e-08
758.76, -4.056e-08
760.76, -4.312e-08
762.76, -4.118e-08
764.76, -3.776e-08
766.77, -4.273e-08
768.77, -4.115e-08
770.77, -3.81e-08
772.77, -3.574e-08
774.77, -3.702e-08
776.78, -3.652e-08
778.78, -3.603e-08
780.78, -3.625e-08
782.78, -3.335e-08
784.78, -3.475e-08
786.79, -3.813e-08
788.79, -3.392e-08
790.79, -3.481e-08
792.79, -3.605e-08
794.79, -3.42e-08
796.8, -3.579e-08
798.8, -3.713e-08
800.8, -3.599e-08
802.8, -3.718e-08
804.8, -4.033e-08
806.81, -3.841e-08
808.81, -4.119e-08
810.81, -3.966e-08
812.81, -3.568e-08
814.81, -3.487e-08
816.82, -3.421e-08
818.82, -3.733e-08
820.82, -3.458e-08
822.82, -3.326e-08
824.82, -3.17e-08
826.83, -3.432e-08
828.83, -3.404e-08
830.83, -3.531e-08
832.83, -3.37e-08
834.83, -3.217e-08
836.84, -3.22e-08
838.84, -3.465e-08
840.84, -3.345e-08
842.84, -3.355e-08
844.84, -3.536e-08
846.85, -3.454e-08
848.85, -3.874e-08
850.85, -3.789e-08
852.85, -3.472e-08
854.85, -3.791e-08
856.86, -3.715e-08
858.86, -3.775e-08
860.86, -3.754e-08
862.86, -3.801e-08
864.86, -3.894e-08
866.87, -3.517e-08
868.87, -3.425e-08
870.87, -3.637e-08
872.87, -3.493e-08
874.87, -3.753e-08
876.88, -4.294e-08
878.88, -3.998e-08
880.88, -3.782e-08
882.88, -4.006e-08
884.88, -3.803e-08
886.89, -3.569e-08
888.89, -4.054e-08
890.89, -3.932e-08
892.89, -3.68e-08
894.89, -3.507e-08
896.9, -3.611e-08
898.9, -4.275e-08
900.9, -3.968e-08
902.9, -4.113e-08
904.9, -3.971e-08
906.91, -3.716e-08
908.91, -3.875e-08
910.91, -3.898e-08
912.91, -4.129e-08
914.91, -3.944e-08
916.92, -3.752e-08
918.92, -3.999e-08
920.92, -3.707e-08
922.92, -4.148e-08
924.92, -4.009e-08
926.93, -3.862e-08
928.93, -4.152e-08
930.93, -3.924e-08
932.93, -3.775e-08
934.93, -3.823e-08
936.94, -3.854e-08
938.94, -3.99e-08
940.94, -4.23e-08
942.94, -3.83e-08
944.94, -3.971e-08
946.95, -3.927e-08
948.95, -3.755e-08
950.95, -3.956e-08
952.95, -3.445e-08
954.95, -3.408e-08
956.96, -3.393e-08
958.96, -3.699e-08
960.96, -3.58e-08
962.96, -3.771e-08
964.96, -3.395e-08
966.97, -3.852e-08
968.97, -3.647e-08
970.97, -3.766e-08
972.97, -4.087e-08
974.97, -3.794e-08
976.98, -3.902e-08
978.98, -3.797e-08
980.98, -3.512e-08
982.98, -3.574e-08
984.98, -3.437e-08
986.99, -3.425e-08
988.99, -3.882e-08
990.99, -3.712e-08
992.99, -3.42e-08
994.99, -3.708e-08
997.0, -3.552e-08
999.0, -3.728e-08
1001.0, -3.424e-08
1003.0, -3.694e-08
1005.0, -3.802e-08
1007.0, -3.672e-08
1009.0, -3.674e-08
1011.0, -3.766e-08
1013.0, -3.402e-08
1015.0, -3.759e-08
1017.0, -3.724e-08
1019.0, -3.374e-08
1021.0, -3.5e-08
1023.0, -3.206e-08
1025.0, -3.332e-08
1027.0, -3.308e-08
1029.0, -3.263e-08
1031.0, -3.294e-08
1033.0, -3.415e-08
1035.0, -3.186e-08
1037.0, -3.322e-08
1039.0, -3.361e-08
1041.0, -3.417e-08
1043.0, -3.661e-08
1045.0, -3.246e-08
1047.0, -3.433e-08
1049.0, -3.208e-08
1051.0, -3.237e-08
1053.1, 5.8813e-07
1055.1, 6.4529e-07
1057.1, 5.0802e-07
1059.1, 6.5781e-07
1061.1, 5.9583e-07
1063.1, 6.2228e-07
1065.1, 6.1483e-07
1067.1, 5.7971e-07
1069.1, 6.2466e-07
1071.1, 5.9113e-07
1073.1, 5.6212e-07
1075.1, 6.506e-07
1077.1, 6.7603e-07
1079.1, 5.8742e-07
1081.1, 6.7474e-07
1083.1, 5.9947e-07
1085.1, 6.2133e-07
1087.1, 6.6405e-07
1089.1, 7.1187e-07
1091.1, 6.0298e-07
1093.1, 7.6225e-07
1095.1, 5.6577e-07
1097.1, 6.3318e-07
1099.1, 6.7363e-07
1101.1, 6.3784e-07
1103.1, 5.9392e-07
1105.1, 6.2777e-07
1107.1, 6.2848e-07
1109.1, 6.6307e-07
1111.1, 6.4967e-07
1113.1, 5.9421e-07
1115.1, 6.2385e-07
1117.1, 7.2321e-07
1119.1, 7.1687e-07
1121.1, 7.3102e-07
1123.1, 6.7314e-07
1125.1, 6.9036e-07
1127.1, 6.2259e-07
1129.1, 7.7426e-07
1131.1, 6.0312e-07
1133.1, 6.0987e-07
1135.1, 6.9437e-07
1137.1, 6.0336e-07
1139.1, 6.6045e-07
1141.1, 6.7327e-07
1143.1, 7.4272e-07
1145.1, 6.612e-07
1147.1, 7.2562e-07
1149.1, 6.454e-07
1151.1, 6.3295e-07
1153.2, 6.5786e-07
1155.2, 7.2191e-07
1157.2, 6.44e-07
1159.2, 6.1666e-07
1161.2, 5.7562e-07
1163.2, 6.8299e-07
1165.2, 7.2898e-07
1167.2, 7.3882e-07
1169.2, 6.9034e-07
1171.2, 6.5498e-07
1173.2, 7.1801e-07
1175.2, 7.0026e-07
1177.2, 6.6411e-07
1179.2, 7.4811e-07
1181.2, 6.8505e-07
1183.2, 6.6456e-07
1185.2, 6.6535e-07
1187.2, 7.0383e-07
1189.2, 6.6172e-07
1191.2, 6.6071e-07
1193.2, 6.9637e-07
1195.2, 7.6635e-07
1197.2, 7.3647e-07
1199.2, 6.7666e-07
1201.2, 7.2622e-07
1203.2, 7.1988e-07
1205.2, 6.9867e-07
1207.2, 5.564e-07
1209.2, 7.1109e-07
1211.2, 6.5215e-07
1213.2, 6.1722e-07
1215.2, 6.8706e-07
1217.2, 7.3324e-07
1219.2, 6.898e-07
1221.2, 7.3896e-07
1223.2, 6.2709e-07
1225.2, 6.8387e-07
1227.2, 7.8178e-07
1229.2, 7.1144e-07
1231.2, 7.6017e-07
1233.2, 7.0363e-07
1235.2, 6.0261e-07
1237.2, 7.2817e-07
1239.2, 6.3427e-07
1241.2, 7.4498e-07
1243.2, 7.163e-07
1245.2, 6.4367e-07
1247.2, 6.9392e-07
1249.2, 6.6149e-07
1251.2, 6.8463e-07
1253.3, 6.5612e-07
1255.3, 7.7228e-07
1257.3, 6.4905e-07
1259.3, 6.5416e-07
1261.3, 7.4881e-07
1263.3, 7.2913e-07
1265.3, 6.8531e-07
1267.3, 6.6705e-07
1269.3, 6.4718e-07
1271.3, 6.6325e-07
1273.3, 6.7736e-07
1275.3, 6.5905e-07
1277.3, 7.0855e-07
1279.3, 6.9025e-07
1281.3, 6.3833e-07
1283.3, 7.1008e-07
1285.3, 6.3423e-07
1287.3, 7.0252e-07
1289.3, 7.0569e-07
1291.3, 7.3427e-07
1293.3, 7.0787e-07
1295.3, 7.7292e-07
1297.3, 6.8949e-07
1299.3, 6.7019e-07
1301.3, 7.0561e-07
1303.3, 6.7151e-07
1305.3, 7.1344e-07
1307.3, 7.6125e-07
1309.3, 7.061e-07
1311.3, 7.2333e-07
1313.3, 6.7331e-07
1315.3, 6.6501e-07
1317.3, 6.3549e-07
1319.3, 7.4714e-07
1321.3, 7.6803e-07
1323.3, 6.9262e-07
1325.3, 7.1282e-07
1327.3, 7.5124e-07
1329.3, 7.4631e-07
1331.3, 7.114e-07
1333.3, 6.9319e-07
1335.3, 8.139e-07
1337.3, 7.0097e-07
1339.3, 7.8636e-07
1341.3, 6.838e-07
1343.3, 6.9902e-07
1345.3, 6.8437e-07
1347.3, 8.0997e-07
1349.3, 7.6018e-07
1351.3, 6.4683e-07
1353.4, 8.3154e-07
1355.4, 6.9199e-07
1357.4, 7.5762e-07
1359.4, 6.0881e-07
1361.4, 6.5556e-07
1363.4, 7.7378e-07
1365.4, 6.636e-07
1367.4, 8.1533e-07
1369.4, 7.4122e-07
1371.4, 7.3996e-07
1373.4, 6.8917e-07
1375.4, 6.7794e-07
1377.4, 7.0732e-07
1379.4, 6.757e-07
1381.4, 6.8178e-07
1383.4, 7.8523e-07
1385.4, 8.3995e-07
1387.4, 7.0832e-07
1389.4, 6.6371e-07
1391.4, 7.9443e-07
1393.4, 7.047e-07
1395.4, 6.9389e-07
1397.4, 6.884e-07
1399.4, 7.0096e-07
1401.4, 7.2488e-07
1403.4, 6.6351e-07
1405.4, 7.2949e-07
1407.4, 6.9693e-07
1409.4, 7.2737e-07
1411.4, 7.275e-07
1413.4, 6.9294e-07
1415.4, 7.5353e-07
1417.4, 7.195e-07
1419.4, 6.6469e-07
1421.4, 6.6923e-07
1423.4, 6.3258e-07
1425.4, 7.5857e-07
1427.4, 7.3528e-07
1429.4, 7.1693e-07
1431.4, 6.7824e-07
1433.4, 6.9795e-07
1435.4, 6.4275e-07
1437.4, 7.3789e-07
1439.4, 7.6643e-07
1441.4, 7.246e-07
1443.4, 6.8392e-07
1445.4, 7.3997e-07
1447.4, 6.6479e-07
1449.4, 7.0854e-07
1451.4, 7.0664e-07
1453.5, 7.0534e-07
1455.5, 6.8714e-07
1457.5, 7.0076e-07
1459.5, 7.5046e-07
1461.5, 7.4653e-07
1463.5, 7.5423e-07
1465.5, 7.197e-07
1467.5, 6.8822e-07
1469.5, 6.9997e-07
1471.5, 6.7105e-07
1473.5, 7.2728e-07
1475.5, 7.303e-07
1477.5, 7.5886e-07
1479.5, 7.0996e-07
1481.5, 7.4954e-07
1483.5, 7.3506e-07
1485.5, 6.8171e-07
1487.5, 7.1544e-07
1489.5, 7.0087e-07
1491.5, 7.2692e-07
1493.5, 6.999e-07
1495.5, 7.2917e-07
1497.5, 7.8097e-07
1499.5, 7.4008e-07
1501.5, 6.837e-07
1503.5, 7.6428e-07
1505.5, 6.8706e-07
1507.5, 7.72e-07
1509.5, 7.1295e-07
1511.5, 7.6514e-07
1513.5, 7.2316e-07
1515.5, 6.6705e-07
1517.5, 7.0745e-07
1519.5, 6.671e-07
1521.5, 7.5006e-07
1523.5, 6.8394e-07
1525.5, 7.4717e-07
1527.5, 6.4855e-07
1529.5, 6.8783e-07
1531.5, 7.2061e-07
1533.5, 6.7688e-07
1535.5, 7.1665e-07
1537.5, 7.3432e-07
1539.5, 7.7304e-07
1541.5, 7.3204e-07
1543.5, 6.9806e-07
1545.5, 7.2386e-07
1547.5, 6.4243e-07
1549.5, 6.388e-07
1551.5, 6.7074e-07
1553.6, 7.2365e-07
1555.6, 7.6901e-07
1557.6, 8.1704e-07
1559.6, 7.3071e-07
1561.6, 7.0475e-07
1563.6, 7.0476e-07
1565.6, 6.6267e-07
1567.6, 7.2424e-07
1569.6, 6.7154e-07
1571.6, 6.7055e-07
1573.6, 7.7692e-07
1575.6, 6.9878e-07
1577.6, 7.1841e-07
1579.6, 6.3193e-07
1581.6, 6.9754e-07
1583.6, 7.3681e-07
1585.6, 7.4595e-07
1587.6, 7.8439e-07
1589.6, 6.6034e-07
1591.6, 7.0061e-07
1593.6, 6.4502e-07
1595.6, 7.6125e-07
1597.6, 7.3283e-07
1599.6, 7.6537e-07
1601.6, 7.271e-07
1603.6, 7.3616e-07
1605.6, 7.0446e-07
1607.6, 7.0719e-07
1609.6, 7.2528e-07
1611.6, 7.1979e-07
1613.6, 7.0305e-07
1615.6, 7.0164e-07
1617.6, 7.2502e-07
1619.6, 6.7052e-07
1621.6, 7.8628e-07
1623.6, 7.4909e-07
1625.6, 7.5981e-07
1627.6, 7.2844e-07
1629.6, 6.9365e-07
1631.6, 7.3879e-07
1633.6, 8.0024e-07
1635.6, 7.2463e-07
1637.6, 7.691e-07
1639.6, 7.0852e-07
1641.6, 7.6707e-07
1643.6, 8.3317e-07
1645.6, 7.8619e-07
1647.6, 7.1702e-07
1649.6, 6.7222e-07
1651.6, 7.5634e-07
1653.7, 6.8225e-07
1655.7, 6.9406e-07
1657.7, 6.7104e-07
1659.7, 7.5701e-07
1661.7, 6.7519e-07
1663.7, 7.0458e-07
1665.7, 8.1915e-07
1667.7, 7.1601e-07
1669.7, 7.4757e-07
1671.7, 7.2297e-07
1673.7, 6.6275e-07
1675.7, 7.02e-07
1677.7, 6.4643e-07
1679.7, 8.0154e-07
1681.7, 6.8617e-07
1683.7, 7.28e-07
1685.7, 7.5346e-07
1687.7, 7.6697e-07
1689.7, 6.7151e-07
1691.7, 6.7587e-07
1693.7, 6.5552e-07
1695.7, 7.2792e-07
1697.7, 7.3408e-07
1699.7, 7.1009e-07
1701.7, 7.2226e-07
1703.7, 7.3912e-07
1705.7, 7.5687e-07
1707.7, 7.3522e-07
1709.7, 7.6151e-07
1711.7, 6.9783e-07
1713.7, 7.0715e-07
1715.7, 7.2228e-07
1717.7, 8.211e-07
1719.7, 7.7957e-07
1721.7, 7.0322e-07
1723.7, 7.2568e-07
1725.7, 8.4327e-07
1727.7, 7.8887e-07
1729.7, 7.5134e-07
1731.7, 7.2191e-07
1733.7, 7.2069e-07
1735.7, 7.6729e-07
1737.7, 7.0364e-07
1739.7, 7.3783e-07
1741.7, 7.265e-07
1743.7, 7.5156e-07
1745.7, 7.7526e-07
1747.7, 6.9347e-07
1749.7, 7.1622e-07
1751.7, 7.0087e-07
1753.8, 7.3607e-07
1755.8, 7.3407e-07
1757.8, 7.674e-07
1759.8, 6.6828e-07
1761.8, 6.6119e-07
1763.8, 8.0076e-07
1765.8, 7.3904e-07
1767.8, 6.9145e-07
1769.8, 7.8519e-07
1771.8, 7.6025e-07
1773.8, 7.4143e-07
1775.8, 7.6606e-07
1777.8, 7.1128e-07
1779.8, 7.3968e-07
1781.8, 6.763e-07
1783.8, 7.3887e-07
1785.8, 7.3112e-07
1787.8, 6.8728e-07
1789.8, 8.0429e-07
1791.8, 6.8827e-07
1793.8, 7.7685e-07
1795.8, 8.0517e-07
1797.8, 7.2936e-07
1799.8, 7.2562e-07
1801.8, 7.4977e-07
1803.8, 7.801e-07
1805.8, 7.4441e-07
1807.8, 7.6499e-07
1809.8, 6.8528e-07
1811.8, 7.4545e-07
1813.8, 6.9199e-07
1815.8, 7.2401e-07
1817.8, 7.446e-07
1819.8, 7.6447e-07
1821.8, 6.7374e-07
1823.8, 7.5119e-07
1825.8, 6.825e-07
1827.8, 7.572e-07
1829.8, 7.6072e-07
1831.8, 7.399e-07
1833.8, 8.2073e-07
1835.8, 7.9694e-07
1837.8, 7.8828e-07
1839.8, 7.4803e-07
1841.8, 6.7938e-07
1843.8, 7.9395e-07
1845.8, 7.0567e-07
1847.8, 7.4576e-07
1849.8, 7.3203e-07
1851.8, 7.4167e-07
1853.9, 6.9241e-07
1855.9, 7.3436e-07
1857.9, 6.9058e-07
1859.9, 6.6592e-07
1861.9, 7.039e-07
1863.9, 7.4839e-07
1865.9, 7.9143e-07
1867.9, 7.7579e-07
1869.9, 7.4797e-07
1871.9, 7.5368e-07
1873.9, 7.7685e-07
1875.9, 7.8959e-07
1877.9, 7.5461e-07
1879.9, 7.6223e-07
1881.9, 6.717e-07
1883.9, 7.0092e-07
1885.9, 7.3866e-07
1887.9, 7.3659e-07
1889.9, 8.5133e-07
1891.9, 7.4161e-07
1893.9, 7.1292e-07
1895.9, 7.5057e-07
1897.9, 6.9334e-07
1899.9, 7.1137e-07
1901.9, 6.7167e-07
1903.9, 7.4416e-07
1905.9, 7.4166e-07
1907.9, 8.7503e-07
1909.9, 7.518e-07
1911.9, 7.9037e-07
1913.9, 7.5891e-07
1915.9, 7.0194e-07
1917.9, 7.0592e-07
1919.9, 7.1705e-07
1921.9, 6.4563e-07
1923.9, 7.1912e-07
1925.9, 8.1615e-07
1927.9, 7.137e-07
1929.9, 7.6006e-07
1931.9, 7.6307e-07
1933.9, 7.9468e-07
1935.9, 8.1708e-07
1937.9, 7.3195e-07
1939.9, 7.5314e-07
1941.9, 7.4642e-07
1943.9, 8.2274e-07
1945.9, 6.1278e-07
1947.9, 7.0537e-07
1949.9, 7.981e-07
1951.9, 7.4944e-07
1954.0, 7.7936e-07
1956.0, 7.2492e-07
1958.0, 7.371e-07
1960.0, 6.607e-07
1962.0, 7.6122e-07
1964.0, 7.7057e-07
1966.0, 7.3821e-07
1968.0, 7.863e-07
1970.0, 6.9722e-07
1972.0, 7.3628e-07
1974.0, 7.0693e-07
1976.0, 7.238e-07
1978.0, 7.6751e-07
1980.0, 7.4047e-07
1982.0, 7.0049e-07
1984.0, 7.7988e-07
1986.0, 7.7465e-07
1988.0, 7.6685e-07
1990.0, 7.4197e-07
1992.0, 6.857e-07
1994.0, 7.1192e-07
1996.0, 6.6201e-07
1998.0, 7.2545e-07
2000.0, 7.5022e-07
2002.0, 7.4041e-07
2004.0, 7.106e-07
2006.0, 7.5775e-07
2008.0, 6.8028e-07
2010.0, 6.9265e-07
2012.0, 7.157e-07
2014.0, 7.4221e-07
2016.0, 7.7393e-07
2018.0, 7.2383e-07
2020.0, 7.3964e-07
2022.0, 6.7413e-07
2024.0, 7.2401e-07
2026.0, 7.1324e-07
2028.0, 6.5408e-07
2030.0, 6.3802e-07
2032.0, 7.1049e-07
2034.0, 7.424e-07
2036.0, 8.0317e-07
2038.0, 7.5422e-07
2040.0, 7.7637e-07
2042.0, 7.9155e-07
2044.0, 8.1645e-07
2046.0, 7.2457e-07
2048.0, 7.493e-07
2050.0, 7.3269e-07
2052.0, 7.4048e-07
2054.1, -3.725e-08
2056.1, -3.885e-08
2058.1, -3.756e-08
2060.1, -4.064e-08
2062.1, -3.877e-08
2064.1, -3.902e-08
2066.1, -3.945e-08
2068.1, -4.009e-08
2070.1, -3.714e-08
2072.1, -4.281e-08
2074.1, -3.906e-08
2076.1, -3.82e-08
2078.1, -3.695e-08
2080.1, -3.513e-08
2082.1, -3.969e-08
2084.1, -3.814e-08
2086.1, -3.734e-08
2088.1, -3.794e-08
2090.1, -3.857e-08
2092.1, -3.726e-08
2094.1, -3.747e-08
2096.1, -4.028e-08
2098.1, -3.761e-08
2100.1, -4.048e-08
2102.1, -3.727e-08
2104.1, -3.823e-08
2106.1, -3.791e-08
2108.1, -3.966e-08
2110.1, -3.753e-08
2112.1, -3.53e-08
2114.1, -3.67e-08
2116.1, -3.992e-08
2118.1, -4.005e-08
2120.1, -3.836e-08
2122.1, -3.738e-08
2124.1, -4.092e-08
2126.1, -3.968e-08
2128.1, -4.067e-08
2130.1, -3.961e-08
2132.1, -3.929e-08
2134.1, -3.969e-08
2136.1, -3.885e-08
2138.1, -3.49e-08
2140.1, -3.432e-08
2142.1, -3.571e-08
2144.1, -3.858e-08
2146.1, -4.089e-08
2148.1, -3.722e-08
2150.1, -3.861e-08
2152.1, -3.837e-08
2154.2, -4.197e-08
2156.2, -3.934e-08
2158.2, -3.863e-08
2160.2, -4.093e-08
2162.2, -3.61e-08
2164.2, -4.531e-08
2166.2, -3.947e-08
2168.2, -3.913e-08
2170.2, -4.232e-08
2172.2, -3.752e-08
2174.2, -3.933e-08
2176.2, -3.988e-08
2178.2, -4.261e-08
2180.2, -4.024e-08
2182.2, -4.362e-08
2184.2, -3.888e-08
2186.2, -4.097e-08
2188.2, -3.742e-08
2190.2, -4.018e-08
2192.2, -3.962e-08
2194.2, -3.695e-08
2196.2, -4.058e-08
2198.2, -3.969e-08
2200.2, -4.205e-08
2202.2, -3.969e-08
2204.2, -4.039e-08
2206.2, -3.949e-08
2208.2, -3.765e-08
2210.2, -3.768e-08
2212.2, -3.889e-08
2214.2, -3.816e-08
2216.2, -3.907e-08
2218.2, -4.155e-08
2220.2, -4.02e-08
2222.2, -3.774e-08
2224.2, -3.897e-08
2226.2, -3.636e-08
2228.2, -4.241e-08
2230.2, -3.816e-08
2232.2, -3.769e-08
2234.2, -3.919e-08
2236.2, -3.538e-08
2238.2, -3.622e-08
2240.2, -3.65e-08
2242.2, -3.391e-08
2244.2, -3.779e-08
2246.2, -4.033e-08
2248.2, -4.016e-08
2250.2, -4.014e-08
2252.2, -3.876e-08
2254.3, -3.852e-08
2256.3, -4.033e-08
2258.3, -4.052e-08
2260.3, -3.978e-08
2262.3, -4.143e-08
2264.3, -4.009e-08
2266.3, -3.643e-08
2268.3, -3.99e-08
2270.3, -3.82e-08
2272.3, -4.098e-08
2274.3, -3.751e-08
2276.3, -3.488e-08
2278.3, -4.236e-08
2280.3, -3.812e-08
2282.3, -4.045e-08
2284.3, -4.132e-08
2286.3, -3.924e-08
2288.3, -4.158e-08
2290.3, -3.892e-08
2292.3, -3.812e-08
2294.3, -3.874e-08
2296.3, -3.947e-08
2298.3, -4.158e-08
2300.3, -3.681e-08
2302.3, -3.781e-08
2304.3, -3.731e-08
2306.3, -3.753e-08
2308.3, -3.644e-08
2310.3, -3.956e-08
2312.3, -3.952e-08
2314.3, -3.706e-08
2316.3, -3.95e-08
2318.3, -3.72e-08
2320.3, -3.768e-08
2322.3, -4.098e-08
2324.3, -3.982e-08
2326.3, -3.873e-08
2328.3, -3.948e-08
2330.3, -4.118e-08
2332.3, -3.641e-08
2334.3, -3.767e-08
2336.3, -4.028e-08
2338.3, -4.169e-08
2340.3, -3.822e-08
2342.3, -3.612e-08
2344.3, -3.97e-08
2346.3, -4.054e-08
2348.3, -4.033e-08
2350.3, -3.776e-08
2352.3, -3.781e-08
2354.4, -3.612e-08
2356.4, -3.717e-08
2358.4, -3.851e-08
2360.4, -3.813e-08
2362.4, -3.849e-08
2364.4, -3.597e-08
2366.4, -3.676e-08
2368.4, -3.773e-08
2370.4, -3.964e-08
2372.4, -3.999e-08
2374.4, -3.922e-08
2376.4, -3.836e-08
2378.4, -3.732e-08
2380.4, -4.025e-08
2382.4, -3.987e-08
2384.4, -4.021e-08
2386.4, -3.947e-08
2388.4, -4.069e-08
2390.4, -3.874e-08
2392.4, -3.819e-08
2394.4, -3.981e-08
2396.4, -4.065e-08
2398.4, -4.116e-08
2400.4, -3.612e-08
2402.4, -3.451e-08
2404.4, -3.961e-08
2406.4, -3.858e-08
2408.4, -3.826e-08
2410.4, -4.096e-08
2412.4, -3.769e-08
2414.4, -3.594e-08
2416.4, -3.942e-08
2418.4, -4.162e-08
2420.4, -4.041e-08
2422.4, -3.754e-08
2424.4, -3.602e-08
2426.4, -3.837e-08
2428.4, -3.544e-08
2430.4, -3.656e-08
2432.4, -3.713e-08
2434.4, -3.771e-08
2436.4, -3.77e-08
2438.4, -3.791e-08
2440.4, -3.679e-08
2442.4, -4.002e-08
2444.4, -3.761e-08
2446.4, -4.081e-08
2448.4, -3.905e-08
2450.4, -3.97e-08
2452.4, -3.52e-08
2454.5, -3.637e-08
2456.5, -4.054e-08
2458.5, -3.831e-08
2460.5, -3.74e-08
2462.5, -3.944e-08
2464.5, -4.011e-08
2466.5, -3.892e-08
2468.5, -4.085e-08
2470.5, -3.917e-08
2472.5, -4.319e-08
2474.5, -3.734e-08
2476.5, -3.688e-08
2478.5, -3.863e-08
2480.5, -3.709e-08
2482.5, -3.548e-08
2484.5, -3.783e-08
2486.5, -3.768e-08
2488.5, -4.153e-08
2490.5, -4.257e-08
2492.5, -4.186e-08
2494.5, -4.001e-08
2496.5, -3.954e-08
2498.5, -4.46e-08
2500.5, -4.107e-08
2502.5, -3.945e-08
2504.5, -3.899e-08
2506.5, -4.141e-08
2508.5, -4.625e-08
2510.5, -4.503e-08
2512.5, -4.301e-08
2514.5, -4.317e-08
2516.5, -4.373e-08
2518.5, -4.234e-08
2520.5, -3.979e-08
2522.5, -3.975e-08
2524.5, -4.338e-08
2526.5, -4.449e-08
2528.5, -4.126e-08
2530.5, -4.187e-08
2532.5, -4.457e-08
2534.5, -4.344e-08
2536.5, -4.011e-08
2538.5, -4.083e-08
2540.5, -3.925e-08
2542.5, -3.826e-08
2544.5, -3.965e-08
2546.5, -3.911e-08
2548.5, -4.181e-08
2550.5, -3.968e-08
2552.5, -3.829e-08
2554.6, -3.98e-08
2556.6, -3.907e-08
2558.6, -3.766e-08
2560.6, -3.863e-08
2562.6, -3.568e-08
2564.6, -4.001e-08
2566.6, -4.271e-08
2568.6, -3.777e-08
2570.6, -3.614e-08
2572.6, -3.676e-08
2574.6, -3.792e-08
2576.6, -4.05e-08
2578.6, -4.007e-08
2580.6, -3.709e-08
2582.6, -3.362e-08
2584.6, -3.701e-08
2586.6, -3.647e-08
2588.6, -3.921e-08
2590.6, -4.163e-08
2592.6, -3.469e-08
2594.6, -3.593e-08
2596.6, -4.072e-08
2598.6, -3.917e-08
2600.6, -3.843e-08
2602.6, -3.82e-08
2604.6, -3.565e-08
2606.6, -3.569e-08
2608.6, -3.734e-08
2610.6, -3.724e-08
2612.6, -3.87e-08
2614.6, -3.798e-08
2616.6, -4.058e-08
2618.6, -3.986e-08
2620.6, -3.493e-08
2622.6, -4.184e-08
2624.6, -4.285e-08
2626.6, -3.97e-08
2628.6, -4.31e-08
2630.6, -4.118e-08
2632.6, -4.234e-08
2634.6, -3.97e-08
2636.6, -4.057e-08
2638.6, -4.422e-08
2640.6, -4.104e-08
2642.6, -4.097e-08
2644.6, -3.972e-08
2646.6, -4.136e-08
2648.6, -3.914e-08
2650.6, -3.881e-08
2652.6, -3.899e-08
2654.7, -3.562e-08
2656.7, -3.803e-08
2658.7, -4.066e-08
2660.7, -3.594e-08
2662.7, -4.06e-08
2664.7, -4.017e-08
2666.7, -3.715e-08
2668.7, -4.022e-08
2670.7, -3.941e-08
2672.7, -3.581e-08
2674.7, -3.855e-08
2676.7, -3.978e-08
2678.7, -3.872e-08
2680.7, -4.036e-08
2682.7, -3.718e-08
2684.7, -3.749e-08
2686.7, -4.193e-08
2688.7, -3.916e-08
2690.7, -3.981e-08
2692.7, -4.05e-08
2694.7, -3.862e-08
2696.7, -3.862e-08
2698.7, -3.924e-08
2700.7, -3.88e-08
2702.7, -4.077e-08
2704.7, -4.022e-08
2706.7, -4.138e-08
2708.7, -4.123e-08
2710.7, -4.232e-08
2712.7, -4.45e-08
2714.7, -4.147e-08
2716.7, -4.108e-08
2718.7, -4.179e-08
2720.7, -4.196e-08
2722.7, -3.703e-08
2724.7, -3.591e-08
2726.7, -3.887e-08
2728.7, -3.634e-08
2730.7, -3.729e-08
2732.7, -3.899e-08
2734.7, -3.832e-08
2736.7, -4.024e-08
2738.7, -3.788e-08
2740.7, -3.893e-08
2742.7, -4.06e-08
2744.7, -4.393e-08
2746.7, -4.272e-08
2748.7, -3.996e-08
2750.7, -4.205e-08
2752.7, -4.159e-08
2754.8, -4.003e-08
2756.8, -3.772e-08
2758.8, -3.945e-08
2760.8, -3.689e-08
2762.8, -3.858e-08
2764.8, -4.022e-08
2766.8, -3.905e-08
2768.8, -3.931e-08
2770.8, -3.856e-08
2772.8, -3.824e-08
2774.8, -3.827e-08
2776.8, -4.002e-08
2778.8, -3.869e-08
2780.8, -3.762e-08
2782.8, -3.997e-08
2784.8, -3.938e-08
2786.8, -3.721e-08
2788.8, -4.208e-08
2790.8, -4.053e-08
2792.8, -4.138e-08
2794.8, -4.057e-08
2796.8, -4.299e-08
2798.8, -4.159e-08
2800.8, -3.798e-08
2802.8, -3.853e-08
2804.8, -4.023e-08
2806.8, -3.875e-08
2808.8, -3.699e-08
2810.8, -4.03e-08
2812.8, -3.957e-08
2814.8, -3.751e-08
2816.8, -3.959e-08
2818.8, -3.868e-08
2820.8, -3.885e-08
2822.8, -4.135e-08
2824.8, -3.998e-08
2826.8, -3.685e-08
2828.8, -3.981e-08
2830.8, -3.964e-08
2832.8, -3.527e-08
2834.8, -3.813e-08
2836.8, -3.823e-08
2838.8, -3.868e-08
2840.8, -4.147e-08
2842.8, -4.133e-08
2844.8, -3.881e-08
2846.8, -3.943e-08
2848.8, -4.211e-08
2850.8, -4.279e-08
2852.8, -4.332e-08
2854.9, -4.237e-08
2856.9, -4.129e-08
2858.9, -4.239e-08
2860.9, -3.746e-08
2862.9, -3.938e-08
2864.9, -3.924e-08
2866.9, -3.839e-08
2868.9, -4.097e-08
2870.9, -3.973e-08
2872.9, -3.801e-08
2874.9, -3.754e-08
2876.9, -3.918e-08
2878.9, -3.979e-08
2880.9, -3.89e-08
2882.9, -3.587e-08
2884.9, -3.875e-08
2886.9, -4.097e-08
2888.9, -4.253e-08
2890.9, -3.893e-08
2892.9, -4.31e-08
2894.9, -4.221e-08
2896.9, -4.171e-08
2898.9, -4.504e-08
2900.9, -4.133e-08
2902.9, -3.905e-08
2904.9, -3.89e-08
2906.9, -3.755e-08
2908.9, -4.019e-08
2910.9, -4.131e-08
2912.9, -4.009e-08
2914.9, -3.839e-08
2916.9, -3.666e-08
2918.9, -3.884e-08
2920.9, -3.979e-08
2922.9, -3.509e-08
2924.9, -3.865e-08
2926.9, -4.072e-08
2928.9, -4.035e-08
2930.9, -4.431e-08
2932.9, -3.99e-08
2934.9, -3.918e-08
2936.9, -3.769e-08
2938.9, -3.93e-08
2940.9, -4.473e-08
2942.9, -4.006e-08
2944.9, -4.086e-08
2946.9, -3.722e-08
2948.9, -4.01e-08
2950.9, -3.986e-08
2952.9, -3.815e-08
2955.0, -3.723e-08
2957.0, -4.029e-08
2959.0, -3.761e-08
2961.0, -3.673e-08
2963.0, -3.846e-08
2965.0, -3.818e-08
2967.0, -3.784e-08
2969.0, -3.801e-08
2971.0, -3.801e-08
2973.0, -4.27e-08
2975.0, -4.032e-08
2977.0, -3.931e-08
2979.0, -4.406e-08
2981.0, -4.123e-08
2983.0, -3.764e-08
2985.0, -3.864e-08
2987.0, -3.894e-08
2989.0, -3.956e-08
2991.0, -4.186e-08
2993.0, -3.858e-08
2995.0, -3.934e-08
2997.0, -4.124e-08
2999.0, -3.557e-08
3001.0, -4.016e-08
3003.0, -3.954e-08
3005.0, -3.822e-08
3007.0, -3.903e-08
3009.0, -3.582e-08
3011.0, -3.679e-08
3013.0, -3.622e-08
3015.0, -3.72e-08
3017.0, -3.68e-08
3019.0, -3.769e-08
3021.0, -3.727e-08
3023.0, -3.553e-08
3025.0, -3.58e-08
3027.0, -3.853e-08
3029.0, -3.947e-08
3031.0, -3.793e-08
3033.0, -4.08e-08
3035.0, -3.691e-08
3037.0, -3.68e-08
3039.0, -3.839e-08
3041.0, -4.07e-08
3043.0, -3.556e-08
3045.0, -3.625e-08
3047.0, -3.464e-08
3049.0, -3.501e-08
3051.0, -3.26e-08
3053.0, -3.499e-08
3055.1, -3.229e-08
3057.1, -3.3e-08
3059.1, -3.614e-08
3061.1, -3.248e-08
3063.1, -3.495e-08
3065.1, -3.364e-08
3067.1, -3.536e-08
3069.1, -3.665e-08
3071.1, -3.571e-08
3073.1, -3.509e-08
3075.1, -3.692e-08
3077.1, -3.817e-08
3079.1, -3.623e-08
3081.1, -3.687e-08
3083.1, -3.86e-08
3085.1, 6.6259e-07
3087.1, 5.959e-07
3089.1, 5.7866e-07
3091.1, 5.7918e-07
3093.1, 6.2181e-07
3095.1, 5.943e-07
3097.1, 5.9156e-07
3099.1, 6.1975e-07
3101.1, 6.2291e-07
3103.1, 6.8213e-07
3105.1, 6.8424e-07
3107.1, 5.6167e-07
3109.1, 6.3282e-07
3111.1, 6.7776e-07
3113.1, 6.0033e-07
3115.1, 7.157e-07
3117.1, 6.3605e-07
3119.1, 6.9009e-07
3121.1, 6.388e-07
3123.1, 5.8124e-07
3125.1, 6.3924e-07
3127.1, 7.2693e-07
3129.1, 5.9485e-07
3131.1, 6.0082e-07
3133.1, 7.393e-07
3135.1, 7.0866e-07
3137.1, 6.2344e-07
3139.1, 6.7841e-07
3141.1, 6.1215e-07
3143.1, 6.6805e-07
3145.1, 6.5709e-07
3147.1, 6.1061e-07
3149.1, 6.2745e-07
3151.1, 6.4525e-07
3153.1, 6.504e-07
3155.2, 6.6859e-07
3157.2, 6.9355e-07
3159.2, 6.7251e-07
3161.2, 6.4209e-07
3163.2, 6.1147e-07
3165.2, 7.0328e-07
3167.2, 6.9914e-07
3169.2, 6.9238e-07
3171.2, 6.9308e-07
3173.2, 6.401e-07
3175.2, 5.6858e-07
3177.2, 6.5173e-07
3179.2, 6.0026e-07
3181.2, 6.9037e-07
3183.2, 7.0732e-07
3185.2, 6.7915e-07
3187.2, 7.5306e-07
3189.2, 5.6762e-07
3191.2, 6.0004e-07
3193.2, 7.1758e-07
3195.2, 6.5346e-07
3197.2, 7.2225e-07
3199.2, 6.7523e-07
3201.2, 6.6416e-07
3203.2, 7.1209e-07
3205.2, 6.1966e-07
3207.2, 7.0747e-07
3209.2, 6.8561e-07
3211.2, 6.2696e-07
3213.2, 7.504e-07
3215.2, 6.2389e-07
3217.2, 6.9643e-07
3219.2, 6.6881e-07
3221.2, 6.8944e-07
3223.2, 7.1649e-07
3225.2, 7.3861e-07
3227.2, 6.977e-07
3229.2, 6.7082e-07
3231.2, 6.1884e-07
3233.2, 6.6283e-07
3235.2, 6.7117e-07
3237.2, 6.7286e-07
3239.2, 6.8711e-07
3241.2, 6.0852e-07
3243.2, 6.628e-07
3245.2, 6.7926e-07
3247.2, 7.9275e-07
3249.2, 6.3274e-07
3251.2, 6.9067e-07
3253.2, 6.6961e-07
3255.3, 6.6937e-07
3257.3, 7.1185e-07
3259.3, 7.0194e-07
3261.3, 7.172e-07
3263.3, 7.3281e-07
3265.3, 6.6175e-07
3267.3, 6.1901e-07
3269.3, 6.747e-07
3271.3, 7.0616e-07
3273.3, 6.2273e-07
3275.3, 5.9346e-07
3277.3, 7.6138e-07
3279.3, 7.2166e-07
3281.3, 6.4673e-07
3283.3, 7.3034e-07
3285.3, 6.7061e-07
3287.3, 7.5792e-07
3289.3, 6.5061e-07
3291.3, 7.0345e-07
3293.3, 7.1909e-07
3295.3, 6.3385e-07
3297.3, 6.5588e-07
3299.3, 7.1361e-07
3301.3, 7.6514e-07
3303.3, 6.5924e-07
3305.3, 7.0087e-07
3307.3, 7.8552e-07
3309.3, 7.0594e-07
3311.3, 6.8244e-07
3313.3, 7.74e-07
3315.3, 6.5674e-07
3317.3, 6.4808e-07
3319.3, 6.9736e-07
3321.3, 7.1994e-07
3323.3, 7.2208e-07
3325.3, 7.6591e-07
3327.3, 7.0632e-07
3329.3, 7.1466e-07
3331.3, 7.1419e-07
3333.3, 6.5698e-07
3335.3, 6.8457e-07
3337.3, 6.3742e-07
3339.3, 7.4652e-07
3341.3, 6.5947e-07
3343.3, 6.3927e-07
3345.3, 6.9059e-07
3347.3, 6.7652e-07
3349.3, 7.4154e-07
3351.3, 7.1498e-07
3353.3, 7.0464e-07
3355.4, 6.9283e-07
3357.4, 7.0389e-07
3359.4, 6.2665e-07
3361.4, 6.6514e-07
3363.4, 7.1345e-07
3365.4, 5.6778e-07
3367.4, 6.7153e-07
3369.4, 7.2755e-07
3371.4, 6.8121e-07
3373.4, 6.7222e-07
3375.4, 6.4526e-07
3377.4, 7.6494e-07
3379.4, 6.098e-07
3381.4, 6.7505e-07
3383.4, 7.0932e-07
3385.4, 7.7256e-07
3387.4, 7.2323e-07
3389.4, 7.0125e-07
3391.4, 7.8188e-07
3393.4, 6.8689e-07
3395.4, 6.4647e-07
3397.4, 7.1924e-07
3399.4, 7.5415e-07
3401.4, 7.1636e-07
3403.4, 7.3948e-07
3405.4, 7.3902e-07
3407.4, 7.2705e-07
3409.4, 6.6179e-07
3411.4, 6.0264e-07
3413.4, 6.9457e-07
3415.4, 6.479e-07
3417.4, 7.3657e-07
3419.4, 6.986e-07
3421.4, 7.8415e-07
3423.4, 7.5419e-07
3425.4, 6.9824e-07
3427.4, 6.885e-07
3429.4, 7.7884e-07
3431.4, 6.7009e-07
3433.4, 7.378e-07
3435.4, 6.6932e-07
3437.4, 7.4673e-07
3439.4, 7.0787e-07
3441.4, 7.3636e-07
3443.4, 7.5012e-07
3445.4, 7.1e-07
3447.4, 7.7574e-07
3449.4, 6.9298e-07
3451.4, 7.198e-07
3453.4, 7.1902e-07
3455.5, 6.6712e-07
3457.5, 7.7677e-07
3459.5, 7.7388e-07
3461.5, 7.5461e-07
3463.5, 7.5665e-07
3465.5, 7.5075e-07
3467.5, 6.7107e-07
3469.5, 7.1041e-07
3471.5, 7.7134e-07
3473.5, 7.7055e-07
3475.5, 7.3777e-07
3477.5, 7.7853e-07
3479.5, 7.1746e-07
3481.5, 7.1288e-07
3483.5, 7.1388e-07
3485.5, 7.0682e-07
3487.5, 7.2526e-07
3489.5, 8.1897e-07
3491.5, 8.1357e-07
3493.5, 7.3979e-07
3495.5, 6.5451e-07
3497.5, 7.8792e-07
3499.5, 7.7172e-07
3501.5, 7.1447e-07
3503.5, 6.8381e-07
3505.5, 7.0199e-07
3507.5, 7.6996e-07
3509.5, 7.5292e-07
3511.5, 7.8053e-07
3513.5, 7.2106e-07
3515.5, 7.6105e-07
3517.5, 6.7031e-07
3519.5, 7.8663e-07
3521.5, 7.4035e-07
3523.5, 7.6648e-07
3525.5, 7.2008e-07
3527.5, 7.4956e-07
3529.5, 7.0832e-07
3531.5, 7.1191e-07
3533.5, 6.9679e-07
3535.5, 7.5802e-07
3537.5, 7.1131e-07
3539.5, 7.2147e-07
3541.5, 7.6148e-07
3543.5, 6.6941e-07
3545.5, 7.0533e-07
3547.5, 6.5869e-07
3549.5, 7.3478e-07
3551.5, 7.1593e-07
3553.5, 7.9006e-07
3555.6, 7.2631e-07
3557.6, 7.16e-07
3559.6, 7.3415e-07
3561.6, 6.8654e-07
3563.6, 7.5263e-07
3565.6, 7.5574e-07
3567.6, 7.5737e-07
3569.6, 6.8535e-07
3571.6, 7.8885e-07
3573.6, 7.5469e-07
3575.6, 6.5176e-07
3577.6, 7.8448e-07
3579.6, 7.6066e-07
3581.6, 6.4697e-07
3583.6, 6.8485e-07
3585.6, 7.0375e-07
3587.6, 7.7528e-07
3589.6, 8.1413e-07
3591.6, 7.0455e-07
3593.6, 7.3186e-07
3595.6, 7.0525e-07
3597.6, 7.4316e-07
3599.6, 7.2396e-07
3601.6, 6.6881e-07
3603.6, 7.9408e-07
3605.6, 6.4862e-07
3607.6, 7.2033e-07
3609.6, 6.4431e-07
3611.6, 6.4329e-07
3613.6, 8.2767e-07
3615.6, 7.1e-07
3617.6, 7.6455e-07
3619.6, 7.0193e-07
3621.6, 7.091e-07
3623.6, 7.3381e-07
3625.6, 7.1928e-07
3627.6, 7.0815e-07
3629.6, 7.5259e-07
3631.6, 7.3231e-07
3633.6, 6.7207e-07
3635.6, 7.1626e-07
3637.6, 7.9478e-07
3639.6, 7.3764e-07
3641.6, 6.5184e-07
3643.6, 7.1733e-07
3645.6, 7.0973e-07
3647.6, 7.3242e-07
3649.6, 7.4625e-07
3651.6, 5.8113e-07
3653.6, 7.7313e-07
3655.7, 8.3519e-07
3657.7, 6.9925e-07
3659.7, 7.0051e-07
3661.7, 6.6068e-07
3663.7, 7.7265e-07
3665.7, 7.1917e-07
3667.7, 7.3055e-07
3669.7, 7.2743e-07
3671.7, 7.6568e-07
3673.7, 7.2897e-07
3675.7, 8.1822e-07
3677.7, 6.8784e-07
3679.7, 8.111e-07
3681.7, 7.2638e-07
3683.7, 7.9229e-07
3685.7, 7.09e-07
3687.7, 7.2332e-07
3689.7, 7e-07
3691.7, 7.8898e-07
3693.7, 8.0268e-07
3695.7, 6.8034e-07
3697.7, 6.7434e-07
3699.7, 7.3256e-07
3701.7, 6.4199e-07
3703.7, 8.799e-07
3705.7, 6.4666e-07
3707.7, 7.5385e-07
3709.7, 6.5458e-07
3711.7, 7.1284e-07
3713.7, 7.0137e-07
3715.7, 7.6967e-07
3717.7, 7.068e-07
3719.7, 7.0125e-07
3721.7, 6.765e-07
3723.7, 7.8537e-07
3725.7, 7.6598e-07
3727.7, 6.8229e-07
3729.7, 6.9039e-07
3731.7, 7.7584e-07
3733.7, 8.1302e-07
3735.7, 7.7087e-07
3737.7, 7.7371e-07
3739.7, 7.1947e-07
3741.7, 8.2729e-07
3743.7, 6.9996e-07
3745.7, 7.1756e-07
3747.7, 6.6476e-07
3749.7, 7.2582e-07
3751.7, 6.7702e-07
3753.7, 7.5353e-07
3755.8, 7.3225e-07
3757.8, 7.7512e-07
3759.8, 7.6553e-07
3761.8, 6.5972e-07
3763.8, 7.2368e-07
3765.8, 6.9992e-07
3767.8, 7.4302e-07
3769.8, 6.9596e-07
3771.8, 8.4914e-07
3773.8, 7.2713e-07
3775.8, 8.1218e-07
3777.8, 7.3837e-07
3779.8, 7.207e-07
3781.8, 7.1682e-07
3783.8, 7.1013e-07
3785.8, 7.9027e-07
3787.8, 7.8856e-07
3789.8, 7.2995e-07
3791.8, 7.9083e-07
3793.8, 7.4588e-07
3795.8, 7.5699e-07
3797.8, 7.1548e-07
3799.8, 6.7952e-07
3801.8, 6.6179e-07
3803.8, 7.6636e-07
3805.8, 7.3089e-07
3807.8, 7.5587e-07
3809.8, 7.0125e-07
3811.8, 7.602e-07
3813.8, 8.191e-07
3815.8, 7.022e-07
3817.8, 7.3268e-07
3819.8, 7.4009e-07
3821.8, 7.6497e-07
3823.8, 7.6347e-07
3825.8, 7.6092e-07
3827.8, 7.1781e-07
3829.8, 7.8133e-07
3831.8, 6.7203e-07
3833.8, 7.7292e-07
3835.8, 7.7389e-07
3837.8, 7.5798e-07
3839.8, 8.0466e-07
3841.8, 7.0336e-07
3843.8, 7.5592e-07
3845.8, 7.0856e-07
3847.8, 7.4479e-07
3849.8, 6.9346e-07
3851.8, 7.6351e-07
3853.8, 7.6306e-07
3855.9, 7.3461e-07
3857.9, 6.9958e-07
3859.9, 7.7782e-07
3861.9, 7.1838e-07
3863.9, 7.2211e-07
3865.9, 7.3944e-07
3867.9, 8.0486e-07
3869.9, 7.6777e-07
3871.9, 7.5834e-07
3873.9, 6.7002e-07
3875.9, 7.7514e-07
3877.9, 6.9441e-07
3879.9, 6.8081e-07
3881.9, 6.5333e-07
3883.9, 6.799e-07
3885.9, 7.2256e-07
3887.9, 7.4673e-07
3889.9, 8.2174e-07
3891.9, 8.0655e-07
3893.9, 7.3188e-07
3895.9, 7.2806e-07
3897.9, 7.4162e-07
3899.9, 7.7983e-07
3901.9, 7.2047e-07
3903.9, 8.003e-07
3905.9, 7.5547e-07
3907.9, 7.1203e-07
3909.9, 7.4825e-07
3911.9, 6.9634e-07
3913.9, 7.1255e-07
3915.9, 6.8524e-07
3917.9, 7.5447e-07
3919.9, 8.564e-07
3921.9, 7.1437e-07
3923.9, 6.722e-07
3925.9, 6.956e-07
3927.9, 7.5352e-07
3929.9, 7.7822e-07
3931.9, 6.6791e-07
3933.9, 8.1902e-07
3935.9, 7.5351e-07
3937.9, 7.8931e-07
3939.9, 6.6362e-07
3941.9, 7.1223e-07
3943.9, 7.2781e-07
3945.9, 6.9293e-07
3947.9, 7.0159e-07
3949.9, 7.2396e-07
3951.9, 7.2536e-07
3953.9, 7.5441e-07
3956.0, 7.9355e-07
3958.0, 8.1189e-07
3960.0, 7.7306e-07
3962.0, 8.291e-07
3964.0, 7.4191e-07
3966.0, 7.3115e-07
3968.0, 6.9096e-07
3970.0, 7.5995e-07
3972.0, 7.9598e-07
3974.0, 8.5264e-07
3976.0, 7.6047e-07
3978.0, 7.9028e-07
3980.0, 7.1691e-07
3982.0, 7.0307e-07
3984.0, 7.1525e-07
3986.0, 7.694e-07
3988.0, 7.2833e-07
3990.0, 8.2866e-07
3992.0, 7.2252e-07
3994.0, 6.9793e-07
3996.0, 7.428e-07
3998.0, 7.2044e-07
4000.0, 7.1644e-07
4002.0, 7.7566e-07
4004.0, 6.8651e-07
4006.0, 6.8885e-07
4008.0, 7.9261e-07
4010.0, 7.8047e-07
4012.0, 7.843e-07
4014.0, 6.9515e-07
4016.0, 7.985e-07
4018.0, 7.7904e-07
4020.0, 6.5238e-07
4022.0, 7.4655e-07
4024.0, 7.6271e-07
4026.0, 6.9796e-07
4028.0, 7.2289e-07
4030.0, 7.933e-07
4032.0, 7.0397e-07
4034.0, 7.634e-07
4036.0, 7.7901e-07
4038.0, 7.7227e-07
4040.0, 7.3452e-07
4042.0, 6.8926e-07
4044.0, 7.9169e-07
4046.0, 6.8902e-07
4048.0, 6.6713e-07
4050.0, 7.66e-07
4052.0, 7.4763e-07
4054.0, 6.9137e-07
4056.1, 6.7818e-07
4058.1, 7.1542e-07
4060.1, 7.6637e-07
4062.1, 7.9188e-07
4064.1, 7.007e-07
4066.1, 7.9454e-07
4068.1, 7.9302e-07
4070.1, 7.5735e-07
4072.1, 6.9841e-07
4074.1, 7.8418e-07
4076.1, 7.3702e-07
4078.1, 7.6967e-07
4080.1, 7.6048e-07
4082.1, 7.1169e-07
4084.1, 7.4919e-07
4086.1, -3.617e-08
4088.1, -3.766e-08
4090.1, -3.364e-08
4092.1, -3.677e-08
4094.1, -3.596e-08
4096.1, -3.591e-08
4098.1, -3.188e-08
4100.1, -3.402e-08
4102.1, -3.371e-08
4104.1, -3.035e-08
4106.1, -2.961e-08
4108.1, -3.137e-08
4110.1, -3.229e-08
4112.1, -3.391e-08
4114.1, -3.021e-08
4116.1, -3.139e-08
4118.1, -3.478e-08
4120.1, -3.388e-08
4122.1, -3.188e-08
4124.1, -3.478e-08
4126.1, -3.015e-08
4128.1, -3.387e-08
4130.1, -3.543e-08
4132.1, -3.461e-08
4134.1, -3.564e-08
4136.1, -3.388e-08
4138.1, -3.255e-08
4140.1, -3.222e-08
4142.1, -3.26e-08
4144.1, -3.407e-08
4146.1, -3.512e-08
4148.1, -3.381e-08
4150.1, -3.395e-08
4152.1, -3.259e-08
4154.1, -3.647e-08
4156.2, -3.289e-08
4158.2, -3.251e-08
4160.2, -3.714e-08
4162.2, -3.386e-08
4164.2, -3.614e-08
4166.2, -3.749e-08
4168.2, -3.293e-08
4170.2, -3.849e-08
4172.2, -3.792e-08
4174.2, -3.428e-08
4176.2, -3.286e-08
4178.2, -3.523e-08
4180.2, -3.527e-08
4182.2, -3.422e-08
4184.2, -3.537e-08
4186.2, -3.286e-08
4188.2, -3.331e-08
4190.2, -3.159e-08
4192.2, -3.335e-08
4194.2, -3.106e-08
4196.2, -3.366e-08
4198.2, -3.173e-08
4200.2, -3.155e-08
4202.2, -3.08e-08
4204.2, -3.253e-08
4206.2, -2.901e-08
4208.2, -3.405e-08
4210.2, -3.688e-08
4212.2, -3.72e-08
4214.2, -3.421e-08
4216.2, -3.404e-08
4218.2, -3.083e-08
4220.2, -3.258e-08
4222.2, -3.438e-08
4224.2, -3.259e-08
4226.2, -3.587e-08
4228.2, -3.775e-08
4230.2, -3.364e-08
4232.2, -3.359e-08
4234.2, -3.46e-08
4236.2, -3.114e-08
4238.2, -3.232e-08
4240.2, -3.045e-08
4242.2, -3.44e-08
4244.2, -3.026e-08
4246.2, -3.683e-08
4248.2, -3.229e-08
4250.2, -3.356e-08
4252.2, -3.858e-08
4254.2, -3.478e-08
4256.3, -3.353e-08
4258.3, -3.481e-08
4260.3, -3.633e-08
4262.3, -3.468e-08
4264.3, -3.235e-08
4266.3, -3.587e-08
4268.3, -3.735e-08
4270.3, -3.475e-08
4272.3, -3.305e-08
4274.3, -3.405e-08
4276.3, -3.493e-08
4278.3, -3.461e-08
4280.3, -3.459e-08
4282.3, -3.207e-08
4284.3, -3.25e-08
4286.3, -3.52e-08
4288.3, -3.29e-08
4290.3, -3.618e-08
4292.3, -4.001e-08
4294.3, -3.944e-08
4296.3, -3.666e-08
4298.3, -3.394e-08
4300.3, -3.455e-08
4302.3, -3.537e-08
4304.3, -3.786e-08
4306.3, -3.515e-08
4308.3, -3.362e-08
4310.3, -3.591e-08
4312.3, -3.629e-08
4314.3, -3.29e-08
4316.3, -3.85e-08
4318.3, -3.728e-08
4320.3, -3.489e-08
4322.3, -3.253e-08
4324.3, -3.425e-08
4326.3, -3.332e-08
4328.3, -3.504e-08
4330.3, -3.713e-08
4332.3, -3.204e-08
4334.3, -3.639e-08
4336.3, -3.38e-08
4338.3, -3.477e-08
4340.3, -3.543e-08
4342.3, -3.489e-08
4344.3, -3.265e-08
4346.3, -3.296e-08
4348.3, -3.283e-08
4350.3, -3.502e-08
4352.3, -3.739e-08
4354.3, -3.536e-08
4356.4, -3.37e-08
4358.4, -3.697e-08
4360.4, -3.331e-08
4362.4, -3.434e-08
4364.4, -3.343e-08
4366.4, -3.309e-08
4368.4, -3.614e-08
4370.4, -3.615e-08
4372.4, -3.61e-08
4374.4, -3.467e-08
4376.4, -3.509e-08
4378.4, -3.226e-08
4380.4, -3.579e-08
4382.4, -3.173e-08
4384.4, -3.625e-08
4386.4, -3.538e-08
4388.4, -3.755e-08
4390.4, -3.583e-08
4392.4, -3.399e-08
4394.4, -3.493e-08
4396.4, -3.411e-08
4398.4, -3.585e-08
4400.4, -3.469e-08
4402.4, -3.117e-08
4404.4, -3.134e-08
4406.4, -2.939e-08
4408.4, -3.275e-08
4410.4, -3.89e-08
4412.4, -3.413e-08
4414.4, -3.756e-08
4416.4, -3.48e-08
4418.4, -3.589e-08
4420.4, -3.071e-08
4422.4, -3.486e-08
4424.4, -3.36e-08
4426.4, -3.273e-08
4428.4, -3.148e-08
4430.4, -2.974e-08
4432.4, -3.152e-08
4434.4, -2.985e-08
4436.4, -2.916e-08
4438.4, -3.369e-08
4440.4, -2.9e-08
4442.4, -3.368e-08
4444.4, -3.48e-08
4446.4, -3.456e-08
4448.4, -3.262e-08
4450.4, -3.311e-08
4452.4, -2.934e-08
4454.4, -3.282e-08
4456.5, -3.307e-08
4458.5, -2.964e-08
4460.5, -3.364e-08
4462.5, -3.198e-08
4464.5, -2.89e-08
4466.5, -3.178e-08
4468.5, -3.08e-08
4470.5, -3.265e-08
4472.5, -3.438e-08
4474.5, -2.915e-08
4476.5, -3.177e-08
4478.5, -3.647e-08
4480.5, -3.647e-08
4482.5, -3.512e-08
4484.5, -3.317e-08
4486.5, -3.793e-08
4488.5, -3.265e-08
4490.5, -3.448e-08
4492.5, -3.638e-08
4494.5, -3.093e-08
4496.5, -3.169e-08
4498.5, -3.39e-08
4500.5, -3.534e-08
4502.5, -3.565e-08
4504.5, -3.412e-08
4506.5, -3.373e-08
4508.5, -3.586e-08
4510.5, -3.103e-08
4512.5, -3.546e-08
4514.5, -3.493e-08
4516.5, -3.336e-08
4518.5, -3.262e-08
4520.5, -3.019e-08
4522.5, -3.216e-08
4524.5, -3.006e-08
4526.5, -3.158e-08
4528.5, -3.073e-08
4530.5, -3.358e-08
4532.5, -3.374e-08
4534.5, -3.279e-08
4536.5, -3.445e-08
4538.5, -3.417e-08
4540.5, -3.288e-08
4542.5, -3.363e-08
4544.5, -3.577e-08
4546.5, -3.127e-08
4548.5, -3.397e-08
4550.5, -3.207e-08
4552.5, -3.351e-08
4554.5, -3.141e-08
4556.6, -3.302e-08
4558.6, -3.382e-08
4560.6, -3.489e-08
4562.6, -3.346e-08
4564.6, -3.467e-08
4566.6, -3.364e-08
4568.6, -3.712e-08
4570.6, -3.587e-08
4572.6, -3.556e-08
4574.6, -3.31e-08
4576.6, -3.956e-08
4578.6, -3.486e-08
4580.6, -3.09e-08
4582.6, -3.234e-08
4584.6, -3.295e-08
4586.6, -3.395e-08
4588.6, -3.5e-08
4590.6, -3.872e-08
4592.6, -3.683e-08
4594.6, -3.226e-08
4596.6, -3.733e-08
4598.6, -3.438e-08
4600.6, -3.442e-08
4602.6, -3.285e-08
4604.6, -3.654e-08
4606.6, -3.689e-08
4608.6, -3.825e-08
4610.6, -3.746e-08
4612.6, -3.202e-08
4614.6, -3.573e-08
4616.6, -3.355e-08
4618.6, -3.646e-08
4620.6, -3.828e-08
4622.6, -3.67e-08
4624.6, -3.75e-08
4626.6, -3.324e-08
4628.6, -3.422e-08
4630.6, -3.58e-08
4632.6, -3.525e-08
4634.6, -3.31e-08
4636.6, -3.65e-08
4638.6, -3.872e-08
4640.6, -3.54e-08
4642.6, -3.855e-08
4644.6, -3.624e-08
4646.6, -3.912e-08
4648.6, -3.809e-08
4650.6, -3.682e-08
4652.6, -3.518e-08
4654.6, -3.273e-08
4656.7, -3.862e-08
4658.7, -3.43e-08
4660.7, -3.484e-08
4662.7, -3.505e-08
4664.7, -3.541e-08
4666.7, -3.659e-08
4668.7, -3.478e-08
4670.7, -3.564e-08
4672.7, -3.659e-08
4674.7, -3.467e-08
4676.7, -3.597e-08
4678.7, -3.629e-08
4680.7, -3.645e-08
4682.7, -3.345e-08
4684.7, -3.261e-08
4686.7, -3.357e-08
4688.7, -3.375e-08
4690.7, -3.409e-08
4692.7, -3.436e-08
4694.7, -3.47e-08
4696.7, -3.498e-08
4698.7, -3.864e-08
4700.7, -3.689e-08
4702.7, -3.841e-08
4704.7, -4.059e-08
4706.7, -3.751e-08
4708.7, -3.804e-08
4710.7, -3.993e-08
4712.7, -3.612e-08
4714.7, -3.964e-08
4716.7, -3.806e-08
4718.7, -3.673e-08
4720.7, -4.059e-08
4722.7, -3.724e-08
4724.7, -3.752e-08
4726.7, -4.013e-08
4728.7, -3.975e-08
4730.7, -3.848e-08
4732.7, -3.781e-08
4734.7, -3.521e-08
4736.7, -3.575e-08
4738.7, -3.227e-08
4740.7, -3.649e-08
4742.7, -3.557e-08
4744.7, -3.315e-08
4746.7, -3.2e-08
4748.7, -3.338e-08
4750.7, -3.506e-08
4752.7, -3.481e-08
4754.7, -3.638e-08
4756.8, -3.564e-08
4758.8, -3.838e-08
4760.8, -3.477e-08
4762.8, -3.369e-08
4764.8, -3.723e-08
4766.8, -3.679e-08
4768.8, -4.084e-08
4770.8, -4.08e-08
4772.8, -3.981e-08
4774.8, -3.744e-08
4776.8, -3.789e-08
4778.8, -4.06e-08
4780.8, -3.899e-08
4782.8, -3.884e-08
4784.8, -3.991e-08
4786.8, -3.894e-08
4788.8, -3.96e-08
4790.8, -4.17e-08
4792.8, -4.235e-08
4794.8, -4.024e-08
4796.8, -4.157e-08
4798.8, -4.1e-08
4800.8, -3.981e-08
4802.8, -3.805e-08
4804.8, -4.071e-08
4806.8, -3.96e-08
4808.8, -3.747e-08
4810.8, -3.775e-08
4812.8, -3.696e-08
4814.8, -3.577e-08
4816.8, -3.777e-08
4818.8, -3.334e-08
4820.8, -3.763e-08
4822.8, -3.922e-08
4824.8, -3.813e-08
4826.8, -3.773e-08
4828.8, -3.386e-08
4830.8, -4.063e-08
4832.8, -3.825e-08
4834.8, -3.867e-08
4836.8, -4.194e-08
4838.8, -3.806e-08
4840.8, -3.694e-08
4842.8, -4.031e-08
4844.8, -4.026e-08
4846.8, -3.594e-08
4848.8, -3.85e-08
4850.8, -3.509e-08
4852.8, -3.591e-08
4854.8, -3.971e-08
4856.9, -3.418e-08
4858.9, -3.822e-08
4860.9, -3.282e-08
4862.9, -3.573e-08
4864.9, -3.565e-08
4866.9, -3.674e-08
4868.9, -3.67e-08
4870.9, -3.937e-08
4872.9, -3.706e-08
4874.9, -3.689e-08
4876.9, -3.634e-08
4878.9, -3.544e-08
4880.9, -3.788e-08
4882.9, -3.696e-08
4884.9, -4.179e-08
4886.9, -3.953e-08
4888.9, -3.68e-08
4890.9, -4.239e-08
4892.9, -3.949e-08
4894.9, -3.887e-08
4896.9, -3.935e-08
4898.9, -3.57e-08
4900.9, -3.633e-08
4902.9, -4.072e-08
4904.9, -3.676e-08
4906.9, -3.619e-08
4908.9, -3.385e-08
4910.9, -3.502e-08
4912.9, -3.619e-08
4914.9, -3.274e-08
4916.9, -3.679e-08
4918.9, -3.877e-08
4920.9, -3.767e-08
4922.9, -3.672e-08
4924.9, -3.98e-08
4926.9, -3.76e-08
4928.9, -3.669e-08
4930.9, -3.547e-08
4932.9, -3.504e-08
4934.9, -4.028e-08
4936.9, -3.647e-08
4938.9, -3.737e-08
4940.9, -3.723e-08
4942.9, -3.454e-08
4944.9, -3.422e-08
4946.9, -3.338e-08
4948.9, -3.626e-08
4950.9, -3.827e-08
4952.9, -3.656e-08
4954.9, -3.891e-08
4957.0, -3.974e-08
4959.0, -4.212e-08
4961.0, -3.973e-08
4963.0, -3.694e-08
4965.0, -3.795e-08
4967.0, -3.818e-08
4969.0, -3.511e-08
4971.0, -4.018e-08
4973.0, -3.812e-08
4975.0, -3.955e-08
4977.0, -4.036e-08
4979.0, -3.988e-08
4981.0, -3.784e-08
4983.0, -4.03e-08
4985.0, -4.114e-08
4987.0, -4.342e-08
4989.0, -4.258e-08
4991.0, -4.446e-08
4993.0, -4.096e-08
4995.0, -3.886e-08
4997.0, -3.986e-08
4999.0, -4.193e-08
5001.0, -4.229e-08
5003.0, -4.177e-08
5005.0, -4.263e-08
5007.0, -4.239e-08
5009.0, -4.441e-08
5011.0, -3.801e-08
5013.0, -3.846e-08
5015.0, -3.615e-08
5017.0, -3.457e-08
5019.0, -3.697e-08
5021.0, -4.223e-08
5023.0, -3.771e-08
5025.0, -3.836e-08
5027.0, -4.116e-08
5029.0, -3.958e-08
5031.0, -3.848e-08
5033.0, -3.878e-08
5035.0, -3.972e-08
5037.0, -3.904e-08
5039.0, -3.962e-08
5041.0, -3.748e-08
5043.0, -3.751e-08
5045.0, -3.911e-08
5047.0, -3.822e-08
5049.0, -4.096e-08
5051.0, -3.832e-08
5053.0, -3.444e-08
5055.0, -3.517e-08
5057.1, -3.719e-08
5059.1, -3.817e-08
5061.1, -3.611e-08
5063.1, -3.678e-08
5065.1, -3.654e-08
5067.1, -3.791e-08
5069.1, -3.557e-08
5071.1, -3.499e-08
5073.1, -3.657e-08
5075.1, -3.725e-08
5077.1, -3.797e-08
5079.1, -4.054e-08
5081.1, -4.013e-08
5083.1, -3.885e-08
5085.1, -3.809e-08
5087.1, -4.045e-08
5089.1, -3.786e-08
5091.1, -3.859e-08
5093.1, -3.956e-08
5095.1, -3.825e-08
5097.1, -3.785e-08
5099.1, -3.69e-08
5101.1, -4.316e-08
5103.1, -4.101e-08
5105.1, -3.852e-08
5107.1, -3.63e-08
5109.1, -3.738e-08
5111.1, -3.801e-08
5113.1, -3.566e-08
5115.1, 4.364e-08
5117.1, 6.113e-07
5119.1, 5.5172e-07
5121.1, 6.3059e-07
5123.1, 5.181e-07
5125.1, 6.4667e-07
5127.1, 6.2745e-07
5129.1, 6.617e-07
5131.1, 5.9238e-07
5133.1, 5.6972e-07
5135.1, 5.6417e-07
5137.1, 5.7644e-07
5139.1, 5.8612e-07
5141.1, 5.8511e-07
5143.1, 6.036e-07
5145.1, 5.9072e-07
5147.1, 6.3357e-07
5149.1, 6.5963e-07
5151.1, 6.1509e-07
5153.1, 6.4877e-07
5155.1, 6.2461e-07
5157.2, 5.4718e-07
5159.2, 6.3342e-07
5161.2, 6.0483e-07
5163.2, 6.1329e-07
5165.2, 5.897e-07
5167.2, 5.834e-07
5169.2, 6.1798e-07
5171.2, 5.3151e-07
5173.2, 5.8354e-07
5175.2, 6.6236e-07
5177.2, 6.28e-07
5179.2, 5.961e-07
5181.2, 6.452e-07
5183.2, 6.2897e-07
5185.2, 5.9105e-07
5187.2, 5.8383e-07
5189.2, 6.4397e-07
5191.2, 6.1964e-07
5193.2, 6.2432e-07
5195.2, 5.671e-07
5197.2, 6.3932e-07
5199.2, 5.5181e-07
5201.2, 6.565e-07
5203.2, 6.3156e-07
5205.2, 6.7306e-07
5207.2, 6.5091e-07
5209.2, 6.7105e-07
5211.2, 6.1923e-07
5213.2, 6.5046e-07
5215.2, 5.9246e-07
5217.2, 6.0016e-07
5219.2, 6.5555e-07
5221.2, 6.1582e-07
5223.2, 6.751e-07
5225.2, 6.249e-07
5227.2, 6.5214e-07
5229.2, 6.3461e-07
5231.2, 7.08e-07
5233.2, 6.395e-07
5235.2, 6.9874e-07
5237.2, 6.3472e-07
5239.2, 6.3355e-07
5241.2, 6.5161e-07
5243.2, 6.2938e-07
5245.2, 6.6961e-07
5247.2, 6.7422e-07
5249.2, 6.3551e-07
5251.2, 6.6578e-07
5253.2, 5.9882e-07
5255.2, 6.3143e-07
5257.3, 6.7614e-07
5259.3, 6.5816e-07
5261.3, 6.9549e-07
5263.3, 6.1304e-07
5265.3, 6.3606e-07
5267.3, 7.0138e-07
5269.3, 7.1607e-07
5271.3, 6.4572e-07
5273.3, 6.3587e-07
5275.3, 6.4803e-07
5277.3, 7.029e-07
5279.3, 7.1002e-07
5281.3, 6.2746e-07
5283.3, 6.2509e-07
5285.3, 6.7007e-07
5287.3, 6.5013e-07
5289.3, 6.9422e-07
5291.3, 6.667e-07
5293.3, 6.536e-07
5295.3, 6.2749e-07
5297.3, 6.2125e-07
5299.3, 5.9858e-07
5301.3, 6.238e-07
5303.3, 6.3117e-07
5305.3, 6.5938e-07
5307.3, 6.139e-07
5309.3, 6.4819e-07
5311.3, 6.6364e-07
5313.3, 7.4099e-07
5315.3, 7.0293e-07
5317.3, 7.1551e-07
5319.3, 7.2804e-07
5321.3, 6.7197e-07
5323.3, 6.8629e-07
5325.3, 6.8661e-07
5327.3, 5.8988e-07
5329.3, 5.9006e-07
5331.3, 6.559e-07
5333.3, 7.015e-07
5335.3, 6.6927e-07
5337.3, 7.009e-07
5339.3, 7.1505e-07
5341.3, 6.7271e-07
5343.3, 7.6214e-07
5345.3, 6.9239e-07
5347.3, 6.8111e-07
5349.3, 6.3335e-07
5351.3, 7.1318e-07
5353.3, 6.4593e-07
5355.3, 6.9163e-07
5357.4, 6.2305e-07
5359.4, 6.3676e-07
5361.4, 6.3377e-07
5363.4, 7.3897e-07
5365.4, 7.0786e-07
5367.4, 6.1656e-07
5369.4, 6.5993e-07
5371.4, 7.0727e-07
5373.4, 7.4784e-07
5375.4, 6.5427e-07
5377.4, 6.4264e-07
5379.4, 7.0528e-07
5381.4, 7.1137e-07
5383.4, 6.5079e-07
5385.4, 7.1238e-07
5387.4, 6.7247e-07
5389.4, 6.943e-07
5391.4, 6.8592e-07
5393.4, 6.4155e-07
5395.4, 6.9498e-07
5397.4, 6.8437e-07
5399.4, 6.707e-07
5401.4, 6.9526e-07
5403.4, 6.4346e-07
5405.4, 6.9936e-07
5407.4, 7.3992e-07
5409.4, 6.3283e-07
5411.4, 7.0153e-07
5413.4, 6.5056e-07
5415.4, 6.7549e-07
5417.4, 6.6123e-07
5419.4, 6.348e-07
5421.4, 7.284e-07
5423.4, 7.6921e-07
5425.4, 6.4425e-07
5427.4, 6.2463e-07
5429.4, 6.2714e-07
5431.4, 6.7844e-07
5433.4, 7.0698e-07
5435.4, 7.0203e-07
5437.4, 6.915e-07
5439.4, 7.7715e-07
5441.4, 7.1749e-07
5443.4, 6.4658e-07
5445.4, 6.3458e-07
5447.4, 6.9665e-07
5449.4, 6.5491e-07
5451.4, 7.1217e-07
5453.4, 6.7918e-07
5455.4, 6.7898e-07
5457.5, 6.9542e-07
5459.5, 7.8446e-07
5461.5, 7.1239e-07
5463.5, 6.8182e-07
5465.5, 6.5393e-07
5467.5, 6.9078e-07
5469.5, 6.7241e-07
5471.5, 7.0042e-07
5473.5, 6.9275e-07
5475.5, 6.7837e-07
5477.5, 7.0681e-07
5479.5, 7.4895e-07
5481.5, 6.6929e-07
5483.5, 6.9738e-07
5485.5, 6.7785e-07
5487.5, 7.1776e-07
5489.5, 6.6754e-07
5491.5, 6.5879e-07
5493.5, 6.9329e-07
5495.5, 7.0317e-07
5497.5, 6.6704e-07
5499.5, 6.6343e-07
5501.5, 6.4704e-07
5503.5, 7.1526e-07
5505.5, 7.3764e-07
5507.5, 6.3626e-07
5509.5, 6.8209e-07
5511.5, 7.0459e-07
5513.5, 7.7085e-07
5515.5, 6.6417e-07
5517.5, 7.1181e-07
5519.5, 6.4212e-07
5521.5, 6.9213e-07
5523.5, 6.6169e-07
5525.5, 6.6942e-07
5527.5, 6.9828e-07
5529.5, 7.0337e-07
5531.5, 7.2226e-07
5533.5, 6.758e-07
5535.5, 6.6926e-07
5537.5, 6.8339e-07
5539.5, 6.7865e-07
5541.5, 6.944e-07
5543.5, 6.7805e-07
5545.5, 6.811e-07
5547.5, 7.7534e-07
5549.5, 7.6666e-07
5551.5, 7.0884e-07
5553.5, 6.5622e-07
5555.5, 6.2759e-07
5557.6, 6.4632e-07
5559.6, 7.0081e-07
5561.6, 6.6231e-07
5563.6, 6.5205e-07
5565.6, 6.6529e-07
5567.6, 7.7563e-07
5569.6, 7.3209e-07
5571.6, 6.5605e-07
5573.6, 6.9378e-07
5575.6, 7.0939e-07
5577.6, 7.6011e-07
5579.6, 6.9167e-07
5581.6, 6.8327e-07
5583.6, 7.2551e-07
5585.6, 6.8292e-07
5587.6, 7.6802e-07
5589.6, 7.5956e-07
5591.6, 6.6394e-07
5593.6, 6.9534e-07
5595.6, 7.2578e-07
5597.6, 6.5907e-07
5599.6, 6.5792e-07
5601.6, 7.1483e-07
5603.6, 7.2108e-07
5605.6, 6.4836e-07
5607.6, 7.0737e-07
5609.6, 6.8376e-07
5611.6, 7.7329e-07
5613.6, 7.2172e-07
5615.6, 6.8796e-07
5617.6, 6.8214e-07
5619.6, 6.5795e-07
5621.6, 7.6449e-07
5623.6, 6.7365e-07
5625.6, 6.8106e-07
5627.6, 6.9523e-07
5629.6, 7.5704e-07
5631.6, 6.737e-07
5633.6, 7.3211e-07
5635.6, 7.1855e-07
5637.6, 6.3531e-07
5639.6, 6.6145e-07
5641.6, 7.5887e-07
5643.6, 6.8866e-07
5645.6, 6.8965e-07
5647.6, 7.3195e-07
5649.6, 7.4139e-07
5651.6, 7.6262e-07
5653.6, 7.6743e-07
5655.6, 6.051e-07
5657.7, 6.4011e-07
5659.7, 6.5533e-07
5661.7, 6.6461e-07
5663.7, 6.2569e-07
5665.7, 7.2454e-07
5667.7, 7.0573e-07
5669.7, 7.3724e-07
5671.7, 7.2223e-07
5673.7, 6.9376e-07
5675.7, 6.8417e-07
5677.7, 7.1569e-07
5679.7, 6.3681e-07
5681.7, 6.427e-07
5683.7, 6.984e-07
5685.7, 7.3815e-07
5687.7, 7.1755e-07
5689.7, 7.7993e-07
5691.7, 7.1093e-07
5693.7, 6.7795e-07
5695.7, 7.1239e-07
5697.7, 7.3125e-07
5699.7, 6.4791e-07
5701.7, 7.099e-07
5703.7, 7.0472e-07
5705.7, 7.1117e-07
5707.7, 7.038e-07
5709.7, 7.3271e-07
5711.7, 7.0361e-07
5713.7, 6.5248e-07
5715.7, 6.9225e-07
5717.7, 7.0044e-07
5719.7, 6.9163e-07
5721.7, 7.0186e-07
5723.7, 6.7218e-07
5725.7, 6.3743e-07
5727.7, 7.2341e-07
5729.7, 7.3517e-07
5731.7, 7.0798e-07
5733.7, 7.8226e-07
5735.7, 7.2868e-07
5737.7, 6.0846e-07
5739.7, 6.437e-07
5741.7, 6.1052e-07
5743.7, 6.9706e-07
5745.7, 7.6224e-07
5747.7, 7.2693e-07
5749.7, 7.2504e-07
5751.7, 7.2403e-07
5753.7, 6.7512e-07
5755.7, 7.201e-07
5757.8, 6.6589e-07
5759.8, 6.8596e-07
5761.8, 6.8941e-07
5763.8, 7.3037e-07
5765.8, 7.6284e-07
5767.8, 6.6976e-07
5769.8, 6.6931e-07
5771.8, 6.7521e-07
5773.8, 7.1516e-07
5775.8, 7.2885e-07
5777.8, 7.0156e-07
5779.8, 7.089e-07
5781.8, 7.8752e-07
5783.8, 7.0517e-07
5785.8, 6.6343e-07
5787.8, 6.1814e-07
5789.8, 5.7689e-07
5791.8, 7.3795e-07
5793.8, 7.3269e-07
5795.8, 7.5595e-07
5797.8, 7.1405e-07
5799.8, 7.5242e-07
5801.8, 7.2273e-07
5803.8, 6.5378e-07
5805.8, 6.2788e-07
5807.8, 6.3829e-07
5809.8, 6.9367e-07
5811.8, 7.2701e-07
5813.8, 6.9289e-07
5815.8, 6.8271e-07
5817.8, 6.8282e-07
5819.8, 6.9471e-07
5821.8, 6.6867e-07
5823.8, 6.5851e-07
5825.8, 6.6078e-07
5827.8, 6.7643e-07
5829.8, 6.7952e-07
5831.8, 6.7463e-07
5833.8, 6.2246e-07
5835.8, 6.8639e-07
5837.8, 7.0751e-07
5839.8, 6.2795e-07
5841.8, 6.6573e-07
5843.8, 6.7535e-07
5845.8, 7.138e-07
5847.8, 7.5703e-07
5849.8, 7.1988e-07
5851.8, 7.3648e-07
5853.8, 6.6915e-07
5855.8, 7.0971e-07
5857.9, 6.2063e-07
5859.9, 7.1625e-07
5861.9, 6.7383e-07
5863.9, 6.6194e-07
5865.9, 6.4166e-07
5867.9, 6.8936e-07
5869.9, 6.2004e-07
5871.9, 7.2378e-07
5873.9, 6.1443e-07
5875.9, 6.5919e-07
5877.9, 7.1011e-07
5879.9, 7.6609e-07
5881.9, 7.1112e-07
5883.9, 7.2291e-07
5885.9, 6.8073e-07
5887.9, 6.5963e-07
5889.9, 6.32e-07
5891.9, 7.4213e-07
5893.9, 6.9658e-07
5895.9, 6.7014e-07
5897.9, 7.7822e-07
5899.9, 6.8763e-07
5901.9, 6.8086e-07
5903.9, 6.4359e-07
5905.9, 6.7403e-07
5907.9, 6.6501e-07
5909.9, 6.3082e-07
5911.9, 7.5329e-07
5913.9, 7.4949e-07
5915.9, 7.6497e-07
5917.9, 7.042e-07
5919.9, 7.3749e-07
5921.9, 7.4893e-07
5923.9, 7.4066e-07
5925.9, 6.8149e-07
5927.9, 7.0927e-07
5929.9, 7.049e-07
5931.9, 6.8332e-07
5933.9, 7.212e-07
5935.9, 7.1409e-07
5937.9, 7.4426e-07
5939.9, 6.5368e-07
5941.9, 7.1431e-07
5943.9, 6.4601e-07
5945.9, 7.01e-07
5947.9, 7.2605e-07
5949.9, 7.2231e-07
5951.9, 6.7605e-07
5953.9, 7.8636e-07
5955.9, 7.0208e-07
5958.0, 7.0073e-07
5960.0, 6.7107e-07
5962.0, 6.562e-07
5964.0, 6.4847e-07
5966.0, 6.9528e-07
5968.0, 7.0577e-07
5970.0, 6.5656e-07
5972.0, 7.1357e-07
5974.0, 7.4272e-07
5976.0, 6.9442e-07
5978.0, 6.7616e-07
5980.0, 5.961e-07
5982.0, 6.2286e-07
5984.0, 7.2719e-07
5986.0, 7.2229e-07
5988.0, 6.6523e-07
5990.0, 7.3977e-07
5992.0, 7.2119e-07
5994.0, 6.6118e-07
5996.0, 6.8175e-07
5998.0, 7.476e-07
6000.0, 7.0913e-07
6002.0, 6.854e-07
6004.0, 6.5003e-07
6006.0, 6.7011e-07
6008.0, 7.3628e-07
6010.0, 6.8697e-07
6012.0, 7.2873e-07
6014.0, 6.8151e-07
6016.0, 6.976e-07
6018.0, 7.4393e-07
6020.0, 7.2117e-07
6022.0, 6.734e-07
6024.0, 7.765e-07
6026.0, 7.4242e-07
6028.0, 6.6244e-07
6030.0, 7.3873e-07
6032.0, 8.0819e-07
6034.0, 6.5443e-07
6036.0, 7.3867e-07
6038.0, 6.687e-07
6040.0, 7.1611e-07
6042.0, 7.1219e-07
6044.0, 6.5851e-07
6046.0, 7.4153e-07
6048.0, 7.6266e-07
6050.0, 7.4695e-07
6052.0, 7.1363e-07
6054.0, 7.6281e-07
6056.0, 6.6918e-07
6058.1, 6.5422e-07
6060.1, 7.3645e-07
6062.1, 7.0564e-07
6064.1, 6.4538e-07
6066.1, 6.8099e-07
6068.1, 6.806e-07
6070.1, 7.7832e-07
6072.1, 7.7776e-07
6074.1, 7.1072e-07
6076.1, 6.4759e-07
6078.1, 7.6773e-07
6080.1, 7.9028e-07
6082.1, 7.122e-07
6084.1, 7.151e-07
6086.1, 7.272e-07
6088.1, 6.4913e-07
6090.1, 7.4522e-07
6092.1, 6.9541e-07
6094.1, 6.787e-07
6096.1, 6.9523e-07
6098.1, 6.8253e-07
6100.1, 7.1043e-07
6102.1, 7.553e-07
6104.1, 7.4859e-07
6106.1, 7.0639e-07
6108.1, 7.1286e-07
6110.1, 7.0398e-07
6112.1, 7.0012e-07
6114.1, 6.8461e-07
6116.1, 4.1339e-07
6118.1, -3.702e-08
6120.1, -3.581e-08
6122.1, -3.771e-08
6124.1, -3.816e-08
6126.1, -3.67e-08
6128.1, -3.785e-08
6130.1, -3.745e-08
6132.1, -3.589e-08
6134.1, -3.342e-08
6136.1, -3.427e-08
6138.1, -3.325e-08
6140.1, -3.54e-08
6142.1, -3.955e-08
6144.1, -3.832e-08
6146.1, -3.582e-08
6148.1, -3.713e-08
6150.1, -3.728e-08
6152.1, -3.551e-08
6154.1, -3.703e-08
6156.1, -3.689e-08
6158.2, -4.112e-08
6160.2, -3.849e-08
6162.2, -3.987e-08
6164.2, -3.631e-08
6166.2, -3.659e-08
6168.2, -3.78e-08
6170.2, -4.3e-08
6172.2, -4.267e-08
6174.2, -3.909e-08
6176.2, -3.762e-08
6178.2, -3.737e-08
6180.2, -3.859e-08
6182.2, -4.021e-08
6184.2, -3.611e-08
6186.2, -3.459e-08
6188.2, -3.384e-08
6190.2, -3.987e-08
6192.2, -3.919e-08
6194.2, -3.743e-08
6196.2, -3.638e-08
6198.2, -4.084e-08
6200.2, -4.042e-08
6202.2, -3.535e-08
6204.2, -3.906e-08
6206.2, -3.595e-08
6208.2, -3.828e-08
6210.2, -4.315e-08
6212.2, -3.944e-08
6214.2, -3.945e-08
6216.2, -3.75e-08
6218.2, -3.924e-08
6220.2, -4.015e-08
6222.2, -3.671e-08
6224.2, -3.513e-08
6226.2, -3.682e-08
6228.2, -3.672e-08
6230.2, -3.552e-08
6232.2, -3.988e-08
6234.2, -4.002e-08
6236.2, -3.332e-08
6238.2, -3.861e-08
6240.2, -3.958e-08
6242.2, -3.882e-08
6244.2, -3.722e-08
6246.2, -3.807e-08
6248.2, -3.658e-08
6250.2, -4.033e-08
6252.2, -4.14e-08
6254.2, -3.849e-08
6256.2, -4.031e-08
6258.3, -4.129e-08
6260.3, -4.076e-08
6262.3, -3.973e-08
6264.3, -3.9e-08
6266.3, -3.964e-08
6268.3, -3.84e-08
6270.3, -3.854e-08
6272.3, -3.643e-08
6274.3, -3.605e-08
6276.3, -4.011e-08
6278.3, -3.472e-08
6280.3, -3.695e-08
6282.3, -3.519e-08
6284.3, -3.781e-08
6286.3, -3.524e-08
6288.3, -3.83e-08
6290.3, -3.695e-08
6292.3, -3.864e-08
6294.3, -3.788e-08
6296.3, -3.657e-08
6298.3, -3.329e-08
6300.3, -3.657e-08
6302.3, -3.965e-08
6304.3, -3.778e-08
6306.3, -3.744e-08
6308.3, -3.695e-08
6310.3, -4.047e-08
6312.3, -3.5e-08
6314.3, -3.683e-08
6316.3, -3.42e-08
6318.3, -3.676e-08
6320.3, -3.922e-08
6322.3, -3.492e-08
6324.3, -3.783e-08
6326.3, -3.518e-08
6328.3, -3.432e-08
6330.3, -3.686e-08
6332.3, -3.755e-08
6334.3, -3.989e-08
6336.3, -3.559e-08
6338.3, -3.691e-08
6340.3, -3.815e-08
6342.3, -3.724e-08
6344.3, -3.456e-08
6346.3, -3.452e-08
6348.3, -3.477e-08
6350.3, -3.888e-08
6352.3, -3.893e-08
6354.3, -3.561e-08
6356.3, -3.35e-08
6358.4, -3.495e-08
6360.4, -3.472e-08
6362.4, -3.657e-08
6364.4, -3.532e-08
6366.4, -3.475e-08
6368.4, -3.593e-08
6370.4, -3.555e-08
6372.4, -3.594e-08
6374.4, -3.603e-08
6376.4, -3.668e-08
6378.4, -3.668e-08
6380.4, -3.585e-08
6382.4, -3.636e-08
6384.4, -3.716e-08
6386.4, -3.94e-08
6388.4, -3.87e-08
6390.4, -3.912e-08
6392.4, -3.389e-08
6394.4, -3.447e-08
6396.4, -3.779e-08
6398.4, -3.609e-08
6400.4, -3.432e-08
6402.4, -3.699e-08
6404.4, -3.728e-08
6406.4, -3.917e-08
6408.4, -3.798e-08
6410.4, -3.641e-08
6412.4, -3.713e-08
6414.4, -3.609e-08
6416.4, -3.772e-08
6418.4, -3.621e-08
6420.4, -3.338e-08
6422.4, -3.582e-08
6424.4, -3.623e-08
6426.4, -3.398e-08
6428.4, -3.707e-08
6430.4, -3.614e-08
6432.4, -3.402e-08
6434.4, -3.419e-08
6436.4, -3.334e-08
6438.4, -3.371e-08
6440.4, -3.498e-08
6442.4, -3.339e-08
6444.4, -3.257e-08
6446.4, -3.46e-08
6448.4, -3.745e-08
6450.4, -3.823e-08
6452.4, -3.717e-08
6454.4, -3.89e-08
6456.4, -3.789e-08
6458.5, -3.764e-08
6460.5, -3.889e-08
6462.5, -3.724e-08
6464.5, -3.597e-08
6466.5, -3.843e-08
6468.5, -3.796e-08
6470.5, -3.727e-08
6472.5, -3.861e-08
6474.5, -3.893e-08
6476.5, -3.671e-08
6478.5, -3.723e-08
6480.5, -3.702e-08
6482.5, -3.614e-08
6484.5, -3.903e-08
6486.5, -4.185e-08
6488.5, -4.248e-08
6490.5, -4.314e-08
6492.5, -4.128e-08
6494.5, -3.794e-08
6496.5, -3.894e-08
6498.5, -4.067e-08
6500.5, -4.202e-08
6502.5, -3.929e-08
6504.5, -3.934e-08
6506.5, -3.749e-08
6508.5, -3.783e-08
6510.5, -3.811e-08
6512.5, -3.81e-08
6514.5, -4.431e-08
6516.5, -3.948e-08
6518.5, -4.084e-08
6520.5, -4.507e-08
6522.5, -3.914e-08
6524.5, -4.275e-08
6526.5, -3.893e-08
6528.5, -4.015e-08
6530.5, -3.772e-08
6532.5, -4.115e-08
6534.5, -4.265e-08
6536.5, -3.955e-08
6538.5, -4.21e-08
6540.5, -4.01e-08
6542.5, -4.201e-08
6544.5, -4.349e-08
6546.5, -4.54e-08
6548.5, -4.417e-08
6550.5, -4.052e-08
6552.5, -4.473e-08
6554.5, -4.147e-08
6556.5, -4.187e-08
6558.6, -4.082e-08
6560.6, -3.776e-08
6562.6, -3.791e-08
6564.6, -3.751e-08
6566.6, -3.702e-08
6568.6, -3.606e-08
6570.6, -3.682e-08
6572.6, -3.959e-08
6574.6, -3.74e-08
6576.6, -3.938e-08
6578.6, -4.096e-08
6580.6, -4.089e-08
6582.6, -4.167e-08
6584.6, -3.888e-08
6586.6, -4.325e-08
6588.6, -4.297e-08
6590.6, -4.213e-08
6592.6, -4.246e-08
6594.6, -3.937e-08
6596.6, -4.044e-08
6598.6, -3.796e-08
6600.6, -3.963e-08
6602.6, -4.235e-08
6604.6, -4.177e-08
6606.6, -3.753e-08
6608.6, -3.714e-08
6610.6, -3.697e-08
6612.6, -3.59e-08
6614.6, -3.679e-08
6616.6, -3.408e-08
6618.6, -3.439e-08
6620.6, -3.948e-08
6622.6, -3.692e-08
6624.6, -3.701e-08
6626.6, -3.056e-08
6628.6, -3.483e-08
6630.6, -3.443e-08
6632.6, -3.692e-08
6634.6, -3.625e-08
6636.6, -3.458e-08
6638.6, -3.145e-08
6640.6, -3.691e-08
6642.6, -3.561e-08
6644.6, -3.773e-08
6646.6, -4.005e-08
6648.6, -3.576e-08
6650.6, -3.659e-08
6652.6, -3.573e-08
6654.6, -3.64e-08
6656.6, -3.595e-08
6658.7, -3.863e-08
6660.7, -3.611e-08
6662.7, -3.267e-08
6664.7, -3.592e-08
6666.7, -3.418e-08
6668.7, -3.576e-08
6670.7, -3.74e-08
6672.7, -3.628e-08
6674.7, -3.558e-08
6676.7, -3.878e-08
6678.7, -4.177e-08
6680.7, -4.18e-08
6682.7, -4.018e-08
6684.7, -3.704e-08
6686.7, -3.887e-08
6688.7, -4.277e-08
6690.7, -4.311e-08
6692.7, -4.315e-08
6694.7, -4.03e-08
6696.7, -3.807e-08
6698.7, -3.788e-08
6700.7, -3.643e-08
6702.7, -3.416e-08
6704.7, -3.8e-08
6706.7, -3.781e-08
6708.7, -3.677e-08
6710.7, -3.806e-08
6712.7, -3.953e-08
6714.7, -3.97e-08
6716.7, -3.656e-08
6718.7, -3.869e-08
6720.7, -4.151e-08
6722.7, -3.787e-08
6724.7, -3.777e-08
6726.7, -3.752e-08
6728.7, -3.474e-08
6730.7, -3.56e-08
6732.7, -3.7e-08
6734.7, -3.906e-08
6736.7, -3.872e-08
6738.7, -3.569e-08
6740.7, -3.671e-08
6742.7, -3.635e-08
6744.7, -3.856e-08
6746.7, -3.653e-08
6748.7, -3.767e-08
6750.7, -3.441e-08
6752.7, -3.824e-08
6754.7, -3.435e-08
6756.7, -3.699e-08
6758.8, -3.477e-08
6760.8, -3.684e-08
6762.8, -4.046e-08
6764.8, -3.789e-08
6766.8, -3.761e-08
6768.8, -4.134e-08
6770.8, -4.236e-08
6772.8, -4.079e-08
6774.8, -4.018e-08
6776.8, -3.791e-08
6778.8, -3.669e-08
6780.8, -4.01e-08
6782.8, -4.021e-08
6784.8, -4.256e-08
6786.8, -3.936e-08
6788.8, -3.841e-08
6790.8, -3.914e-08
6792.8, -3.486e-08
6794.8, -3.643e-08
6796.8, -3.924e-08
6798.8, -3.921e-08
6800.8, -3.701e-08
6802.8, -3.644e-08
6804.8, -4.026e-08
6806.8, -3.603e-08
6808.8, -3.397e-08
6810.8, -4.044e-08
6812.8, -4.068e-08
6814.8, -3.542e-08
6816.8, -3.566e-08
6818.8, -3.745e-08
6820.8, -3.756e-08
6822.8, -3.857e-08
6824.8, -3.802e-08
6826.8, -3.636e-08
6828.8, -3.793e-08
6830.8, -3.432e-08
6832.8, -3.743e-08
6834.8, -3.459e-08
6836.8, -3.44e-08
6838.8, -3.598e-08
6840.8, -3.839e-08
6842.8, -3.381e-08
6844.8, -3.42e-08
6846.8, -3.401e-08
6848.8, -3.438e-08
6850.8, -3.717e-08
6852.8, -3.647e-08
6854.8, -3.773e-08
6856.8, -3.521e-08
6858.9, -3.778e-08
6860.9, -3.606e-08
6862.9, -3.757e-08
6864.9, -3.985e-08
6866.9, -3.592e-08
6868.9, -3.653e-08
6870.9, -4.075e-08
6872.9, -3.932e-08
6874.9, -3.65e-08
6876.9, -3.656e-08
6878.9, -4.011e-08
6880.9, -3.765e-08
6882.9, -3.992e-08
6884.9, -3.721e-08
6886.9, -3.473e-08
6888.9, -3.621e-08
6890.9, -3.919e-08
6892.9, -3.795e-08
6894.9, -3.818e-08
6896.9, -4.053e-08
6898.9, -4.009e-08
6900.9, -4.147e-08
6902.9, -3.828e-08
6904.9, -4.305e-08
6906.9, -3.686e-08
6908.9, -4.082e-08
6910.9, -4.092e-08
6912.9, -4.017e-08
6914.9, -4.153e-08
6916.9, -4.205e-08
6918.9, -4.284e-08
6920.9, -3.849e-08
6922.9, -4.31e-08
6924.9, -4.03e-08
6926.9, -4.377e-08
6928.9, -4.302e-08
6930.9, -4.384e-08
6932.9, -4.148e-08
6934.9, -3.877e-08
6936.9, -3.943e-08
6938.9, -4.243e-08
6940.9, -4.141e-08
6942.9, -4.033e-08
6944.9, -4.186e-08
6946.9, -4.281e-08
6948.9, -4.018e-08
6950.9, -4.244e-08
6952.9, -4.376e-08
6954.9, -4.293e-08
6956.9, -4.294e-08
6959.0, -4.142e-08
6961.0, -4.198e-08
6963.0, -4.187e-08
6965.0, -4.116e-08
6967.0, -4.006e-08
6969.0, -4.376e-08
6971.0, -4.263e-08
6973.0, -4.202e-08
6975.0, -4.273e-08
6977.0, -4.032e-08
6979.0, -3.937e-08
6981.0, -4.017e-08
6983.0, -4.047e-08
6985.0, -3.882e-08
6987.0, -4.131e-08
6989.0, -4.035e-08
6991.0, -3.953e-08
6993.0, -4.002e-08
6995.0, -4.367e-08
6997.0, -4.305e-08
6999.0, -4.248e-08
7001.0, -4.136e-08
7003.0, -4.196e-08
7005.0, -4.088e-08
7007.0, -4.255e-08
7009.0, -4.045e-08
7011.0, -3.965e-08
7013.0, -4.099e-08
7015.0, -4.228e-08
7017.0, -3.612e-08
7019.0, -4.11e-08
7021.0, -4.222e-08
7023.0, -4.266e-08
7025.0, -4.128e-08
7027.0, -4.155e-08
7029.0, -4.136e-08
7031.0, -4.304e-08
7033.0, -4.106e-08
7035.0, -3.857e-08
7037.0, -4.004e-08
7039.0, -4.148e-08
7041.0, -4.075e-08
7043.0, -4.464e-08
7045.0, -4.569e-08
7047.0, -4.186e-08
7049.0, -4.001e-08
7051.0, -4.191e-08
7053.0, -4.531e-08
7055.0, -4.573e-08
7057.0, -4.539e-08
7059.1, -4.553e-08
7061.1, -4.121e-08
7063.1, -4.138e-08
7065.1, -4.369e-08
7067.1, -3.807e-08
7069.1, -3.893e-08
7071.1, -4.031e-08
7073.1, -3.753e-08
7075.1, -3.902e-08
7077.1, -4.336e-08
7079.1, -4.116e-08
7081.1, -3.933e-08
7083.1, -4.079e-08
7085.1, -4.213e-08
7087.1, -3.947e-08
7089.1, -4.338e-08
7091.1, -4.112e-08
7093.1, -3.883e-08
7095.1, -3.945e-08
7097.1, -4.342e-08
7099.1, -4.052e-08
7101.1, -4.269e-08
7103.1, -3.789e-08
7105.1, -3.793e-08
7107.1, -4.307e-08
7109.1, -4.486e-08
7111.1, -4.427e-08
7113.1, -3.912e-08
7115.1, -4.127e-08
7117.1, -4.012e-08
7119.1, -4.268e-08
7121.1, -4.507e-08
7123.1, -3.905e-08
7125.1, -4.182e-08
7127.1, -4.108e-08
7129.1, -4.202e-08
7131.1, -3.848e-08
7133.1, -4.329e-08
7135.1, -4.127e-08
7137.1, -3.775e-08
7139.1, -4.004e-08
7141.1, -4.04e-08
7143.1, -3.933e-08
7145.1, -4.28e-08
7147.1, -4.225e-08
7149.1, -4.229e-08
7151.1, -3.954e-08
7153.1, -4.246e-08
7155.1, -4.05e-08
7157.1, -4.341e-08
7159.2, -4.23e-08
7161.2, -4.042e-08
7163.2, -4.163e-08
7165.2, 7.3726e-07
7167.2, 6.1941e-07
7169.2, 5.9835e-07
7171.2, 5.7692e-07
7173.2, 5.5659e-07
7175.2, 6.395e-07
7177.2, 5.9492e-07
7179.2, 6.367e-07
7181.2, 6.1063e-07
7183.2, 5.7127e-07
7185.2, 5.8367e-07
7187.2, 6.7477e-07
7189.2, 6.2911e-07
7191.2, 5.8933e-07
7193.2, 6.3857e-07
7195.2, 6.1554e-07
7197.2, 6.3088e-07
7199.2, 5.978e-07
7201.2, 7.2042e-07
7203.2, 6.7975e-07
7205.2, 6.3585e-07
7207.2, 6.7935e-07
7209.2, 6.1639e-07
7211.2, 6.0955e-07
7213.2, 6.4322e-07
7215.2, 6.658e-07
7217.2, 7.0073e-07
7219.2, 6.1713e-07
7221.2, 6.3389e-07
7223.2, 6.339e-07
7225.2, 5.4104e-07
7227.2, 6.1415e-07
7229.2, 6.1636e-07
7231.2, 7.258e-07
7233.2, 6.3944e-07
7235.2, 6.3349e-07
7237.2, 5.7888e-07
7239.2, 5.8297e-07
7241.2, 6.0439e-07
7243.2, 6.3214e-07
7245.2, 6.4247e-07
7247.2, 6.1247e-07
7249.2, 5.6941e-07
7251.2, 6.2257e-07
7253.2, 6.4437e-07
7255.2, 6.2753e-07
7257.2, 5.7059e-07
7259.3, 6.5932e-07
7261.3, 6.0023e-07
7263.3, 6.8501e-07
7265.3, 5.6327e-07
7267.3, 6.3925e-07
7269.3, 6.6839e-07
7271.3, 5.7826e-07
7273.3, 6.6083e-07
7275.3, 6.0709e-07
7277.3, 6.8843e-07
7279.3, 6.8329e-07
7281.3, 5.8006e-07
7283.3, 5.8675e-07
7285.3, 6.8753e-07
7287.3, 6.7309e-07
7289.3, 6.7622e-07
7291.3, 6.899e-07
7293.3, 6.6718e-07
7295.3, 5.9746e-07
7297.3, 6.5402e-07
7299.3, 6.4524e-07
7301.3, 6.4314e-07
7303.3, 6.1621e-07
7305.3, 6.1768e-07
7307.3, 6.3861e-07
7309.3, 6.4545e-07
7311.3, 7.1021e-07
7313.3, 5.9763e-07
7315.3, 6.0109e-07
7317.3, 6.4269e-07
7319.3, 6.9156e-07
7321.3, 6.3309e-07
7323.3, 6.7628e-07
7325.3, 6.9154e-07
7327.3, 6.3724e-07
7329.3, 6.3991e-07
7331.3, 6.6663e-07
7333.3, 6.7073e-07
7335.3, 6.3954e-07
7337.3, 6.0032e-07
7339.3, 6.462e-07
7341.3, 6.1223e-07
7343.3, 5.2287e-07
7345.3, 6.42e-07
7347.3, 6.747e-07
7349.3, 7.4092e-07
7351.3, 7.0215e-07
7353.3, 6.9861e-07
7355.3, 6.278e-07
7357.3, 7.2992e-07
7359.4, 6.6076e-07
7361.4, 6.7931e-07
7363.4, 6.7141e-07
7365.4, 7.0899e-07
7367.4, 7.0498e-07
7369.4, 6.4957e-07
7371.4, 7.2556e-07
7373.4, 7.7668e-07
7375.4, 6.6111e-07
7377.4, 7.2374e-07
7379.4, 7.1275e-07
7381.4, 6.6794e-07
7383.4, 7.0803e-07
7385.4, 7.2108e-07
7387.4, 7.4652e-07
7389.4, 6.8928e-07
7391.4, 6.6853e-07
7393.4, 7.0557e-07
7395.4, 7.001e-07
7397.4, 6.1029e-07
7399.4, 7.3567e-07
7401.4, 7.4142e-07
7403.4, 6.9481e-07
7405.4, 6.7207e-07
7407.4, 7.4241e-07
7409.4, 7.2631e-07
7411.4, 6.4128e-07
7413.4, 6.7521e-07
7415.4, 6.6021e-07
7417.4, 7.098e-07
7419.4, 6.9876e-07
7421.4, 6.8969e-07
7423.4, 7.3475e-07
7425.4, 6.1753e-07
7427.4, 6.4745e-07
7429.4, 6.4346e-07
7431.4, 6.7721e-07
7433.4, 6.8006e-07
7435.4, 7.4344e-07
7437.4, 6.7394e-07
7439.4, 6.6856e-07
7441.4, 6.7179e-07
7443.4, 7.0531e-07
7445.4, 6.3833e-07
7447.4, 7.3784e-07
7449.4, 7.5759e-07
7451.4, 6.4576e-07
7453.4, 7.0876e-07
7455.4, 7.0757e-07
7457.4, 7.4369e-07
7459.5, 7.087e-07
7461.5, 6.9147e-07
7463.5, 7.1013e-07
7465.5, 7.1757e-07
7467.5, 6.2657e-07
7469.5, 7.1316e-07
7471.5, 6.8329e-07
7473.5, 6.0607e-07
7475.5, 7.2206e-07
7477.5, 6.7467e-07
7479.5, 6.0633e-07
7481.5, 6.7137e-07
7483.5, 6.5383e-07
7485.5, 7.5983e-07
7487.5, 6.9455e-07
7489.5, 7.283e-07
7491.5, 6.2677e-07
7493.5, 6.229e-07
7495.5, 6.8273e-07
7497.5, 7.4633e-07
7499.5, 6.5765e-07
7501.5, 6.5499e-07
7503.5, 6.8723e-07
7505.5, 6.5854e-07
7507.5, 7.3179e-07
7509.5, 7.0839e-07
7511.5, 6.8405e-07
7513.5, 7.2833e-07
7515.5, 7.4937e-07
7517.5, 6.3393e-07
7519.5, 7.2383e-07
7521.5, 7.7015e-07
7523.5, 6.8366e-07
7525.5, 6.541e-07
7527.5, 6.7357e-07
7529.5, 6.4923e-07
7531.5, 6.9499e-07
7533.5, 7.1486e-07
7535.5, 7.1473e-07
7537.5, 6.8228e-07
7539.5, 6.4546e-07
7541.5, 7.7542e-07
7543.5, 7.1593e-07
7545.5, 7.7448e-07
7547.5, 7.3237e-07
7549.5, 6.6625e-07
7551.5, 7.1183e-07
7553.5, 6.3895e-07
7555.5, 6.3441e-07
7557.5, 6.4752e-07
7559.6, 7.2775e-07
7561.6, 7.435e-07
7563.6, 6.7864e-07
7565.6, 6.0008e-07
7567.6, 6.9919e-07
7569.6, 6.8994e-07
7571.6, 7.4541e-07
7573.6, 6.8119e-07
7575.6, 7.7039e-07
7577.6, 7.7067e-07
7579.6, 6.4869e-07
7581.6, 7.4881e-07
7583.6, 6.8006e-07
7585.6, 7.832e-07
7587.6, 6.5023e-07
7589.6, 6.6487e-07
7591.6, 7.0432e-07
7593.6, 7.111e-07
7595.6, 6.7653e-07
7597.6, 7.5976e-07
7599.6, 6.648e-07
7601.6, 7.6321e-07
7603.6, 6.6934e-07
7605.6, 6.8587e-07
7607.6, 7.638e-07
7609.6, 7.3461e-07
7611.6, 6.2305e-07
7613.6, 6.8697e-07
7615.6, 6.5055e-07
7617.6, 7.0127e-07
7619.6, 7.0904e-07
7621.6, 6.304e-07
7623.6, 6.6387e-07
7625.6, 6.2537e-07
7627.6, 7.6524e-07
7629.6, 7.0529e-07
7631.6, 7.2704e-07
7633.6, 6.4843e-07
7635.6, 6.6317e-07
7637.6, 7.0284e-07
7639.6, 6.0744e-07
7641.6, 6.4604e-07
7643.6, 7.7535e-07
7645.6, 8.0817e-07
7647.6, 7.1709e-07
7649.6, 6.8536e-07
7651.6, 6.4368e-07
7653.6, 7.2815e-07
7655.6, 6.4367e-07
7657.6, 6.9036e-07
7659.7, 7.1324e-07
7661.7, 7.4164e-07
7663.7, 7.0956e-07
7665.7, 7.0209e-07
7667.7, 6.4871e-07
7669.7, 6.6833e-07
7671.7, 6.8094e-07
7673.7, 6.9384e-07
7675.7, 6.3109e-07
7677.7, 7.353e-07
7679.7, 7.3443e-07
7681.7, 7.5035e-07
7683.7, 6.7357e-07
7685.7, 7.0693e-07
7687.7, 6.5831e-07
7689.7, 6.6902e-07
7691.7, 6.9691e-07
7693.7, 6.6675e-07
7695.7, 7.2127e-07
7697.7, 7.7273e-07
7699.7, 7.5781e-07
7701.7, 6.1139e-07
7703.7, 6.8865e-07
7705.7, 7.2185e-07
7707.7, 7.8763e-07
7709.7, 6.1854e-07
7711.7, 6.5934e-07
7713.7, 7.0026e-07
7715.7, 7.1006e-07
7717.7, 6.9049e-07
7719.7, 6.2228e-07
7721.7, 7.0827e-07
7723.7, 7.2343e-07
7725.7, 6.4781e-07
7727.7, 7.675e-07
7729.7, 7.3849e-07
7731.7, 7.6038e-07
7733.7, 7.9839e-07
7735.7, 6.6292e-07
7737.7, 7.0561e-07
7739.7, 7.4832e-07
7741.7, 6.9794e-07
7743.7, 7.1806e-07
7745.7, 6.6225e-07
7747.7, 7.2976e-07
7749.7, 6.5398e-07
7751.7, 7.5228e-07
7753.7, 7.506e-07
7755.7, 6.1149e-07
7757.7, 7.3161e-07
7759.8, 6.6148e-07
7761.8, 6.1192e-07
7763.8, 7.5278e-07
7765.8, 7.4649e-07
7767.8, 7.2154e-07
7769.8, 6.8885e-07
7771.8, 6.6897e-07
7773.8, 6.6712e-07
7775.8, 7.4389e-07
7777.8, 7.6795e-07
7779.8, 6.7771e-07
7781.8, 7.5355e-07
7783.8, 6.7851e-07
7785.8, 7.1198e-07
7787.8, 7.0779e-07
7789.8, 7.0888e-07
7791.8, 6.6812e-07
7793.8, 7.1962e-07
7795.8, 7.2668e-07
7797.8, 6.7896e-07
7799.8, 7.6836e-07
7801.8, 7.558e-07
7803.8, 7.198e-07
7805.8, 6.2402e-07
7807.8, 6.7223e-07
7809.8, 6.7886e-07
7811.8, 7.186e-07
7813.8, 7.3294e-07
7815.8, 7.0916e-07
7817.8, 7.3762e-07
7819.8, 6.9101e-07
7821.8, 7.5921e-07
7823.8, 6.8429e-07
7825.8, 7.2083e-07
7827.8, 7.844e-07
7829.8, 6.7097e-07
7831.8, 6.9023e-07
7833.8, 7.4138e-07
7835.8, 6.7114e-07
7837.8, 7.4849e-07
7839.8, 6.1099e-07
7841.8, 7.3743e-07
7843.8, 7.014e-07
7845.8, 7.2576e-07
7847.8, 7.1147e-07
7849.8, 6.9534e-07
7851.8, 6.5147e-07
7853.8, 7.0419e-07
7855.8, 7.4429e-07
7857.8, 7.7997e-07
7859.9, 6.0031e-07
7861.9, 7.1807e-07
7863.9, 8.3228e-07
7865.9, 6.3908e-07
7867.9, 6.8293e-07
7869.9, 7.3444e-07
7871.9, 6.4977e-07
7873.9, 7.3254e-07
7875.9, 7.2683e-07
7877.9, 6.6765e-07
7879.9, 7.5754e-07
7881.9, 6.7257e-07
7883.9, 7.5231e-07
7885.9, 6.4723e-07
7887.9, 6.9428e-07
7889.9, 7.187e-07
7891.9, 7.0038e-07
7893.9, 7.1587e-07
7895.9, 6.8579e-07
7897.9, 7.5289e-07
7899.9, 6.1595e-07
7901.9, 6.3392e-07
7903.9, 6.7822e-07
7905.9, 6.6206e-07
7907.9, 6.185e-07
7909.9, 6.7636e-07
7911.9, 6.5794e-07
7913.9, 7.5623e-07
7915.9, 6.6259e-07
7917.9, 7.0121e-07
7919.9, 7.3835e-07
7921.9, 6.5576e-07
7923.9, 7.6543e-07
7925.9, 6.5712e-07
7927.9, 6.8094e-07
7929.9, 7.4768e-07
7931.9, 7.2897e-07
7933.9, 7.1069e-07
7935.9, 6.6092e-07
7937.9, 7.559e-07
7939.9, 6.7705e-07
7941.9, 7.8672e-07
7943.9, 8.2157e-07
7945.9, 6.7825e-07
7947.9, 7.3401e-07
7949.9, 6.7657e-07
7951.9, 6.2913e-07
7953.9, 6.9433e-07
7955.9, 7.6358e-07
7957.9, 7.5759e-07
7960.0, 6.4148e-07
7962.0, 7.8186e-07
7964.0, 6.4697e-07
7966.0, 7.0607e-07
7968.0, 7.3321e-07
7970.0, 6.3986e-07
7972.0, 6.269e-07
7974.0, 7.305e-07
7976.0, 6.204e-07
7978.0, 7.2751e-07
7980.0, 7.2398e-07
7982.0, 6.9529e-07
7984.0, 6.9405e-07
7986.0, 6.9229e-07
7988.0, 6.674e-07
7990.0, 6.9732e-07
7992.0, 7.5906e-07
7994.0, 7.3557e-07
7996.0, 6.3874e-07
7998.0, 6.713e-07
8000.0, 7.7912e-07
8002.0, 6.2545e-07
8004.0, 7.8679e-07
8006.0, 7.8505e-07
8008.0, 7.2141e-07
8010.0, 7.0442e-07
8012.0, 5.5093e-07
8014.0, 6.1667e-07
8016.0, 6.8094e-07
8018.0, 7.5385e-07
8020.0, 6.8323e-07
8022.0, 8.2232e-07
8024.0, 7.1079e-07
8026.0, 6.6689e-07
8028.0, 6.973e-07
8030.0, 6.6754e-07
8032.0, 8.141e-07
8034.0, 6.3155e-07
8036.0, 7.3612e-07
8038.0, 7.1446e-07
8040.0, 7.5194e-07
8042.0, 6.8957e-07
8044.0, 6.1301e-07
8046.0, 7.3418e-07
8048.0, 6.5997e-07
8050.0, 6.7003e-07
8052.0, 7.627e-07
8054.0, 6.6106e-07
8056.0, 7.4856e-07
8058.0, 6.5165e-07
8060.1, 6.5945e-07
8062.1, 7.5134e-07
8064.1, 7.1721e-07
8066.1, 7.4324e-07
8068.1, 7.2194e-07
8070.1, 7.0626e-07
8072.1, 6.6997e-07
8074.1, 7.7784e-07
8076.1, 7.0486e-07
8078.1, 7.4606e-07
8080.1, 6.9768e-07
8082.1, 7.5364e-07
8084.1, 7.4336e-07
8086.1, 7.6705e-07
8088.1, 7.7382e-07
8090.1, 7.0168e-07
8092.1, 7.311e-07
8094.1, 7.4197e-07
8096.1, 7.1202e-07
8098.1, 7.7626e-07
8100.1, 7.5764e-07
8102.1, 7.051e-07
8104.1, 8.2035e-07
8106.1, 6.6769e-07
8108.1, 7.5498e-07
8110.1, 7.1241e-07
8112.1, 7.3871e-07
8114.1, 6.4903e-07
8116.1, 6.5317e-07
8118.1, 6.7118e-07
8120.1, 7.69e-07
8122.1, 6.9402e-07
8124.1, 7.9196e-07
8126.1, 6.9914e-07
8128.1, 6.4259e-07
8130.1, 6.4542e-07
8132.1, 7.6033e-07
8134.1, 7.3977e-07
8136.1, 8.0151e-07
8138.1, 6.7525e-07
8140.1, 7.4162e-07
8142.1, 7.5823e-07
8144.1, 6.7428e-07
8146.1, 7.2156e-07
8148.1, 7.3563e-07
8150.1, 6.9548e-07
8152.1, 6.6123e-07
8154.1, 6.6679e-07
8156.1, 7.0118e-07
8158.1, 7.121e-07
8160.2, 6.8278e-07
8162.2, 7.4834e-07
8164.2, 7.2135e-07
8166.2, -4.895e-08
8168.2, -4.254e-08
8170.2, -4.009e-08
8172.2, -3.877e-08
8174.2, -4.293e-08
8176.2, -3.814e-08
8178.2, -3.825e-08
8180.2, -3.611e-08
8182.2, -4.083e-08
8184.2, -4.029e-08
8186.2, -4.077e-08
8188.2, -3.993e-08
8190.2, -4.383e-08
8192.2, -4.065e-08
8194.2, -3.972e-08
8196.2, -4.183e-08
8198.2, -4.175e-08
8200.2, -4.324e-08
8202.2, -4.403e-08
8204.2, -4.327e-08
8206.2, -4.279e-08
8208.2, -3.93e-08
8210.2, -4.167e-08
8212.2, -3.953e-08
8214.2, -3.975e-08
8216.2, -4.21e-08
8218.2, -3.841e-08
8220.2, -4.019e-08
8222.2, -4.213e-08
8224.2, -3.869e-08
8226.2, -4.099e-08
8228.2, -4.063e-08
8230.2, -4.175e-08
8232.2, -4.016e-08
8234.2, -4.078e-08
8236.2, -3.837e-08
8238.2, -3.781e-08
8240.2, -3.657e-08
8242.2, -3.65e-08
8244.2, -4.074e-08
8246.2, -4.202e-08
8248.2, -3.78e-08
8250.2, -4.003e-08
8252.2, -3.751e-08
8254.2, -4.135e-08
8256.2, -3.905e-08
8258.2, -4.108e-08
8260.3, -4.081e-08
8262.3, -3.831e-08
8264.3, -4.222e-08
8266.3, -4.055e-08
8268.3, -3.769e-08
8270.3, -4.193e-08
8272.3, -4.187e-08
8274.3, -4.232e-08
8276.3, -4.271e-08
8278.3, -4.176e-08
8280.3, -4.267e-08
8282.3, -4.301e-08
8284.3, -4.211e-08
8286.3, -4.36e-08
8288.3, -4.333e-08
8290.3, -4.136e-08
8292.3, -4.163e-08
8294.3, -4.164e-08
8296.3, -4.336e-08
8298.3, -4.177e-08
8300.3, -4.216e-08
8302.3, -4.382e-08
8304.3, -4.604e-08
8306.3, -4.316e-08
8308.3, -4.378e-08
8310.3, -4.23e-08
8312.3, -4.845e-08
8314.3, -4.266e-08
8316.3, -4.79e-08
8318.3, -4.082e-08
8320.3, -4.428e-08
8322.3, -4.573e-08
8324.3, -4.817e-08
8326.3, -4.59e-08
8328.3, -4.552e-08
8330.3, -4.44e-08
8332.3, -4.612e-08
8334.3, -4.311e-08
8336.3, -4.652e-08
8338.3, -4.281e-08
8340.3, -4.561e-08
8342.3, -4.314e-08
8344.3, -4.422e-08
8346.3, -4.175e-08
8348.3, -4.377e-08
8350.3, -4.111e-08
8352.3, -4.096e-08
8354.3, -3.836e-08
8356.3, -4.104e-08
8358.3, -4.165e-08
8360.4, -4.028e-08
8362.4, -4.086e-08
8364.4, -4.021e-08
8366.4, -3.627e-08
8368.4, -4.25e-08
8370.4, -4.572e-08
8372.4, -4.474e-08
8374.4, -4.308e-08
8376.4, -3.98e-08
8378.4, -4.205e-08
8380.4, -3.928e-08
8382.4, -4.385e-08
8384.4, -4.299e-08
8386.4, -4.459e-08
8388.4, -4.288e-08
8390.4, -4.387e-08
8392.4, -4.564e-08
8394.4, -4.576e-08
8396.4, -4.4e-08
8398.4, -4.377e-08
8400.4, -4.734e-08
8402.4, -4.722e-08
8404.4, -4.716e-08
8406.4, -4.714e-08
8408.4, -4.981e-08
8410.4, -4.683e-08
8412.4, -4.765e-08
8414.4, -4.337e-08
8416.4, -4.447e-08
8418.4, -4.512e-08
8420.4, -4.698e-08
8422.4, -4.903e-08
8424.4, -4.707e-08
8426.4, -4.807e-08
8428.4, -4.661e-08
8430.4, -4.69e-08
8432.4, -4.565e-08
8434.4, -4.62e-08
8436.4, -4.941e-08
8438.4, -4.301e-08
8440.4, -4.725e-08
8442.4, -4.456e-08
8444.4, -4.699e-08
8446.4, -4.35e-08
8448.4, -4.403e-08
8450.4, -4.111e-08
8452.4, -4.535e-08
8454.4, -4.419e-08
8456.4, -4.211e-08
8458.4, -4.05e-08
8460.5, -4.282e-08
8462.5, -4.12e-08
8464.5, -4.016e-08
8466.5, -3.762e-08
8468.5, -3.892e-08
8470.5, -4.183e-08
8472.5, -4.377e-08
8474.5, -3.978e-08
8476.5, -4.267e-08
8478.5, -4.072e-08
8480.5, -4.314e-08
8482.5, -4.114e-08
8484.5, -4.367e-08
8486.5, -4.733e-08
8488.5, -4.262e-08
8490.5, -4.63e-08
8492.5, -4.33e-08
8494.5, -4.435e-08
8496.5, -4.248e-08
8498.5, -4.431e-08
8500.5, -3.851e-08
8502.5, -3.796e-08
8504.5, -3.811e-08
8506.5, -3.799e-08
8508.5, -3.852e-08
8510.5, -3.642e-08
8512.5, -3.84e-08
8514.5, -3.936e-08
8516.5, -3.937e-08
8518.5, -3.97e-08
8520.5, -4.218e-08
8522.5, -4.221e-08
8524.5, -4.401e-08
8526.5, -4.064e-08
8528.5, -4.403e-08
8530.5, -4.042e-08
8532.5, -4.221e-08
8534.5, -4.063e-08
8536.5, -4.072e-08
8538.5, -4.401e-08
8540.5, -4.144e-08
8542.5, -4.479e-08
8544.5, -4.317e-08
8546.5, -4.213e-08
8548.5, -4.036e-08
8550.5, -3.947e-08
8552.5, -3.861e-08
8554.5, -3.904e-08
8556.5, -3.811e-08
8558.5, -3.916e-08
8560.6, -3.937e-08
8562.6, -4.25e-08
8564.6, -4.032e-08
8566.6, -4.455e-08
8568.6, -4.571e-08
8570.6, -4.324e-08
8572.6, -4.51e-08
8574.6, -4.105e-08
8576.6, -4.081e-08
8578.6, -4.015e-08
8580.6, -3.657e-08
8582.6, -3.708e-08
8584.6, -3.842e-08
8586.6, -3.701e-08
8588.6, -3.703e-08
8590.6, -4.135e-08
8592.6, -4.176e-08
8594.6, -4.076e-08
8596.6, -4.018e-08
8598.6, -4.372e-08
8600.6, -4.021e-08
8602.6, -4.226e-08
8604.6, -4.382e-08
8606.6, -3.978e-08
8608.6, -3.972e-08
8610.6, -3.975e-08
8612.6, -4.309e-08
8614.6, -4.221e-08
8616.6, -4.102e-08
8618.6, -3.963e-08
8620.6, -4.442e-08
8622.6, -3.93e-08
8624.6, -4.087e-08
8626.6, -3.766e-08
8628.6, -4.211e-08
8630.6, -4.181e-08
8632.6, -4.166e-08
8634.6, -4.052e-08
8636.6, -4.043e-08
8638.6, -4.011e-08
8640.6, -4.049e-08
8642.6, -4.288e-08
8644.6, -4.39e-08
8646.6, -4.365e-08
8648.6, -4.217e-08
8650.6, -3.877e-08
8652.6, -3.819e-08
8654.6, -3.736e-08
8656.6, -4.066e-08
8658.6, -3.891e-08
8660.7, -4.044e-08
8662.7, -3.543e-08
8664.7, -4.064e-08
8666.7, -4.014e-08
8668.7, -4.107e-08
8670.7, -4.148e-08
8672.7, -4.242e-08
8674.7, -3.691e-08
8676.7, -4.087e-08
8678.7, -4.052e-08
8680.7, -3.931e-08
8682.7, -4.312e-08
8684.7, -4.145e-08
8686.7, -3.777e-08
8688.7, -3.989e-08
8690.7, -3.841e-08
8692.7, -3.989e-08
8694.7, -3.949e-08
8696.7, -3.778e-08
8698.7, -3.869e-08
8700.7, -3.863e-08
8702.7, -4.212e-08
8704.7, -4.083e-08
8706.7, -4.16e-08
8708.7, -3.629e-08
8710.7, -4.102e-08
8712.7, -4.102e-08
8714.7, -4.137e-08
8716.7, -4.205e-08
8718.7, -4.132e-08
8720.7, -4.334e-08
8722.7, -3.931e-08
8724.7, -3.864e-08
8726.7, -3.946e-08
8728.7, -3.831e-08
8730.7, -4.143e-08
8732.7, -4.203e-08
8734.7, -3.855e-08
8736.7, -3.653e-08
8738.7, -4.159e-08
8740.7, -3.76e-08
8742.7, -4.208e-08
8744.7, -4.293e-08
8746.7, -3.982e-08
8748.7, -3.587e-08
8750.7, -3.761e-08
8752.7, -3.497e-08
8754.7, -4.136e-08
8756.7, -3.886e-08
8758.7, -4.076e-08
8760.8, -4.136e-08
8762.8, -3.867e-08
8764.8, -3.732e-08
8766.8, -3.6e-08
8768.8, -3.631e-08
8770.8, -3.582e-08
8772.8, -3.834e-08
8774.8, -3.967e-08
8776.8, -3.843e-08
8778.8, -3.561e-08
8780.8, -4.195e-08
8782.8, -3.878e-08
8784.8, -3.391e-08
8786.8, -3.526e-08
8788.8, -3.619e-08
8790.8, -3.668e-08
8792.8, -3.858e-08
8794.8, -3.602e-08
8796.8, -3.782e-08
8798.8, -4.005e-08
8800.8, -3.701e-08
8802.8, -4.082e-08
8804.8, -3.494e-08
8806.8, -3.626e-08
8808.8, -3.632e-08
8810.8, -3.657e-08
8812.8, -4.085e-08
8814.8, -4.232e-08
8816.8, -3.831e-08
8818.8, -4.065e-08
8820.8, -4.299e-08
8822.8, -3.698e-08
8824.8, -3.721e-08
8826.8, -3.827e-08
8828.8, -3.903e-08
8830.8, -3.477e-08
8832.8, -3.795e-08
8834.8, -3.541e-08
8836.8, -3.549e-08
8838.8, -3.31e-08
8840.8, -3.673e-08
8842.8, -3.66e-08
8844.8, -3.845e-08
8846.8, -3.754e-08
8848.8, -4.1e-08
8850.8, -3.89e-08
8852.8, -4.098e-08
8854.8, -4.064e-08
8856.8, -4.257e-08
8858.8, -3.908e-08
8860.9, -4.071e-08
8862.9, -4.015e-08
8864.9, -3.437e-08
8866.9, -3.79e-08
8868.9, -3.618e-08
8870.9, -3.92e-08
8872.9, -3.932e-08
8874.9, -4.11e-08
8876.9, -3.932e-08
8878.9, -3.957e-08
8880.9, -3.951e-08
8882.9, -4.251e-08
8884.9, -4.145e-08
8886.9, -4.362e-08
8888.9, -4.235e-08
8890.9, -4.038e-08
8892.9, -3.973e-08
8894.9, -3.779e-08
8896.9, -3.619e-08
8898.9, -3.817e-08
8900.9, -4.266e-08
8902.9, -4.103e-08
8904.9, -4.307e-08
8906.9, -4.29e-08
8908.9, -4.039e-08
8910.9, -4.069e-08
8912.9, -4.23e-08
8914.9, -4.217e-08
8916.9, -4.039e-08
8918.9, -3.797e-08
8920.9, -3.727e-08
8922.9, -3.728e-08
8924.9, -3.794e-08
8926.9, -3.771e-08
8928.9, -3.859e-08
8930.9, -3.814e-08
8932.9, -3.675e-08
8934.9, -3.793e-08
8936.9, -3.75e-08
8938.9, -3.811e-08
8940.9, -4.349e-08
8942.9, -3.949e-08
8944.9, -4.042e-08
8946.9, -3.708e-08
8948.9, -3.894e-08
8950.9, -3.602e-08
8952.9, -3.894e-08
8954.9, -3.807e-08
8956.9, -3.228e-08
8958.9, -3.447e-08
8961.0, -3.578e-08
8963.0, -3.296e-08
8965.0, -3.754e-08
8967.0, -3.575e-08
8969.0, -3.724e-08
8971.0, -3.507e-08
8973.0, -3.637e-08
8975.0, -4.021e-08
8977.0, -3.844e-08
8979.0, -3.584e-08
8981.0, -3.951e-08
8983.0, -3.665e-08
8985.0, -3.625e-08
8987.0, -3.637e-08
8989.0, -3.6e-08
8991.0, -3.534e-08
8993.0, -3.694e-08
8995.0, -3.356e-08
8997.0, -3.17e-08
8999.0, -3.511e-08
9001.0, -3.4e-08
9003.0, -3.676e-08
9005.0, -3.304e-08
9007.0, -3.536e-08
9009.0, -3.781e-08
9011.0, -3.764e-08
9013.0, -3.686e-08
9015.0, -3.846e-08
9017.0, -3.5e-08
9019.0, -3.379e-08
9021.0, -3.503e-08
9023.0, -3.726e-08
9025.0, -3.48e-08
9027.0, -3.627e-08
9029.0, -3.583e-08
9031.0, -3.393e-08
9033.0, -3.105e-08
9035.0, -3.324e-08
9037.0, -3.536e-08
9039.0, -3.834e-08
9041.0, -3.874e-08
9043.0, -3.677e-08
9045.0, -3.656e-08
9047.0, -3.397e-08
9049.0, -3.265e-08
9051.0, -3.527e-08
9053.0, -3.437e-08
9055.0, -3.521e-08
9057.0, -3.066e-08
9059.0, -3.159e-08
9061.1, -3.439e-08
9063.1, -3.152e-08
9065.1, -3.451e-08
9067.1, -3.399e-08
9069.1, -3.562e-08
9071.1, -3.699e-08
9073.1, -3.456e-08
9075.1, -3.287e-08
9077.1, -3.399e-08
9079.1, -3.472e-08
9081.1, -3.394e-08
9083.1, -3.68e-08
9085.1, -3.266e-08
9087.1, -3.648e-08
9089.1, -3.623e-08
9091.1, -3.969e-08
9093.1, -3.976e-08
9095.1, -3.683e-08
9097.1, -3.699e-08
9099.1, -3.853e-08
9101.1, -3.675e-08
9103.1, -3.827e-08
9105.1, -3.412e-08
9107.1, -3.937e-08
9109.1, -3.744e-08
9111.1, -3.936e-08
9113.1, -3.661e-08
9115.1, -3.79e-08
9117.1, -3.929e-08
9119.1, -3.617e-08
9121.1, -3.814e-08
9123.1, -3.834e-08
9125.1, -3.636e-08
9127.1, -4.01e-08
9129.1, -4.065e-08
9131.1, -3.645e-08
9133.1, -4.004e-08
9135.1, -3.587e-08
9137.1, -3.639e-08
9139.1, -3.925e-08
9141.1, -3.976e-08
9143.1, -3.529e-08
9145.1, -4.319e-08
9147.1, -3.918e-08
9149.1, -4.364e-08
9151.1, -3.623e-08
9153.1, -4.189e-08
9155.1, -3.983e-08
9157.1, -3.808e-08
9159.1, -4.156e-08
9161.2, -3.702e-08
9163.2, -4.403e-08
9165.2, -3.896e-08
9167.2, -3.96e-08
9169.2, -4.122e-08
9171.2, -3.748e-08
9173.2, -4.212e-08
9175.2, -4.149e-08
9177.2, -3.992e-08
9179.2, -3.924e-08
9181.2, -4.122e-08
9183.2, -4.369e-08
9185.2, -4.088e-08
9187.2, -3.951e-08
9189.2, -4.072e-08
9191.2, -3.923e-08
9193.2, -4.19e-08
9195.2, 3.3066e-07
9197.2, 5.5158e-07
9199.2, 6.0773e-07
9201.2, 6.8291e-07
9203.2, 6.9364e-07
9205.2, 5.7789e-07
9207.2, 7.0316e-07
9209.2, 6.1209e-07
9211.2, 6.7049e-07
9213.2, 6.5743e-07
9215.2, 6.162e-07
9217.2, 6.4534e-07
9219.2, 6.0976e-07
9221.2, 6.7215e-07
9223.2, 6.3676e-07
9225.2, 6.1246e-07
9227.2, 6.4109e-07
9229.2, 6.1481e-07
9231.2, 5.8929e-07
9233.2, 7.4129e-07
9235.2, 6.7212e-07
9237.2, 6.6474e-07
9239.2, 6.4849e-07
9241.2, 6.3247e-07
9243.2, 6.0909e-07
9245.2, 5.8171e-07
9247.2, 5.6092e-07
9249.2, 6.8656e-07
9251.2, 6.1665e-07
9253.2, 6.0005e-07
9255.2, 5.4753e-07
9257.2, 6.3062e-07
9259.2, 5.9695e-07
9261.3, 7.0313e-07
9263.3, 6.6312e-07
9265.3, 7.2345e-07
9267.3, 6.294e-07
9269.3, 7.2648e-07
9271.3, 6.572e-07
9273.3, 7.101e-07
9275.3, 6.3386e-07
9277.3, 6.2953e-07
9279.3, 6.619e-07
9281.3, 7.583e-07
9283.3, 6.3079e-07
9285.3, 6.4884e-07
9287.3, 6.3574e-07
9289.3, 5.9882e-07
9291.3, 5.9354e-07
9293.3, 7.0361e-07
9295.3, 6.583e-07
9297.3, 6.2278e-07
9299.3, 6.9806e-07
9301.3, 6.2129e-07
9303.3, 6.9768e-07
9305.3, 6.9073e-07
9307.3, 6.4311e-07
9309.3, 6.4049e-07
9311.3, 6.6608e-07
9313.3, 6.3634e-07
9315.3, 5.8989e-07
9317.3, 6.4057e-07
9319.3, 7.1938e-07
9321.3, 6.8009e-07
9323.3, 6.2342e-07
9325.3, 6.5767e-07
9327.3, 7.1364e-07
9329.3, 5.6857e-07
9331.3, 6.6787e-07
9333.3, 6.2302e-07
9335.3, 6.576e-07
9337.3, 5.9671e-07
9339.3, 6.0334e-07
9341.3, 5.9269e-07
9343.3, 6.1975e-07
9345.3, 6.5587e-07
9347.3, 6.15e-07
9349.3, 6.2504e-07
9351.3, 6.8267e-07
9353.3, 6.2308e-07
9355.3, 6.0138e-07
9357.3, 6.3548e-07
9359.3, 6.6889e-07
9361.4, 6.8052e-07
9363.4, 6.3762e-07
9365.4, 6.5736e-07
9367.4, 7.2217e-07
9369.4, 6.3193e-07
9371.4, 6.1452e-07
9373.4, 6.8855e-07
9375.4, 6.0742e-07
9377.4, 6.4934e-07
9379.4, 6.8186e-07
9381.4, 7.0128e-07
9383.4, 6.5685e-07
9385.4, 6.4009e-07
9387.4, 6.3534e-07
9389.4, 6.633e-07
9391.4, 6.6619e-07
9393.4, 6.8862e-07
9395.4, 6.8561e-07
9397.4, 6.3932e-07
9399.4, 6.8195e-07
9401.4, 6.2347e-07
9403.4, 7.099e-07
9405.4, 6.6493e-07
9407.4, 6.9149e-07
9409.4, 6.9704e-07
9411.4, 6.4407e-07
9413.4, 7.3907e-07
9415.4, 7.1106e-07
9417.4, 6.0045e-07
9419.4, 6.4986e-07
9421.4, 6.3555e-07
9423.4, 6.1969e-07
9425.4, 6.2763e-07
9427.4, 6.3638e-07
9429.4, 6.4826e-07
9431.4, 6.2017e-07
9433.4, 7.3702e-07
9435.4, 6.6844e-07
9437.4, 6.996e-07
9439.4, 7.2676e-07
9441.4, 6.5917e-07
9443.4, 5.8241e-07
9445.4, 7.3607e-07
9447.4, 6.5486e-07
9449.4, 6.6867e-07
9451.4, 6.17e-07
9453.4, 7.0686e-07
9455.4, 6.8795e-07
9457.4, 6.3287e-07
9459.4, 7.7125e-07
9461.5, 6.5973e-07
9463.5, 7.4751e-07
9465.5, 7.0531e-07
9467.5, 7.0663e-07
9469.5, 7.0378e-07
9471.5, 8.0005e-07
9473.5, 6.9787e-07
9475.5, 6.1759e-07
9477.5, 6.2771e-07
9479.5, 7.2519e-07
9481.5, 6.6536e-07
9483.5, 6.3197e-07
9485.5, 7.2816e-07
9487.5, 6.4382e-07
9489.5, 7.1567e-07
9491.5, 6.7122e-07
9493.5, 6.1542e-07
9495.5, 6.4167e-07
9497.5, 6.8722e-07
9499.5, 7.2201e-07
9501.5, 7.0499e-07
9503.5, 6.935e-07
9505.5, 7.0145e-07
9507.5, 7.3163e-07
9509.5, 7.2288e-07
9511.5, 7.3482e-07
9513.5, 7.0622e-07
9515.5, 7.0029e-07
9517.5, 7.2471e-07
9519.5, 7.2787e-07
9521.5, 6.5577e-07
9523.5, 6.3427e-07
9525.5, 7.5642e-07
9527.5, 6.1581e-07
9529.5, 7.2836e-07
9531.5, 6.7723e-07
9533.5, 7.7527e-07
9535.5, 6.249e-07
9537.5, 6.3236e-07
9539.5, 6.6385e-07
9541.5, 7.0921e-07
9543.5, 7.1278e-07
9545.5, 7.1212e-07
9547.5, 7.2522e-07
9549.5, 7.6513e-07
9551.5, 7.3613e-07
9553.5, 6.2761e-07
9555.5, 6.7725e-07
9557.5, 7.3882e-07
9559.5, 7.4366e-07
9561.6, 6.7176e-07
9563.6, 6.7315e-07
9565.6, 6.9476e-07
9567.6, 7.5453e-07
9569.6, 6.641e-07
9571.6, 7.194e-07
9573.6, 7.2771e-07
9575.6, 6.5411e-07
9577.6, 6.7564e-07
9579.6, 6.8709e-07
9581.6, 7.4314e-07
9583.6, 7.1715e-07
9585.6, 6.3679e-07
9587.6, 6.8627e-07
9589.6, 6.2998e-07
9591.6, 6.7327e-07
9593.6, 7.2549e-07
9595.6, 7.0555e-07
9597.6, 7.259e-07
9599.6, 7.5113e-07
9601.6, 6.792e-07
9603.6, 6.5743e-07
9605.6, 7.2494e-07
9607.6, 6.8158e-07
9609.6, 7.0599e-07
9611.6, 7.0726e-07
9613.6, 7.0156e-07
9615.6, 6.636e-07
9617.6, 7.7539e-07
9619.6, 7.4877e-07
9621.6, 6.9406e-07
9623.6, 7.0232e-07
9625.6, 7.0227e-07
9627.6, 6.612e-07
9629.6, 6.5262e-07
9631.6, 7.3859e-07
9633.6, 7.1028e-07
9635.6, 7.0448e-07
9637.6, 6.7297e-07
9639.6, 7.209e-07
9641.6, 6.7484e-07
9643.6, 7.6041e-07
9645.6, 8.5085e-07
9647.6, 6.8133e-07
9649.6, 6.9518e-07
9651.6, 6.3678e-07
9653.6, 7.0955e-07
9655.6, 7.4962e-07
9657.6, 7.3367e-07
9659.6, 7.6778e-07
9661.7, 7.0559e-07
9663.7, 7.0547e-07
9665.7, 6.5039e-07
9667.7, 7.4113e-07
9669.7, 5.9829e-07
9671.7, 6.9077e-07
9673.7, 7.1212e-07
9675.7, 6.7145e-07
9677.7, 6.4488e-07
9679.7, 6.2846e-07
9681.7, 6.9251e-07
9683.7, 6.7064e-07
9685.7, 7.0304e-07
9687.7, 7.2278e-07
9689.7, 7.2525e-07
9691.7, 7.5681e-07
9693.7, 7.6794e-07
9695.7, 7.2778e-07
9697.7, 6.4319e-07
9699.7, 7.6875e-07
9701.7, 7.1617e-07
9703.7, 6.7871e-07
9705.7, 6.8169e-07
9707.7, 7.0929e-07
9709.7, 6.7054e-07
9711.7, 7.8012e-07
9713.7, 7.1004e-07
9715.7, 7.8238e-07
9717.7, 7.7711e-07
9719.7, 7.398e-07
9721.7, 6.9861e-07
9723.7, 7.8884e-07
9725.7, 6.6937e-07
9727.7, 6.7701e-07
9729.7, 6.9449e-07
9731.7, 6.2958e-07
9733.7, 7.3407e-07
9735.7, 7.5491e-07
9737.7, 7.0118e-07
9739.7, 7.636e-07
9741.7, 6.1033e-07
9743.7, 6.7312e-07
9745.7, 6.874e-07
9747.7, 7.4752e-07
9749.7, 6.643e-07
9751.7, 7.44e-07
9753.7, 7.4075e-07
9755.7, 6.6398e-07
9757.7, 7.7331e-07
9759.7, 6.7099e-07
9761.8, 7.5449e-07
9763.8, 7.203e-07
9765.8, 7.1506e-07
9767.8, 7.1608e-07
9769.8, 7.1392e-07
9771.8, 7.7215e-07
9773.8, 7.9611e-07
9775.8, 7.0459e-07
9777.8, 7.967e-07
9779.8, 7.2306e-07
9781.8, 6.7677e-07
9783.8, 7.5321e-07
9785.8, 6.7785e-07
9787.8, 7.2015e-07
9789.8, 8.0862e-07
9791.8, 6.7201e-07
9793.8, 7.7336e-07
9795.8, 7.3323e-07
9797.8, 6.7301e-07
9799.8, 7.2909e-07
9801.8, 7.1771e-07
9803.8, 6.8099e-07
9805.8, 7.2491e-07
9807.8, 6.8269e-07
9809.8, 7.2028e-07
9811.8, 7.3066e-07
9813.8, 7.0388e-07
9815.8, 6.6547e-07
9817.8, 6.4435e-07
9819.8, 7.0612e-07
9821.8, 6.8478e-07
9823.8, 7.2185e-07
9825.8, 6.2716e-07
9827.8, 6.6522e-07
9829.8, 6.7682e-07
9831.8, 6.8707e-07
9833.8, 6.4559e-07
9835.8, 7.3824e-07
9837.8, 6.8548e-07
9839.8, 6.6937e-07
9841.8, 6.8023e-07
9843.8, 6.8925e-07
9845.8, 7.309e-07
9847.8, 6.2536e-07
9849.8, 7.6668e-07
9851.8, 7.0261e-07
9853.8, 6.5819e-07
9855.8, 6.511e-07
9857.8, 7.0841e-07
9859.8, 7.4324e-07
9861.9, 7.1753e-07
9863.9, 6.9919e-07
9865.9, 7.1022e-07
9867.9, 6.6602e-07
9869.9, 7.524e-07
9871.9, 7.5087e-07
9873.9, 6.9314e-07
9875.9, 6.8395e-07
9877.9, 7.5263e-07
9879.9, 7.6706e-07
9881.9, 7.2944e-07
9883.9, 7.1288e-07
9885.9, 7.1256e-07
9887.9, 6.7162e-07
9889.9, 7.4785e-07
9891.9, 7.4135e-07
9893.9, 7.9873e-07
9895.9, 6.8291e-07
9897.9, 6.9438e-07
9899.9, 7.1506e-07
9901.9, 7.9955e-07
9903.9, 6.6628e-07
9905.9, 6.6027e-07
9907.9, 6.7448e-07
9909.9, 6.3652e-07
9911.9, 7.2174e-07
9913.9, 6.38e-07
9915.9, 7.7352e-07
9917.9, 7.2942e-07
9919.9, 6.7251e-07
9921.9, 7.4582e-07
9923.9, 7.2252e-07
9925.9, 5.974e-07
9927.9, 6.9221e-07
9929.9, 7.0173e-07
9931.9, 6.8885e-07
9933.9, 6.9399e-07
9935.9, 7.0406e-07
9937.9, 7.3849e-07
9939.9, 6.9636e-07
9941.9, 7.7538e-07
9943.9, 7.4877e-07
9945.9, 7.1862e-07
9947.9, 7.3738e-07
9949.9, 7.3695e-07
9951.9, 8.1045e-07
9953.9, 7.592e-07
9955.9, 7.085e-07
9957.9, 7.3726e-07
9959.9, 7.4691e-07
9962.0, 7.321e-07
9964.0, 7.5937e-07
9966.0, 7.2986e-07
9968.0, 6.4657e-07
9970.0, 7.6264e-07
9972.0, 6.8013e-07
9974.0, 6.2595e-07
9976.0, 7.8693e-07
9978.0, 7.7049e-07
9980.0, 6.7196e-07
9982.0, 7.1017e-07
9984.0, 6.6984e-07
9986.0, 7.8423e-07
9988.0, 7.8136e-07
9990.0, 6.7978e-07
9992.0, 7.5917e-07
9994.0, 7.1692e-07
9996.0, 7.216e-07
9998.0, 7.1558e-07
10000.0, 7.4034e-07
10002.0, 7.124e-07
10004.0, 6.963e-07
10006.0, 7.464e-07
10008.0, 7.9141e-07
10010.0, 6.8886e-07
10012.0, 7.5326e-07
10014.0, 8.0681e-07
10016.0, 7.1445e-07
10018.0, 7.0023e-07
10020.0, 6.69e-07
10022.0, 7.5247e-07
10024.0, 6.8023e-07
10026.0, 6.9831e-07
10028.0, 7.3615e-07
10030.0, 7.2879e-07
10032.0, 6.3504e-07
10034.0, 7.0206e-07
10036.0, 7.3818e-07
10038.0, 7.8869e-07
10040.0, 7.2151e-07
10042.0, 7.6776e-07
10044.0, 7.8597e-07
10046.0, 7.9443e-07
10048.0, 6.9673e-07
10050.0, 6.4379e-07
10052.0, 6.823e-07
10054.0, 7.1059e-07
10056.0, 7.1597e-07
10058.0, 7.0611e-07
10060.0, 7.6036e-07
10062.0, 7.3045e-07
10064.0, 6.8761e-07
10066.0, 7.3768e-07
10068.0, 6.8674e-07
10070.0, 7.1829e-07
10072.0, 6.9769e-07
10074.0, 7.1858e-07
10076.0, 6.4498e-07
10078.0, 7.3877e-07
10080.0, 7.1723e-07
10082.0, 7.8213e-07
10084.0, 6.8861e-07
10086.0, 6.8184e-07
10088.0, 8.0509e-07
10090.0, 7.2701e-07
10092.0, 6.9046e-07
10094.0, 7.3508e-07
10096.0, 8.0207e-07
10098.0, 7.5038e-07
10100.0, 7.4971e-07
10102.0, 7.7084e-07
10104.0, 6.9176e-07
10106.0, 7.3209e-07
10108.0, 6.3971e-07
10110.0, 8.2605e-07
10112.0, 6.9993e-07
10114.0, 8.1458e-07
10116.0, 7.7694e-07
10118.0, 6.9679e-07
10120.0, 7.4396e-07
10122.0, 6.7351e-07
10124.0, 6.7618e-07
10126.0, 7.0332e-07
10128.0, 7.6719e-07
10130.0, 6.7903e-07
10132.0, 7.572e-07
10134.0, 8.0768e-07
10136.0, 7.3666e-07
10138.0, 7.0856e-07
10140.0, 7.9758e-07
10142.0, 6.8315e-07
10144.0, 7.7954e-07
10146.0, 7.8238e-07
10148.0, 7.1905e-07
10150.0, 8.2966e-07
10152.0, 8.0849e-07
10154.0, 7.4356e-07
10156.0, 7.036e-07
10158.0, 6.9911e-07
10160.0, 7.5954e-07
10162.0, 7.319e-07
10164.0, 7.8569e-07
10166.0, 7.1691e-07
10168.0, 7.2181e-07
10170.0, 6.9291e-07
10172.0, 7.5274e-07
10174.0, 6.818e-07
10176.0, 7.4134e-07
10178.0, 6.6388e-07
10180.0, 6.5021e-07
10182.0, 7.034e-07
10184.0, 7.0415e-07
10186.0, 7.9694e-07
10188.0, 7.5565e-07
10190.0, 7.5719e-07
10192.0, 7.6926e-07
10194.0, 7.2829e-07
10196.0, 3.6997e-07
10198.0, -3.356e-08
10200.0, -3.335e-08
10202.0, -3.879e-08
10204.0, -3.277e-08
10206.0, -3.484e-08
10208.0, -3.95e-08
10210.0, -3.582e-08
10212.0, -3.6e-08
10214.0, -3.619e-08
10216.0, -3.768e-08
10218.0, -4.096e-08
10220.0, -4.11e-08
10222.0, -4e-08
10224.0, -3.665e-08
10226.0, -3.895e-08
10228.0, -4.09e-08
10230.0, -3.821e-08
10232.0, -3.786e-08
10234.0, -3.681e-08
10236.0, -4.114e-08
10238.0, -3.799e-08
10240.0, -3.81e-08
10242.0, -3.721e-08
10244.0, -3.851e-08
10246.0, -3.968e-08
10248.0, -3.554e-08
10250.0, -3.749e-08
10252.0, -3.879e-08
10254.0, -4.041e-08
10256.0, -3.932e-08
10258.0, -3.678e-08
10260.0, -3.648e-08
10262.0, -3.671e-08
10264.0, -3.345e-08
10266.0, -3.415e-08
10268.0, -3.946e-08
10270.0, -3.836e-08
10272.0, -3.671e-08
10274.0, -3.887e-08
10276.0, -3.893e-08
10278.0, -3.421e-08
10280.0, -3.679e-08
10282.0, -3.735e-08
10284.0, -3.689e-08
10286.0, -3.85e-08
10288.0, -3.683e-08
10290.0, -3.817e-08
10292.0, -3.686e-08
10294.0, -3.881e-08
10296.0, -3.894e-08
10298.0, -3.695e-08
10300.0, -3.876e-08
10302.0, -4.133e-08
10304.0, -4.237e-08
10306.0, -4.282e-08
10308.0, -4.349e-08
10310.0, -4.379e-08
10312.0, -4.305e-08
10314.0, -4.255e-08
10316.0, -3.988e-08
10318.0, -3.997e-08
10320.0, -4.227e-08
10322.0, -4.188e-08
10324.0, -3.851e-08
10326.0, -3.786e-08
10328.0, -3.783e-08
10330.0, -3.635e-08
10332.0, -4.002e-08
10334.0, -4.251e-08
10336.0, -4.246e-08
10338.0, -4.099e-08
10340.0, -4.022e-08
10342.0, -3.706e-08
10344.0, -4.051e-08
10346.0, -4.034e-08
10348.0, -3.617e-08
10350.0, -3.995e-08
10352.0, -4.079e-08
10354.0, -3.794e-08
10356.0, -3.598e-08
10358.0, -3.98e-08
10360.0, -4.173e-08
10362.0, -3.755e-08
10364.0, -3.706e-08
10366.0, -3.457e-08
10368.0, -3.723e-08
10370.0, -3.549e-08
10372.0, -3.641e-08
10374.0, -3.892e-08
10376.0, -3.915e-08
10378.0, -3.555e-08
10380.0, -3.894e-08
10382.0, -3.935e-08
10384.0, -3.869e-08
10386.0, -3.896e-08
10388.0, -4.313e-08
10390.0, -3.866e-08
10392.0, -4.396e-08
10394.0, -4.13e-08
10396.0, -3.894e-08
10398.0, -3.819e-08
10400.0, -4.134e-08
10402.0, -3.982e-08
10404.0, -4.186e-08
10406.0, -3.681e-08
10408.0, -3.868e-08
10410.0, -3.212e-08
10412.0, -3.68e-08
10414.0, -3.589e-08
10416.0, -3.735e-08
10418.0, -3.996e-08
10420.0, -3.858e-08
10422.0, -3.669e-08
10424.0, -3.734e-08
10426.0, -4.079e-08
10428.0, -4.039e-08
10430.0, -3.67e-08
10432.0, -3.728e-08
10434.0, -3.575e-08
10436.0, -3.471e-08
10438.0, -3.798e-08
10440.0, -3.543e-08
10442.0, -3.923e-08
10444.0, -3.961e-08
10446.0, -3.881e-08
10448.0, -3.778e-08
10450.0, -3.65e-08
10452.0, -3.855e-08
10454.0, -4.077e-08
10456.0, -3.696e-08
10458.0, -3.736e-08
10460.0, -3.995e-08
10462.0, -3.368e-08
10464.0, -4.017e-08
10466.0, -3.913e-08
10468.0, -3.933e-08
10470.0, -4.061e-08
10472.0, -4.439e-08
10474.0, -4.293e-08
10476.0, -3.974e-08
10478.0, -4.188e-08
10480.0, -4.214e-08
10482.0, -4.068e-08
10484.0, -3.626e-08
10486.0, -3.777e-08
10488.0, -3.854e-08
10490.0, -3.66e-08
10492.0, -3.673e-08
10494.0, -3.754e-08
10496.0, -3.76e-08
10498.0, -4.161e-08
10500.0, -3.836e-08
10502.0, -4.105e-08
10504.0, -4.138e-08
10506.0, -4.213e-08
10508.0, -4.117e-08
10510.0, -4.09e-08
10513.0, -4.338e-08
10515.0, -3.694e-08
10517.0, -3.628e-08
10519.0, -4.087e-08
10521.0, -3.868e-08
10523.0, -3.711e-08
10525.0, -3.885e-08
10527.0, -3.47e-08
10529.0, -3.803e-08
10531.0, -3.845e-08
10533.0, -3.959e-08
10535.0, -3.759e-08
10537.0, -3.561e-08
10539.0, -3.436e-08
10541.0, -3.719e-08
10543.0, -3.919e-08
10545.0, -3.571e-08
10547.0, -3.531e-08
10549.0, -3.751e-08
10551.0, -3.93e-08
10553.0, -3.897e-08
10555.0, -4.154e-08
10557.0, -4.152e-08
10559.0, -4.256e-08
10561.0, -4.141e-08
10563.0, -3.824e-08
10565.0, -4.212e-08
10567.0, -4.064e-08
10569.0, -4.417e-08
10571.0, -4.722e-08
10573.0, -4.38e-08
10575.0, -4.476e-08
10577.0, -4.635e-08
10579.0, -4.702e-08
10581.0, -4.388e-08
10583.0, -4.384e-08
10585.0, -4.506e-08
10587.0, -3.877e-08
10589.0, -4.387e-08
10591.0, -4.085e-08
10593.0, -3.942e-08
10595.0, -4.236e-08
10597.0, -4.227e-08
10599.0, -3.997e-08
10601.0, -4.34e-08
10603.0, -4e-08
10605.0, -4.012e-08
10607.0, -4.033e-08
10609.0, -4.358e-08
10611.0, -4.079e-08
10613.0, -3.861e-08
10615.0, -3.877e-08
10617.0, -3.998e-08
10619.0, -4.267e-08
10621.0, -4.084e-08
10623.0, -4.137e-08
10625.0, -3.814e-08
10627.0, -3.832e-08
10629.0, -4.175e-08
10631.0, -3.993e-08
10633.0, -4.382e-08
10635.0, -4.087e-08
10637.0, -4.352e-08
10639.0, -3.818e-08
10641.0, -3.902e-08
10643.0, -4.052e-08
10645.0, -4.005e-08
10647.0, -4.019e-08
10649.0, -4.211e-08
10651.0, -3.979e-08
10653.0, -4.024e-08
10655.0, -3.815e-08
10657.0, -3.827e-08
10659.0, -4.03e-08
10661.0, -4.021e-08
10663.0, -3.792e-08
10665.0, -3.727e-08
10667.0, -3.794e-08
10669.0, -3.621e-08
10671.0, -3.759e-08
10673.0, -3.938e-08
10675.0, -3.564e-08
10677.0, -3.805e-08
10679.0, -3.83e-08
10681.0, -3.529e-08
10683.0, -3.604e-08
10685.0, -3.578e-08
10687.0, -3.448e-08
10689.0, -3.704e-08
10691.0, -3.807e-08
10693.0, -3.972e-08
10695.0, -3.786e-08
10697.0, -3.916e-08
10699.0, -3.701e-08
10701.0, -3.515e-08
10703.0, -3.609e-08
10705.0, -3.396e-08
10707.0, -3.421e-08
10709.0, -3.891e-08
10711.0, -4.017e-08
10713.0, -3.959e-08
10715.0, -4.027e-08
10717.0, -4.039e-08
10719.0, -4.107e-08
10721.0, -3.892e-08
10723.0, -3.774e-08
10725.0, -4.156e-08
10727.0, -3.945e-08
10729.0, -3.822e-08
10731.0, -3.531e-08
10733.0, -3.764e-08
10735.0, -4.062e-08
10737.0, -3.897e-08
10739.0, -3.9e-08
10741.0, -3.682e-08
10743.0, -3.941e-08
10745.0, -3.879e-08
10747.0, -3.763e-08
10749.0, -3.717e-08
10751.0, -3.684e-08
10753.0, -3.989e-08
10755.0, -4.049e-08
10757.0, -4.113e-08
10759.0, -3.782e-08
10761.0, -3.808e-08
10763.0, -3.733e-08
10765.0, -3.963e-08
10767.0, -3.851e-08
10769.0, -3.499e-08
10771.0, -3.757e-08
10773.0, -3.557e-08
10775.0, -3.55e-08
10777.0, -3.473e-08
10779.0, -3.572e-08
10781.0, -3.729e-08
10783.0, -3.516e-08
10785.0, -3.476e-08
10787.0, -3.383e-08
10789.0, -3.866e-08
10791.0, -3.868e-08
10793.0, -3.482e-08
10795.0, -3.413e-08
10797.0, -3.567e-08
10799.0, -3.721e-08
10801.0, -3.533e-08
10803.0, -3.615e-08
10805.0, -4.184e-08
10807.0, -3.703e-08
10809.0, -3.509e-08
10811.0, -3.507e-08
10813.0, -3.707e-08
10815.0, -3.69e-08
10817.0, -3.906e-08
10819.0, -3.734e-08
10821.0, -3.941e-08
10823.0, -3.961e-08
10825.0, -3.886e-08
10827.0, -3.695e-08
10829.0, -4.035e-08
10831.0, -3.744e-08
10833.0, -3.803e-08
10835.0, -3.784e-08
10837.0, -4.037e-08
10839.0, -3.652e-08
10841.0, -4.053e-08
10843.0, -3.885e-08
10845.0, -4.004e-08
10847.0, -3.753e-08
10849.0, -3.884e-08
10851.0, -3.68e-08
10853.0, -3.998e-08
10855.0, -3.845e-08
10857.0, -3.718e-08
10859.0, -3.619e-08
10861.0, -4.006e-08
10863.0, -3.712e-08
10865.0, -4.019e-08
10867.0, -4.058e-08
10869.0, -3.785e-08
10871.0, -3.887e-08
10873.0, -3.958e-08
10875.0, -3.839e-08
10877.0, -3.693e-08
10879.0, -3.692e-08
10881.0, -3.667e-08
10883.0, -3.997e-08
10885.0, -4.003e-08
10887.0, -4.155e-08
10889.0, -4.13e-08
10891.0, -4.227e-08
10893.0, -4.441e-08
10895.0, -4.004e-08
10897.0, -3.901e-08
10899.0, -3.913e-08
10901.0, -3.98e-08
10903.0, -3.839e-08
10905.0, -3.975e-08
10907.0, -3.875e-08
10909.0, -3.862e-08
10911.0, -3.894e-08
10913.0, -3.747e-08
10915.0, -4.012e-08
10917.0, -3.674e-08
10919.0, -3.912e-08
10921.0, -3.586e-08
10923.0, -3.613e-08
10925.0, -3.468e-08
10927.0, -3.277e-08
10929.0, -3.234e-08
10931.0, -3.857e-08
10933.0, -3.81e-08
10935.0, -3.825e-08
10937.0, -4.026e-08
10939.0, -3.757e-08
10941.0, -3.745e-08
10943.0, -3.967e-08
10945.0, -3.82e-08
10947.0, -3.9e-08
10949.0, -4.002e-08
10951.0, -3.775e-08
10953.0, -3.837e-08
10955.0, -3.711e-08
10957.0, -3.833e-08
10959.0, -3.606e-08
10961.0, -4.098e-08
10963.0, -4.187e-08
10965.0, -4.163e-08
10967.0, -3.991e-08
10969.0, -3.583e-08
10971.0, -3.775e-08
10973.0, -3.973e-08
10975.0, -4.244e-08
10977.0, -4.122e-08
10979.0, -3.822e-08
10981.0, -3.998e-08
10983.0, -4.144e-08
10985.0, -4.264e-08
10987.0, -4.008e-08
10989.0, -3.969e-08
10991.0, -3.922e-08
10993.0, -4.207e-08
10995.0, -3.991e-08
10997.0, -3.591e-08
10999.0, -3.949e-08
11001.0, -4.122e-08
11003.0, -3.965e-08
11005.0, -3.804e-08
11007.0, -3.555e-08
11009.0, -3.729e-08
