Time sep (ms?), Current (A)
0.0, -3.471e-08
2.002, -3.586e-08
4.004, -3.792e-08
6.006, -3.915e-08
8.008, -3.652e-08
10.01, -3.176e-08
12.012, -3.607e-08
14.014, -3.964e-08
16.016, -3.814e-08
18.018, -3.776e-08
20.02, -4.062e-08
22.022, -3.873e-08
24.024, -3.668e-08
26.026, -3.208e-08
28.028, -3.445e-08
30.03, -3.654e-08
32.032, -3.527e-08
34.034, -3.523e-08
36.036, -3.378e-08
38.038, -3.424e-08
40.04, -3.591e-08
42.042, -3.671e-08
44.044, -3.614e-08
46.046, -3.783e-08
48.048, -3.749e-08
50.05, -3.644e-08
52.052, -3.326e-08
54.054, -3.459e-08
56.056, -3.522e-08
58.058, -3.622e-08
60.06, -3.795e-08
62.062, -3.741e-08
64.064, -3.884e-08
66.066, -3.689e-08
68.068, -3.467e-08
70.07, -3.504e-08
72.072, -3.291e-08
74.074, -3.297e-08
76.076, -3.679e-08
78.078, -3.397e-08
80.08, -3.153e-08
82.082, -3.411e-08
84.084, -3.382e-08
86.086, -3.195e-08
88.088, -2.861e-08
90.09, -3.433e-08
92.092, -3.345e-08
94.094, -3.501e-08
96.096, -3.452e-08
98.098, -3.619e-08
100.1, -3.381e-08
102.1, -3.314e-08
104.1, -3.481e-08
106.11, -3.633e-08
108.11, -3.525e-08
110.11, -3.562e-08
112.11, -3.759e-08
114.11, -3.373e-08
116.12, -3.786e-08
118.12, -3.529e-08
120.12, -3.437e-08
122.12, -3.468e-08
124.12, -3.637e-08
126.13, -3.378e-08
128.13, -3.557e-08
130.13, -3.364e-08
132.13, -3.413e-08
134.13, -3.662e-08
136.14, -3.65e-08
138.14, -3.499e-08
140.14, -3.63e-08
142.14, -3.206e-08
144.14, -3.128e-08
146.15, -3.137e-08
148.15, -3.115e-08
150.15, -3.096e-08
152.15, -3.125e-08
154.15, -3.679e-08
156.16, -3.095e-08
158.16, -3.03e-08
160.16, -3.11e-08
162.16, -2.961e-08
164.16, -3.169e-08
166.17, -3.314e-08
168.17, -3.402e-08
170.17, -3.518e-08
172.17, -3.557e-08
174.17, -3.784e-08
176.18, -3.372e-08
178.18, -3.463e-08
180.18, -3.319e-08
182.18, -3.429e-08
184.18, -3.456e-08
186.19, -3.712e-08
188.19, -3.754e-08
190.19, -3.507e-08
192.19, -3.768e-08
194.19, -3.672e-08
196.2, -3.476e-08
198.2, -3.421e-08
200.2, -3.364e-08
202.2, -3.125e-08
204.2, -3.186e-08
206.21, -3.267e-08
208.21, -3.172e-08
210.21, -3.626e-08
212.21, -3.631e-08
214.21, -3.749e-08
216.22, -3.601e-08
218.22, -3.512e-08
220.22, -3.512e-08
222.22, -3.496e-08
224.22, -3.221e-08
226.23, -3.423e-08
228.23, -3.533e-08
230.23, -3.537e-08
232.23, -3.482e-08
234.23, -3.477e-08
236.24, -3.612e-08
238.24, -3.812e-08
240.24, -3.922e-08
242.24, -3.545e-08
244.24, -3.681e-08
246.25, -3.609e-08
248.25, -4.128e-08
250.25, -3.938e-08
252.25, -4.004e-08
254.25, -3.673e-08
256.26, -3.861e-08
258.26, -3.576e-08
260.26, -3.641e-08
262.26, -3.631e-08
264.26, -3.475e-08
266.27, -3.781e-08
268.27, -3.946e-08
270.27, -3.609e-08
272.27, -4.022e-08
274.27, -4.07e-08
276.28, -3.822e-08
278.28, -3.864e-08
280.28, -3.433e-08
282.28, -3.694e-08
284.28, -3.622e-08
286.29, -3.704e-08
288.29, -3.752e-08
290.29, -3.806e-08
292.29, -3.679e-08
294.29, -3.859e-08
296.3, -3.757e-08
298.3, -3.806e-08
300.3, -3.865e-08
302.3, -3.604e-08
304.3, -3.549e-08
306.31, -3.746e-08
308.31, -3.86e-08
310.31, -3.704e-08
312.31, -4.155e-08
314.31, -4.026e-08
316.32, -3.943e-08
318.32, -4.055e-08
320.32, -4.017e-08
322.32, -4.149e-08
324.32, -4.208e-08
326.33, -4.17e-08
328.33, -4.052e-08
330.33, -4.082e-08
332.33, -3.915e-08
334.33, -4.073e-08
336.34, -4.185e-08
338.34, -4.055e-08
340.34, -4.12e-08
342.34, -4.306e-08
344.34, -4.269e-08
346.35, -4.155e-08
348.35, -4.277e-08
350.35, -4.295e-08
352.35, -4.586e-08
354.35, -4.453e-08
356.36, -4.24e-08
358.36, -4.064e-08
360.36, -4.117e-08
362.36, -4.008e-08
364.36, -3.858e-08
366.37, -3.98e-08
368.37, -4.044e-08
370.37, -4.045e-08
372.37, -4.16e-08
374.37, -4.219e-08
376.38, -4.04e-08
378.38, -3.922e-08
380.38, -4.23e-08
382.38, -4.391e-08
384.38, -4.327e-08
386.39, -4.167e-08
388.39, -4.255e-08
390.39, -3.923e-08
392.39, -3.819e-08
394.39, -4.232e-08
396.4, -3.912e-08
398.4, -3.769e-08
400.4, -4.163e-08
402.4, -4.036e-08
404.4, -4.361e-08
406.41, -4.077e-08
408.41, -3.871e-08
410.41, -4.371e-08
412.41, -4.139e-08
414.41, -4.043e-08
416.42, -3.892e-08
418.42, -3.805e-08
420.42, -3.862e-08
422.42, -3.606e-08
424.42, -3.84e-08
426.43, -3.66e-08
428.43, -3.887e-08
430.43, -3.994e-08
432.43, -4.236e-08
434.43, -4.45e-08
436.44, -4.133e-08
438.44, -4.38e-08
440.44, -4.163e-08
442.44, -3.898e-08
444.44, -3.953e-08
446.45, -3.635e-08
448.45, -3.851e-08
450.45, -3.912e-08
452.45, -3.743e-08
454.45, -3.764e-08
456.46, -3.823e-08
458.46, -4.005e-08
460.46, -4.199e-08
462.46, -3.745e-08
464.46, -3.689e-08
466.47, -3.758e-08
468.47, -3.836e-08
470.47, -4.215e-08
472.47, -4.006e-08
474.47, -3.889e-08
476.48, -3.706e-08
478.48, -3.968e-08
480.48, -4.055e-08
482.48, -4.109e-08
484.48, -4.119e-08
486.49, -3.81e-08
488.49, -4.022e-08
490.49, -3.851e-08
492.49, -3.584e-08
494.49, -3.819e-08
496.5, -3.741e-08
498.5, -3.868e-08
500.5, -3.742e-08
502.5, -3.676e-08
504.5, -3.798e-08
506.51, -3.591e-08
508.51, -3.772e-08
510.51, -3.563e-08
512.51, -3.688e-08
514.51, -3.432e-08
516.52, -3.762e-08
518.52, -3.734e-08
520.52, -3.948e-08
522.52, -3.992e-08
524.52, -4.196e-08
526.53, -4.039e-08
528.53, -4.226e-08
530.53, -4.385e-08
532.53, -4.494e-08
534.53, -3.823e-08
536.54, -3.964e-08
538.54, -4.056e-08
540.54, -4.1e-08
542.54, -4.115e-08
544.54, -4.005e-08
546.55, -3.903e-08
548.55, -4.103e-08
550.55, -3.787e-08
552.55, -3.977e-08
554.55, -3.967e-08
556.56, -3.934e-08
558.56, -4.042e-08
560.56, -4.023e-08
562.56, -3.699e-08
564.56, -4.124e-08
566.57, -3.744e-08
568.57, -3.778e-08
570.57, -3.878e-08
572.57, -3.972e-08
574.57, -4.226e-08
576.58, -4.136e-08
578.58, -4.153e-08
580.58, -3.944e-08
582.58, -3.791e-08
584.58, -3.905e-08
586.59, -4.189e-08
588.59, -4.02e-08
590.59, -4.185e-08
592.59, -4.276e-08
594.59, -4.778e-08
596.6, -4.635e-08
598.6, -4.178e-08
600.6, -4.43e-08
602.6, -4.484e-08
604.6, -4.135e-08
606.61, -4.11e-08
608.61, -4.393e-08
610.61, -4.493e-08
612.61, -4.449e-08
614.61, -4.614e-08
616.62, -4.165e-08
618.62, -4.315e-08
620.62, -3.754e-08
622.62, -4.25e-08
624.62, -4.461e-08
626.63, -3.941e-08
628.63, -4.17e-08
630.63, -4.244e-08
632.63, -4.715e-08
634.63, -4.42e-08
636.64, -4.333e-08
638.64, -4.391e-08
640.64, -4.183e-08
642.64, -3.964e-08
644.64, -4.288e-08
646.65, -4.071e-08
648.65, -4.07e-08
650.65, -4.092e-08
652.65, -4.137e-08
654.65, -4.048e-08
656.66, -4.133e-08
658.66, -3.845e-08
660.66, -4.207e-08
662.66, -4.355e-08
664.66, -4.098e-08
666.67, -4.432e-08
668.67, -4.25e-08
670.67, -4.134e-08
672.67, -4.15e-08
674.67, -4.358e-08
676.68, -3.55e-08
678.68, -3.849e-08
680.68, -4.047e-08
682.68, -4.129e-08
684.68, -4.02e-08
686.69, -4.588e-08
688.69, -4.433e-08
690.69, -4.046e-08
692.69, -4.184e-08
694.69, -4.144e-08
696.7, -3.991e-08
698.7, -3.867e-08
700.7, -3.799e-08
702.7, -4.162e-08
704.7, -4.236e-08
706.71, -3.837e-08
708.71, -3.917e-08
710.71, -4.068e-08
712.71, -3.92e-08
714.71, -3.967e-08
716.72, -3.755e-08
718.72, -3.697e-08
720.72, -3.976e-08
722.72, -4.326e-08
724.72, -3.956e-08
726.73, -3.726e-08
728.73, -3.733e-08
730.73, -4.192e-08
732.73, -3.975e-08
734.73, -4.219e-08
736.74, -4.007e-08
738.74, -3.79e-08
740.74, -3.791e-08
742.74, -3.755e-08
744.74, -3.563e-08
746.75, -3.501e-08
748.75, -3.788e-08
750.75, -3.875e-08
752.75, -3.918e-08
754.75, -3.778e-08
756.76, -3.942e-08
758.76, -3.871e-08
760.76, -3.84e-08
762.76, -3.589e-08
764.76, -3.665e-08
766.77, -3.726e-08
768.77, -3.858e-08
770.77, -4.054e-08
772.77, -4.289e-08
774.77, -4.123e-08
776.78, -3.902e-08
778.78, -3.599e-08
780.78, -4.075e-08
782.78, -4.192e-08
784.78, -3.849e-08
786.79, -3.96e-08
788.79, -3.498e-08
790.79, -3.724e-08
792.79, -3.841e-08
794.79, -3.646e-08
796.8, -3.738e-08
798.8, -3.858e-08
800.8, -3.887e-08
802.8, -3.728e-08
804.8, -3.857e-08
806.81, -3.567e-08
808.81, -4.027e-08
810.81, -4.045e-08
812.81, -4.173e-08
814.81, -4.117e-08
816.82, -3.993e-08
818.82, -4.279e-08
820.82, -3.888e-08
822.82, -4.271e-08
824.82, -4.117e-08
826.83, -4.215e-08
828.83, -4.347e-08
830.83, -4.333e-08
832.83, -4.218e-08
834.83, -4.372e-08
836.84, -4.413e-08
838.84, -4.497e-08
840.84, -4.313e-08
842.84, -4.038e-08
844.84, -3.827e-08
846.85, -3.998e-08
848.85, -4.086e-08
850.85, -4.009e-08
852.85, -3.972e-08
854.85, -4.141e-08
856.86, -4.071e-08
858.86, -4.196e-08
860.86, -4.32e-08
862.86, -3.943e-08
864.86, -4.351e-08
866.87, -4.073e-08
868.87, -4.049e-08
870.87, -3.689e-08
872.87, -4.109e-08
874.87, -3.788e-08
876.88, -3.878e-08
878.88, -3.662e-08
880.88, -3.806e-08
882.88, -3.593e-08
884.88, -4.156e-08
886.89, -4.235e-08
888.89, -4.104e-08
890.89, -3.568e-08
892.89, -4.057e-08
894.89, -3.828e-08
896.9, -3.994e-08
898.9, -3.849e-08
900.9, -3.511e-08
902.9, -3.906e-08
904.9, -3.684e-08
906.91, -3.625e-08
908.91, -3.731e-08
910.91, -3.216e-08
912.91, -3.412e-08
914.91, -3.339e-08
916.92, -3.952e-08
918.92, -3.896e-08
920.92, -3.72e-08
922.92, -3.751e-08
924.92, -3.665e-08
926.93, -3.589e-08
928.93, -3.754e-08
930.93, -3.779e-08
932.93, -4.008e-08
934.93, -3.707e-08
936.94, -3.864e-08
938.94, -3.576e-08
940.94, -3.526e-08
942.94, -3.658e-08
944.94, -3.973e-08
946.95, -4.211e-08
948.95, -3.808e-08
950.95, -3.831e-08
952.95, -4.008e-08
954.95, -3.884e-08
956.96, -3.992e-08
958.96, -3.727e-08
960.96, -4.246e-08
962.96, -4.085e-08
964.96, -4.064e-08
966.97, -3.591e-08
968.97, -4.209e-08
970.97, -4.087e-08
972.97, -4.13e-08
974.97, -4.308e-08
976.98, -4.214e-08
978.98, -4.071e-08
980.98, -4.073e-08
982.98, -3.669e-08
984.98, -3.797e-08
986.99, -3.774e-08
988.99, -4.014e-08
990.99, -3.565e-08
992.99, -4.256e-08
994.99, -4.095e-08
997.0, -3.858e-08
999.0, -3.842e-08
1001.0, -4.098e-08
1003.0, -3.82e-08
1005.0, -4.028e-08
1007.0, -3.929e-08
1009.0, -3.942e-08
1011.0, -3.652e-08
1013.0, -3.61e-08
1015.0, -3.784e-08
1017.0, -3.782e-08
1019.0, -4.388e-08
1021.0, -4.03e-08
1023.0, -3.831e-08
1025.0, -3.953e-08
1027.0, -4.06e-08
1029.0, -4.001e-08
1031.0, -4.095e-08
1033.0, -3.945e-08
1035.0, -3.538e-08
1037.0, -3.414e-08
1039.0, -3.945e-08
1041.0, -3.598e-08
1043.0, -3.772e-08
1045.0, 1.4886e-07
1047.0, 1.4418e-07
1049.0, 1.5705e-07
1051.0, 1.1719e-07
1053.1, 1.5036e-07
1055.1, 1.423e-07
1057.1, 1.0496e-07
1059.1, 1.2648e-07
1061.1, 1.4033e-07
1063.1, 1.8962e-07
1065.1, 1.4137e-07
1067.1, 1.4849e-07
1069.1, 1.3117e-07
1071.1, 1.298e-07
1073.1, 1.4618e-07
1075.1, 1.6594e-07
1077.1, 1.2768e-07
1079.1, 1.6626e-07
1081.1, 1.7077e-07
1083.1, 1.3703e-07
1085.1, 1.2366e-07
1087.1, 1.4306e-07
1089.1, 1.4821e-07
1091.1, 1.31e-07
1093.1, 1.2606e-07
1095.1, 1.3906e-07
1097.1, 1.2096e-07
1099.1, 1.3505e-07
1101.1, 1.4016e-07
1103.1, 1.316e-07
1105.1, 1.5189e-07
1107.1, 1.0423e-07
1109.1, 1.3039e-07
1111.1, 1.6747e-07
1113.1, 1.6856e-07
1115.1, 1.509e-07
1117.1, 1.9668e-07
1119.1, 1.2735e-07
1121.1, 1.3102e-07
1123.1, 1.4283e-07
1125.1, 1.7497e-07
1127.1, 1.6384e-07
1129.1, 1.8292e-07
1131.1, 1.6055e-07
1133.1, 1.2991e-07
1135.1, 1.5822e-07
1137.1, 1.8281e-07
1139.1, 1.3451e-07
1141.1, 1.5445e-07
1143.1, 1.5811e-07
1145.1, 1.5823e-07
1147.1, 1.604e-07
1149.1, 1.7616e-07
1151.1, 1.409e-07
1153.2, 1.4427e-07
1155.2, 1.4656e-07
1157.2, 1.5606e-07
1159.2, 1.5081e-07
1161.2, 1.2673e-07
1163.2, 1.8734e-07
1165.2, 1.4936e-07
1167.2, 1.7274e-07
1169.2, 1.4396e-07
1171.2, 1.8316e-07
1173.2, 1.5634e-07
1175.2, 1.4899e-07
1177.2, 1.8871e-07
1179.2, 1.46e-07
1181.2, 1.6032e-07
1183.2, 1.5247e-07
1185.2, 1.4643e-07
1187.2, 1.6715e-07
1189.2, 1.5354e-07
1191.2, 1.6868e-07
1193.2, 1.2492e-07
1195.2, 1.5707e-07
1197.2, 1.4306e-07
1199.2, 1.7383e-07
1201.2, 1.492e-07
1203.2, 1.2292e-07
1205.2, 1.8543e-07
1207.2, 2.0959e-07
1209.2, 1.2147e-07
1211.2, 1.5132e-07
1213.2, 1.3091e-07
1215.2, 1.9683e-07
1217.2, 1.62e-07
1219.2, 1.0958e-07
1221.2, 1.8342e-07
1223.2, 1.4584e-07
1225.2, 1.6092e-07
1227.2, 1.3836e-07
1229.2, 1.4697e-07
1231.2, 1.6769e-07
1233.2, 1.5769e-07
1235.2, 1.6693e-07
1237.2, 1.5291e-07
1239.2, 1.3802e-07
1241.2, 1.3878e-07
1243.2, 1.6635e-07
1245.2, 1.2489e-07
1247.2, 1.7485e-07
1249.2, 1.7819e-07
1251.2, 1.6067e-07
1253.3, 1.7629e-07
1255.3, 1.6058e-07
1257.3, 1.5101e-07
1259.3, 1.6906e-07
1261.3, 1.4456e-07
1263.3, 1.2991e-07
1265.3, 1.7895e-07
1267.3, 1.524e-07
1269.3, 1.5624e-07
1271.3, 1.499e-07
1273.3, 1.3362e-07
1275.3, 1.9514e-07
1277.3, 1.6114e-07
1279.3, 1.75e-07
1281.3, 1.9803e-07
1283.3, 1.5063e-07
1285.3, 1.6826e-07
1287.3, 1.5729e-07
1289.3, 1.8516e-07
1291.3, 1.4223e-07
1293.3, 1.5168e-07
1295.3, 1.8854e-07
1297.3, 1.4417e-07
1299.3, 1.2426e-07
1301.3, 1.486e-07
1303.3, 1.6386e-07
1305.3, 1.2522e-07
1307.3, 1.7381e-07
1309.3, 2.0135e-07
1311.3, 1.434e-07
1313.3, 1.4878e-07
1315.3, 1.4771e-07
1317.3, 1.5111e-07
1319.3, 1.7374e-07
1321.3, 1.6591e-07
1323.3, 1.9585e-07
1325.3, 1.6644e-07
1327.3, 1.9079e-07
1329.3, 1.4149e-07
1331.3, 1.9558e-07
1333.3, 1.8456e-07
1335.3, 1.5122e-07
1337.3, 1.7923e-07
1339.3, 1.4754e-07
1341.3, 1.5377e-07
1343.3, 1.7137e-07
1345.3, 1.5424e-07
1347.3, 1.6574e-07
1349.3, 1.4586e-07
1351.3, 1.8302e-07
1353.4, 1.5095e-07
1355.4, 2.037e-07
1357.4, 1.5392e-07
1359.4, 1.7125e-07
1361.4, 1.6232e-07
1363.4, 1.2945e-07
1365.4, 1.5044e-07
1367.4, 1.5435e-07
1369.4, 1.5893e-07
1371.4, 1.4986e-07
1373.4, 1.7404e-07
1375.4, 1.6802e-07
1377.4, 1.6208e-07
1379.4, 1.7283e-07
1381.4, 1.6403e-07
1383.4, 1.9751e-07
1385.4, 1.5154e-07
1387.4, 1.8735e-07
1389.4, 1.7461e-07
1391.4, 1.8076e-07
1393.4, 1.7114e-07
1395.4, 1.7934e-07
1397.4, 1.3489e-07
1399.4, 1.3294e-07
1401.4, 1.6231e-07
1403.4, 1.4284e-07
1405.4, 1.5575e-07
1407.4, 1.596e-07
1409.4, 1.7247e-07
1411.4, 1.4696e-07
1413.4, 1.4381e-07
1415.4, 1.7456e-07
1417.4, 1.5416e-07
1419.4, 1.2853e-07
1421.4, 1.4206e-07
1423.4, 2.1081e-07
1425.4, 1.6395e-07
1427.4, 1.44e-07
1429.4, 1.8298e-07
1431.4, 1.3657e-07
1433.4, 1.8912e-07
1435.4, 1.3902e-07
1437.4, 1.7173e-07
1439.4, 1.9374e-07
1441.4, 1.5819e-07
1443.4, 1.6613e-07
1445.4, 1.6446e-07
1447.4, 1.9205e-07
1449.4, 1.6524e-07
1451.4, 1.6574e-07
1453.5, 1.5754e-07
1455.5, 1.9349e-07
1457.5, 1.6043e-07
1459.5, 1.5192e-07
1461.5, 1.7554e-07
1463.5, 1.7748e-07
1465.5, 1.5604e-07
1467.5, 1.6917e-07
1469.5, 1.7625e-07
1471.5, 1.4839e-07
1473.5, 1.6366e-07
1475.5, 1.6533e-07
1477.5, 1.532e-07
1479.5, 1.6429e-07
1481.5, 1.8714e-07
1483.5, 1.4534e-07
1485.5, 1.7916e-07
1487.5, 1.6784e-07
1489.5, 1.4442e-07
1491.5, 1.6607e-07
1493.5, 1.5006e-07
1495.5, 1.808e-07
1497.5, 1.7107e-07
1499.5, 1.5761e-07
1501.5, 1.5531e-07
1503.5, 1.6028e-07
1505.5, 1.7132e-07
1507.5, 1.6046e-07
1509.5, 1.771e-07
1511.5, 1.5965e-07
1513.5, 1.949e-07
1515.5, 1.6954e-07
1517.5, 1.8672e-07
1519.5, 1.6945e-07
1521.5, 2.0191e-07
1523.5, 1.5521e-07
1525.5, 1.5552e-07
1527.5, 1.8403e-07
1529.5, 1.377e-07
1531.5, 1.3061e-07
1533.5, 1.7046e-07
1535.5, 1.8199e-07
1537.5, 1.5084e-07
1539.5, 1.7598e-07
1541.5, 1.9922e-07
1543.5, 1.5297e-07
1545.5, 1.3789e-07
1547.5, 1.4955e-07
1549.5, 1.6636e-07
1551.5, 1.9625e-07
1553.6, 1.5657e-07
1555.6, 1.9005e-07
1557.6, 1.6523e-07
1559.6, 2.1374e-07
1561.6, 1.7973e-07
1563.6, 1.8438e-07
1565.6, 1.5545e-07
1567.6, 1.336e-07
1569.6, 1.6125e-07
1571.6, 1.7691e-07
1573.6, 1.8177e-07
1575.6, 1.648e-07
1577.6, 1.8438e-07
1579.6, 1.6309e-07
1581.6, 1.6918e-07
1583.6, 1.4559e-07
1585.6, 1.5127e-07
1587.6, 1.4783e-07
1589.6, 1.6467e-07
1591.6, 1.7818e-07
1593.6, 1.7826e-07
1595.6, 1.6788e-07
1597.6, 1.6129e-07
1599.6, 1.2024e-07
1601.6, 1.6647e-07
1603.6, 1.4771e-07
1605.6, 1.964e-07
1607.6, 1.7777e-07
1609.6, 2.0661e-07
1611.6, 1.778e-07
1613.6, 1.6886e-07
1615.6, 1.845e-07
1617.6, 1.9247e-07
1619.6, 1.5834e-07
1621.6, 1.7672e-07
1623.6, 1.6282e-07
1625.6, 1.8182e-07
1627.6, 1.6878e-07
1629.6, 1.9892e-07
1631.6, 1.5577e-07
1633.6, 1.7284e-07
1635.6, 1.5133e-07
1637.6, 2.0195e-07
1639.6, 1.6582e-07
1641.6, 1.6802e-07
1643.6, 1.9797e-07
1645.6, 1.6435e-07
1647.6, 1.9132e-07
1649.6, 1.8606e-07
1651.6, 1.9096e-07
1653.7, 1.7176e-07
1655.7, 1.9076e-07
1657.7, 1.4472e-07
1659.7, 1.5178e-07
1661.7, 1.7003e-07
1663.7, 1.8813e-07
1665.7, 2.0917e-07
1667.7, 1.9228e-07
1669.7, 1.6412e-07
1671.7, 1.4445e-07
1673.7, 1.5467e-07
1675.7, 1.7203e-07
1677.7, 1.6226e-07
1679.7, 1.8425e-07
1681.7, 1.47e-07
1683.7, 1.5277e-07
1685.7, 1.8017e-07
1687.7, 1.5121e-07
1689.7, 1.6259e-07
1691.7, 1.7133e-07
1693.7, 1.6768e-07
1695.7, 1.4891e-07
1697.7, 1.5155e-07
1699.7, 1.5745e-07
1701.7, 1.4363e-07
1703.7, 1.9808e-07
1705.7, 1.8e-07
1707.7, 1.7776e-07
1709.7, 1.4506e-07
1711.7, 1.6308e-07
1713.7, 1.4472e-07
1715.7, 1.5758e-07
1717.7, 1.7498e-07
1719.7, 2.3786e-07
1721.7, 1.9526e-07
1723.7, 1.6558e-07
1725.7, 1.7343e-07
1727.7, 1.8439e-07
1729.7, 1.9455e-07
1731.7, 1.5857e-07
1733.7, 1.5979e-07
1735.7, 2.1142e-07
1737.7, 1.5157e-07
1739.7, 1.4892e-07
1741.7, 1.5434e-07
1743.7, 1.8233e-07
1745.7, 1.9822e-07
1747.7, 2.1379e-07
1749.7, 1.7626e-07
1751.7, 1.6586e-07
1753.8, 1.5712e-07
1755.8, 1.4303e-07
1757.8, 1.6574e-07
1759.8, 1.6503e-07
1761.8, 1.708e-07
1763.8, 1.9873e-07
1765.8, 1.6825e-07
1767.8, 1.7155e-07
1769.8, 1.5607e-07
1771.8, 1.8706e-07
1773.8, 1.6064e-07
1775.8, 1.4419e-07
1777.8, 1.6677e-07
1779.8, 1.6448e-07
1781.8, 1.5977e-07
1783.8, 1.5852e-07
1785.8, 1.9251e-07
1787.8, 1.3618e-07
1789.8, 1.823e-07
1791.8, 1.8331e-07
1793.8, 1.546e-07
1795.8, 1.6295e-07
1797.8, 1.5909e-07
1799.8, 1.6594e-07
1801.8, 2.1045e-07
1803.8, 1.3672e-07
1805.8, 1.9703e-07
1807.8, 1.69e-07
1809.8, 1.8459e-07
1811.8, 1.5123e-07
1813.8, 1.7743e-07
1815.8, 2.0674e-07
1817.8, 1.735e-07
1819.8, 1.6634e-07
1821.8, 2.2098e-07
1823.8, 1.7403e-07
1825.8, 1.6981e-07
1827.8, 1.4144e-07
1829.8, 1.8728e-07
1831.8, 2.1084e-07
1833.8, 1.4467e-07
1835.8, 1.9243e-07
1837.8, 1.3959e-07
1839.8, 1.8313e-07
1841.8, 1.4617e-07
1843.8, 1.838e-07
1845.8, 1.8151e-07
1847.8, 1.4379e-07
1849.8, 1.5875e-07
1851.8, 1.3995e-07
1853.9, 2.0599e-07
1855.9, 1.6797e-07
1857.9, 1.5553e-07
1859.9, 1.5368e-07
1861.9, 1.6646e-07
1863.9, 1.4119e-07
1865.9, 1.8398e-07
1867.9, 1.3221e-07
1869.9, 1.8019e-07
1871.9, 1.4805e-07
1873.9, 1.7626e-07
1875.9, 1.6168e-07
1877.9, 1.219e-07
1879.9, 1.8528e-07
1881.9, 1.6517e-07
1883.9, 1.5252e-07
1885.9, 1.3952e-07
1887.9, 1.9079e-07
1889.9, 1.8436e-07
1891.9, 1.533e-07
1893.9, 1.3479e-07
1895.9, 1.9333e-07
1897.9, 1.6853e-07
1899.9, 1.9582e-07
1901.9, 1.5024e-07
1903.9, 1.6172e-07
1905.9, 1.6842e-07
1907.9, 1.7032e-07
1909.9, 1.8561e-07
1911.9, 1.3971e-07
1913.9, 1.3788e-07
1915.9, 1.7255e-07
1917.9, 1.9795e-07
1919.9, 2.093e-07
1921.9, 1.9764e-07
1923.9, 1.7347e-07
1925.9, 1.5886e-07
1927.9, 1.6994e-07
1929.9, 1.8424e-07
1931.9, 1.6035e-07
1933.9, 1.481e-07
1935.9, 1.7232e-07
1937.9, 1.7399e-07
1939.9, 1.5257e-07
1941.9, 1.723e-07
1943.9, 1.4709e-07
1945.9, 1.3993e-07
1947.9, 1.6294e-07
1949.9, 1.5671e-07
1951.9, 1.758e-07
1954.0, 1.475e-07
1956.0, 1.4656e-07
1958.0, 1.5082e-07
1960.0, 1.3506e-07
1962.0, 1.5594e-07
1964.0, 1.9115e-07
1966.0, 1.6985e-07
1968.0, 1.4181e-07
1970.0, 1.6579e-07
1972.0, 1.3246e-07
1974.0, 1.7447e-07
1976.0, 1.8884e-07
1978.0, 1.5835e-07
1980.0, 1.7851e-07
1982.0, 1.6369e-07
1984.0, 1.4992e-07
1986.0, 1.5329e-07
1988.0, 1.9133e-07
1990.0, 2.0528e-07
1992.0, 1.4626e-07
1994.0, 1.7455e-07
1996.0, 1.9585e-07
1998.0, 1.4773e-07
2000.0, 1.7593e-07
2002.0, 1.8353e-07
2004.0, 1.7749e-07
2006.0, 1.7637e-07
2008.0, 1.4486e-07
2010.0, 1.3951e-07
2012.0, 1.3512e-07
2014.0, 1.7168e-07
2016.0, 2.0729e-07
2018.0, 1.7103e-07
2020.0, 1.9735e-07
2022.0, 1.5032e-07
2024.0, 1.8645e-07
2026.0, 1.7018e-07
2028.0, 1.713e-07
2030.0, 1.7329e-07
2032.0, 1.657e-07
2034.0, 1.9608e-07
2036.0, 1.9596e-07
2038.0, 1.5705e-07
2040.0, 1.5717e-07
2042.0, 1.8991e-07
2044.0, 1.5092e-07
2046.0, -4.023e-08
2048.0, -3.789e-08
2050.0, -3.916e-08
2052.0, -4.22e-08
2054.1, -3.876e-08
2056.1, -4.139e-08
2058.1, -4.019e-08
2060.1, -4.284e-08
2062.1, -4.112e-08
2064.1, -4.096e-08
2066.1, -4.463e-08
2068.1, -4.313e-08
2070.1, -4.135e-08
2072.1, -4.305e-08
2074.1, -4.401e-08
2076.1, -4.621e-08
2078.1, -4.405e-08
2080.1, -4.198e-08
2082.1, -3.975e-08
2084.1, -4.121e-08
2086.1, -4.417e-08
2088.1, -4.365e-08
2090.1, -4.515e-08
2092.1, -4.489e-08
2094.1, -4.209e-08
2096.1, -4.702e-08
2098.1, -4.141e-08
2100.1, -4.314e-08
2102.1, -4.358e-08
2104.1, -4.486e-08
2106.1, -4.553e-08
2108.1, -4.278e-08
2110.1, -4.07e-08
2112.1, -3.968e-08
2114.1, -4.197e-08
2116.1, -4.366e-08
2118.1, -4.239e-08
2120.1, -4.418e-08
2122.1, -4.6e-08
2124.1, -4.205e-08
2126.1, -4.303e-08
2128.1, -4.204e-08
2130.1, -4.627e-08
2132.1, -4.203e-08
2134.1, -4e-08
2136.1, -4.128e-08
2138.1, -4.174e-08
2140.1, -3.647e-08
2142.1, -3.681e-08
2144.1, -3.699e-08
2146.1, -4.004e-08
2148.1, -4.19e-08
2150.1, -3.919e-08
2152.1, -4.04e-08
2154.2, -3.826e-08
2156.2, -3.777e-08
2158.2, -3.507e-08
2160.2, -3.989e-08
2162.2, -4.279e-08
2164.2, -4.16e-08
2166.2, -3.758e-08
2168.2, -3.76e-08
2170.2, -3.801e-08
2172.2, -4.084e-08
2174.2, -3.95e-08
2176.2, -3.922e-08
2178.2, -3.972e-08
2180.2, -3.799e-08
2182.2, -4.341e-08
2184.2, -4.231e-08
2186.2, -4.152e-08
2188.2, -4.412e-08
2190.2, -4.544e-08
2192.2, -4.184e-08
2194.2, -4.46e-08
2196.2, -4.381e-08
2198.2, -4.002e-08
2200.2, -4.386e-08
2202.2, -4.454e-08
2204.2, -3.972e-08
2206.2, -4.394e-08
2208.2, -3.773e-08
2210.2, -4.281e-08
2212.2, -4.357e-08
2214.2, -4.12e-08
2216.2, -3.809e-08
2218.2, -4.033e-08
2220.2, -3.897e-08
2222.2, -4.271e-08
2224.2, -4.507e-08
2226.2, -4.201e-08
2228.2, -4.327e-08
2230.2, -4.347e-08
2232.2, -4.214e-08
2234.2, -4.277e-08
2236.2, -4.368e-08
2238.2, -4.081e-08
2240.2, -4.18e-08
2242.2, -4.244e-08
2244.2, -3.937e-08
2246.2, -4.016e-08
2248.2, -3.906e-08
2250.2, -3.768e-08
2252.2, -3.88e-08
2254.3, -3.753e-08
2256.3, -3.758e-08
2258.3, -3.612e-08
2260.3, -4.253e-08
2262.3, -3.714e-08
2264.3, -3.793e-08
2266.3, -3.794e-08
2268.3, -4.058e-08
2270.3, -3.795e-08
2272.3, -3.765e-08
2274.3, -3.479e-08
2276.3, -3.806e-08
2278.3, -3.987e-08
2280.3, -3.576e-08
2282.3, -3.866e-08
2284.3, -4.229e-08
2286.3, -4.145e-08
2288.3, -4.291e-08
2290.3, -3.779e-08
2292.3, -3.804e-08
2294.3, -4.156e-08
2296.3, -4.407e-08
2298.3, -4.252e-08
2300.3, -4.438e-08
2302.3, -3.956e-08
2304.3, -4.094e-08
2306.3, -4.101e-08
2308.3, -4.188e-08
2310.3, -4.101e-08
2312.3, -3.536e-08
2314.3, -3.954e-08
2316.3, -3.86e-08
2318.3, -3.812e-08
2320.3, -3.895e-08
2322.3, -4.193e-08
2324.3, -3.931e-08
2326.3, -3.774e-08
2328.3, -3.751e-08
2330.3, -4.038e-08
2332.3, -4.086e-08
2334.3, -4.564e-08
2336.3, -4.001e-08
2338.3, -4.114e-08
2340.3, -3.965e-08
2342.3, -3.929e-08
2344.3, -4.246e-08
2346.3, -4.206e-08
2348.3, -3.944e-08
2350.3, -4.09e-08
2352.3, -4.334e-08
2354.4, -4.188e-08
2356.4, -4.416e-08
2358.4, -4.287e-08
2360.4, -4.544e-08
2362.4, -4.34e-08
2364.4, -4.639e-08
2366.4, -4.54e-08
2368.4, -4.179e-08
2370.4, -4.365e-08
2372.4, -4.388e-08
2374.4, -4.468e-08
2376.4, -4.391e-08
2378.4, -4.184e-08
2380.4, -3.996e-08
2382.4, -4.157e-08
2384.4, -4.1e-08
2386.4, -3.934e-08
2388.4, -4.385e-08
2390.4, -4.016e-08
2392.4, -4.242e-08
2394.4, -4.444e-08
2396.4, -4.161e-08
2398.4, -4.569e-08
2400.4, -4.403e-08
2402.4, -4.219e-08
2404.4, -4.213e-08
2406.4, -3.993e-08
2408.4, -4.018e-08
2410.4, -4.031e-08
2412.4, -4.025e-08
2414.4, -4.315e-08
2416.4, -4.139e-08
2418.4, -4.243e-08
2420.4, -4.309e-08
2422.4, -4.288e-08
2424.4, -4.708e-08
2426.4, -4.256e-08
2428.4, -4.351e-08
2430.4, -4.127e-08
2432.4, -3.827e-08
2434.4, -3.715e-08
2436.4, -3.863e-08
2438.4, -3.786e-08
2440.4, -3.732e-08
2442.4, -3.838e-08
2444.4, -3.987e-08
2446.4, -3.838e-08
2448.4, -3.793e-08
2450.4, -4.116e-08
2452.4, -4.436e-08
2454.5, -4.12e-08
2456.5, -4.017e-08
2458.5, -4.081e-08
2460.5, -3.584e-08
2462.5, -3.842e-08
2464.5, -3.929e-08
2466.5, -3.963e-08
2468.5, -3.993e-08
2470.5, -4.092e-08
2472.5, -3.804e-08
2474.5, -3.62e-08
2476.5, -4.065e-08
2478.5, -4.055e-08
2480.5, -3.885e-08
2482.5, -3.975e-08
2484.5, -3.864e-08
2486.5, -4.165e-08
2488.5, -3.999e-08
2490.5, -3.777e-08
2492.5, -3.748e-08
2494.5, -4.236e-08
2496.5, -3.79e-08
2498.5, -3.688e-08
2500.5, -4.004e-08
2502.5, -3.829e-08
2504.5, -3.771e-08
2506.5, -3.986e-08
2508.5, -4.024e-08
2510.5, -3.858e-08
2512.5, -4.147e-08
2514.5, -4.213e-08
2516.5, -4.016e-08
2518.5, -3.97e-08
2520.5, -3.795e-08
2522.5, -3.726e-08
2524.5, -3.803e-08
2526.5, -3.264e-08
2528.5, -3.755e-08
2530.5, -3.971e-08
2532.5, -3.759e-08
2534.5, -4.015e-08
2536.5, -3.922e-08
2538.5, -3.541e-08
2540.5, -4.012e-08
2542.5, -3.843e-08
2544.5, -4.312e-08
2546.5, -3.991e-08
2548.5, -4.202e-08
2550.5, -4.133e-08
2552.5, -3.815e-08
2554.6, -3.74e-08
2556.6, -3.634e-08
2558.6, -4.1e-08
2560.6, -4.074e-08
2562.6, -3.641e-08
2564.6, -4.254e-08
2566.6, -3.621e-08
2568.6, -3.402e-08
2570.6, -3.704e-08
2572.6, -3.812e-08
2574.6, -4.194e-08
2576.6, -3.983e-08
2578.6, -3.928e-08
2580.6, -3.929e-08
2582.6, -4.036e-08
2584.6, -3.855e-08
2586.6, -4.202e-08
2588.6, -3.788e-08
2590.6, -3.789e-08
2592.6, -4.136e-08
2594.6, -4.068e-08
2596.6, -4.017e-08
2598.6, -4.322e-08
2600.6, -4.117e-08
2602.6, -4.471e-08
2604.6, -4.029e-08
2606.6, -4.088e-08
2608.6, -3.802e-08
2610.6, -4.204e-08
2612.6, -4.087e-08
2614.6, -4.327e-08
2616.6, -4.24e-08
2618.6, -4.393e-08
2620.6, -4.169e-08
2622.6, -4.223e-08
2624.6, -3.968e-08
2626.6, -4.193e-08
2628.6, -3.948e-08
2630.6, -3.824e-08
2632.6, -3.855e-08
2634.6, -3.954e-08
2636.6, -3.56e-08
2638.6, -3.528e-08
2640.6, -3.706e-08
2642.6, -3.704e-08
2644.6, -3.593e-08
2646.6, -3.682e-08
2648.6, -3.576e-08
2650.6, -3.795e-08
2652.6, -3.977e-08
2654.7, -3.779e-08
2656.7, -3.944e-08
2658.7, -3.58e-08
2660.7, -3.789e-08
2662.7, -3.684e-08
2664.7, -4.053e-08
2666.7, -3.887e-08
2668.7, -3.806e-08
2670.7, -3.919e-08
2672.7, -3.635e-08
2674.7, -3.618e-08
2676.7, -3.581e-08
2678.7, -3.674e-08
2680.7, -3.418e-08
2682.7, -3.883e-08
2684.7, -3.934e-08
2686.7, -3.886e-08
2688.7, -4.129e-08
2690.7, -3.838e-08
2692.7, -3.647e-08
2694.7, -4.205e-08
2696.7, -3.89e-08
2698.7, -3.95e-08
2700.7, -4.041e-08
2702.7, -3.614e-08
2704.7, -3.644e-08
2706.7, -3.601e-08
2708.7, -4.375e-08
2710.7, -4.04e-08
2712.7, -3.645e-08
2714.7, -3.96e-08
2716.7, -3.586e-08
2718.7, -3.752e-08
2720.7, -4.061e-08
2722.7, -3.881e-08
2724.7, -3.937e-08
2726.7, -3.6e-08
2728.7, -3.733e-08
2730.7, -3.423e-08
2732.7, -3.862e-08
2734.7, -3.445e-08
2736.7, -4.059e-08
2738.7, -3.785e-08
2740.7, -3.791e-08
2742.7, -4.034e-08
2744.7, -3.861e-08
2746.7, -4.203e-08
2748.7, -3.813e-08
2750.7, -4.056e-08
2752.7, -4.211e-08
2754.8, -3.901e-08
2756.8, -3.725e-08
2758.8, -3.84e-08
2760.8, -3.105e-08
2762.8, -3.785e-08
2764.8, -4.074e-08
2766.8, -3.814e-08
2768.8, -3.984e-08
2770.8, -3.878e-08
2772.8, -3.838e-08
2774.8, -3.505e-08
2776.8, -3.663e-08
2778.8, -3.951e-08
2780.8, -3.694e-08
2782.8, -4.022e-08
2784.8, -3.944e-08
2786.8, -4.304e-08
2788.8, -3.508e-08
2790.8, -3.923e-08
2792.8, -3.891e-08
2794.8, -4.179e-08
2796.8, -4.07e-08
2798.8, -4.034e-08
2800.8, -3.909e-08
2802.8, -3.873e-08
2804.8, -4.006e-08
2806.8, -3.611e-08
2808.8, -3.608e-08
2810.8, -3.742e-08
2812.8, -3.438e-08
2814.8, -3.269e-08
2816.8, -3.854e-08
2818.8, -3.902e-08
2820.8, -3.846e-08
2822.8, -3.66e-08
2824.8, -4.013e-08
2826.8, -4.112e-08
2828.8, -4.259e-08
2830.8, -4.06e-08
2832.8, -4.324e-08
2834.8, -4.245e-08
2836.8, -3.823e-08
2838.8, -3.87e-08
2840.8, -3.475e-08
2842.8, -3.755e-08
2844.8, -3.782e-08
2846.8, -3.661e-08
2848.8, -3.618e-08
2850.8, -3.57e-08
2852.8, -3.495e-08
2854.9, -3.886e-08
2856.9, -4.004e-08
2858.9, -4.073e-08
2860.9, -3.843e-08
2862.9, -3.595e-08
2864.9, -3.905e-08
2866.9, -4.16e-08
2868.9, -3.85e-08
2870.9, -4.054e-08
2872.9, -3.436e-08
2874.9, -3.544e-08
2876.9, -3.917e-08
2878.9, -4.004e-08
2880.9, -3.88e-08
2882.9, -3.614e-08
2884.9, -4.07e-08
2886.9, -3.952e-08
2888.9, -4.452e-08
2890.9, -4.004e-08
2892.9, -3.74e-08
2894.9, -3.987e-08
2896.9, -3.942e-08
2898.9, -4.105e-08
2900.9, -3.953e-08
2902.9, -4.132e-08
2904.9, -3.672e-08
2906.9, -4.103e-08
2908.9, -3.862e-08
2910.9, -3.734e-08
2912.9, -4.126e-08
2914.9, -3.619e-08
2916.9, -4.067e-08
2918.9, -4.012e-08
2920.9, -3.76e-08
2922.9, -3.692e-08
2924.9, -3.747e-08
2926.9, -3.734e-08
2928.9, -3.679e-08
2930.9, -3.861e-08
2932.9, -3.948e-08
2934.9, -3.805e-08
2936.9, -3.626e-08
2938.9, -4.074e-08
2940.9, -4.059e-08
2942.9, -4.281e-08
2944.9, -4.155e-08
2946.9, -4.057e-08
2948.9, -3.651e-08
2950.9, -4.15e-08
2952.9, -3.82e-08
2955.0, -4.069e-08
2957.0, -3.947e-08
2959.0, -3.969e-08
2961.0, -4.157e-08
2963.0, -4.059e-08
2965.0, -4.115e-08
2967.0, -4.359e-08
2969.0, -3.885e-08
2971.0, -3.88e-08
2973.0, -3.968e-08
2975.0, -4.026e-08
2977.0, -4.011e-08
2979.0, -3.946e-08
2981.0, -3.902e-08
2983.0, -3.755e-08
2985.0, -3.931e-08
2987.0, -3.783e-08
2989.0, -3.652e-08
2991.0, -3.531e-08
2993.0, -3.368e-08
2995.0, -3.789e-08
2997.0, -3.774e-08
2999.0, -3.849e-08
3001.0, -3.834e-08
3003.0, -3.607e-08
3005.0, -4.116e-08
3007.0, -4.104e-08
3009.0, -3.89e-08
3011.0, -4.207e-08
3013.0, -4.076e-08
3015.0, -4.16e-08
3017.0, -4.073e-08
3019.0, -3.887e-08
3021.0, -3.789e-08
3023.0, -3.899e-08
3025.0, -3.723e-08
3027.0, -4.018e-08
3029.0, -3.948e-08
3031.0, -3.652e-08
3033.0, -3.798e-08
3035.0, -3.962e-08
3037.0, -4.242e-08
3039.0, -4.407e-08
3041.0, -3.991e-08
3043.0, -4.222e-08
3045.0, -4.194e-08
3047.0, -3.69e-08
3049.0, -3.965e-08
3051.0, -3.999e-08
3053.0, -3.967e-08
3055.1, -3.941e-08
3057.1, -3.966e-08
3059.1, -4.039e-08
3061.1, -4.354e-08
3063.1, -4.025e-08
3065.1, -4.143e-08
3067.1, -3.793e-08
3069.1, -3.915e-08
3071.1, -3.961e-08
3073.1, -4.065e-08
3075.1, -4.112e-08
3077.1, -4.02e-08
3079.1, -4.3e-08
3081.1, -4.313e-08
3083.1, -3.831e-08
3085.1, -4.233e-08
3087.1, -4.197e-08
3089.1, -4.113e-08
3091.1, -4.051e-08
3093.1, -3.879e-08
3095.1, -3.937e-08
3097.1, -3.594e-08
3099.1, -3.782e-08
3101.1, -3.704e-08
3103.1, -3.702e-08
3105.1, -3.864e-08
3107.1, -3.327e-08
3109.1, -3.903e-08
3111.1, -3.638e-08
3113.1, -3.529e-08
3115.1, -3.819e-08
3117.1, -3.405e-08
3119.1, -3.573e-08
3121.1, -3.352e-08
3123.1, -3.694e-08
3125.1, -3.955e-08
3127.1, -3.845e-08
3129.1, -3.761e-08
3131.1, -3.647e-08
3133.1, -3.628e-08
3135.1, -4.009e-08
3137.1, -3.903e-08
3139.1, -3.779e-08
3141.1, -3.74e-08
3143.1, -4.025e-08
3145.1, -4.257e-08
3147.1, -4.108e-08
3149.1, -3.6e-08
3151.1, -3.791e-08
3153.1, 1.429e-07
3155.2, 1.2688e-07
3157.2, 1.4744e-07
3159.2, 1.2848e-07
3161.2, 1.3673e-07
3163.2, 1.4545e-07
3165.2, 1.3234e-07
3167.2, 1.3824e-07
3169.2, 1.4095e-07
3171.2, 1.5986e-07
3173.2, 1.41e-07
3175.2, 1.2993e-07
3177.2, 1.158e-07
3179.2, 1.3335e-07
3181.2, 1.3739e-07
3183.2, 1.7052e-07
3185.2, 1.3197e-07
3187.2, 1.1828e-07
3189.2, 1.5484e-07
3191.2, 1.5246e-07
3193.2, 1.2076e-07
3195.2, 1.5175e-07
3197.2, 1.4278e-07
3199.2, 1.3758e-07
3201.2, 1.7987e-07
3203.2, 1.667e-07
3205.2, 1.4938e-07
3207.2, 1.4517e-07
3209.2, 1.4137e-07
3211.2, 1.3687e-07
3213.2, 9.898e-08
3215.2, 1.5801e-07
3217.2, 1.553e-07
3219.2, 1.2115e-07
3221.2, 1.3541e-07
3223.2, 1.44e-07
3225.2, 1.3722e-07
3227.2, 1.517e-07
3229.2, 1.4077e-07
3231.2, 1.4311e-07
3233.2, 1.2346e-07
3235.2, 1.2957e-07
3237.2, 1.3646e-07
3239.2, 1.6704e-07
3241.2, 1.5416e-07
3243.2, 1.4252e-07
3245.2, 1.4422e-07
3247.2, 1.5741e-07
3249.2, 1.6599e-07
3251.2, 1.2309e-07
3253.2, 1.4602e-07
3255.3, 1.4264e-07
3257.3, 1.7958e-07
3259.3, 1.5079e-07
3261.3, 1.703e-07
3263.3, 1.6518e-07
3265.3, 1.3551e-07
3267.3, 1.3393e-07
3269.3, 1.6485e-07
3271.3, 1.7289e-07
3273.3, 1.7097e-07
3275.3, 1.6377e-07
3277.3, 1.8145e-07
3279.3, 1.1159e-07
3281.3, 1.173e-07
3283.3, 1.5803e-07
3285.3, 1.4749e-07
3287.3, 1.8378e-07
3289.3, 1.4093e-07
3291.3, 1.2732e-07
3293.3, 1.6977e-07
3295.3, 1.6277e-07
3297.3, 1.6681e-07
3299.3, 1.9267e-07
3301.3, 1.5748e-07
3303.3, 1.53e-07
3305.3, 1.4125e-07
3307.3, 1.7084e-07
3309.3, 1.2114e-07
3311.3, 1.8568e-07
3313.3, 1.5344e-07
3315.3, 1.565e-07
3317.3, 1.8029e-07
3319.3, 1.6539e-07
3321.3, 1.4015e-07
3323.3, 1.6603e-07
3325.3, 1.4589e-07
3327.3, 1.3577e-07
3329.3, 1.3417e-07
3331.3, 1.5213e-07
3333.3, 1.4293e-07
3335.3, 1.5842e-07
3337.3, 1.3617e-07
3339.3, 1.7284e-07
3341.3, 1.7709e-07
3343.3, 1.5224e-07
3345.3, 1.2762e-07
3347.3, 1.0793e-07
3349.3, 1.6992e-07
3351.3, 1.6821e-07
3353.3, 1.6875e-07
3355.4, 1.6725e-07
3357.4, 1.3394e-07
3359.4, 1.7933e-07
3361.4, 1.4865e-07
3363.4, 1.5447e-07
3365.4, 1.7806e-07
3367.4, 1.3463e-07
3369.4, 1.6517e-07
3371.4, 1.6413e-07
3373.4, 1.8021e-07
3375.4, 1.3828e-07
3377.4, 1.5889e-07
3379.4, 1.5165e-07
3381.4, 1.2804e-07
3383.4, 1.3433e-07
3385.4, 1.6704e-07
3387.4, 1.5409e-07
3389.4, 1.5535e-07
3391.4, 1.4231e-07
3393.4, 1.607e-07
3395.4, 1.709e-07
3397.4, 1.5868e-07
3399.4, 2.0591e-07
3401.4, 1.5614e-07
3403.4, 1.7905e-07
3405.4, 1.7542e-07
3407.4, 1.4849e-07
3409.4, 1.6709e-07
3411.4, 1.7672e-07
3413.4, 1.593e-07
3415.4, 1.6334e-07
3417.4, 1.5038e-07
3419.4, 1.6236e-07
3421.4, 1.8486e-07
3423.4, 1.7338e-07
3425.4, 1.6949e-07
3427.4, 1.9642e-07
3429.4, 1.6131e-07
3431.4, 1.9457e-07
3433.4, 1.6112e-07
3435.4, 1.7789e-07
3437.4, 1.5003e-07
3439.4, 1.4958e-07
3441.4, 1.2882e-07
3443.4, 1.5301e-07
3445.4, 1.2847e-07
3447.4, 1.8006e-07
3449.4, 1.2441e-07
3451.4, 1.5804e-07
3453.4, 1.6384e-07
3455.5, 1.6026e-07
3457.5, 1.5573e-07
3459.5, 1.2451e-07
3461.5, 1.8137e-07
3463.5, 1.4572e-07
3465.5, 1.2173e-07
3467.5, 1.5195e-07
3469.5, 1.8602e-07
3471.5, 1.6646e-07
3473.5, 1.4143e-07
3475.5, 1.6689e-07
3477.5, 1.8834e-07
3479.5, 1.9707e-07
3481.5, 1.693e-07
3483.5, 1.5573e-07
3485.5, 1.5545e-07
3487.5, 1.3784e-07
3489.5, 1.9196e-07
3491.5, 1.7799e-07
3493.5, 1.9064e-07
3495.5, 1.8015e-07
3497.5, 1.7958e-07
3499.5, 1.6793e-07
3501.5, 1.5796e-07
3503.5, 1.6659e-07
3505.5, 1.4253e-07
3507.5, 1.8023e-07
3509.5, 1.6277e-07
3511.5, 1.7132e-07
3513.5, 1.3641e-07
3515.5, 1.6593e-07
3517.5, 1.5098e-07
3519.5, 1.5514e-07
3521.5, 1.4025e-07
3523.5, 1.7417e-07
3525.5, 1.7004e-07
3527.5, 1.7246e-07
3529.5, 1.4817e-07
3531.5, 1.9475e-07
3533.5, 1.4557e-07
3535.5, 1.6264e-07
3537.5, 1.4229e-07
3539.5, 1.619e-07
3541.5, 1.9106e-07
3543.5, 1.6032e-07
3545.5, 1.4926e-07
3547.5, 1.5504e-07
3549.5, 1.7549e-07
3551.5, 1.5208e-07
3553.5, 1.5669e-07
3555.6, 1.3559e-07
3557.6, 1.5814e-07
3559.6, 1.7028e-07
3561.6, 1.6536e-07
3563.6, 1.9798e-07
3565.6, 1.8281e-07
3567.6, 2.0778e-07
3569.6, 1.4651e-07
3571.6, 1.653e-07
3573.6, 1.573e-07
3575.6, 1.6571e-07
3577.6, 1.7945e-07
3579.6, 1.2432e-07
3581.6, 1.539e-07
3583.6, 1.6927e-07
3585.6, 1.3823e-07
3587.6, 1.6224e-07
3589.6, 1.9333e-07
3591.6, 1.5399e-07
3593.6, 1.9906e-07
3595.6, 1.6175e-07
3597.6, 1.6137e-07
3599.6, 1.735e-07
3601.6, 1.6956e-07
3603.6, 1.6469e-07
3605.6, 1.505e-07
3607.6, 1.5687e-07
3609.6, 1.6236e-07
3611.6, 1.4159e-07
3613.6, 1.7271e-07
3615.6, 1.9875e-07
3617.6, 1.8716e-07
3619.6, 1.8512e-07
3621.6, 1.9516e-07
3623.6, 1.8841e-07
3625.6, 1.4058e-07
3627.6, 1.691e-07
3629.6, 1.4133e-07
3631.6, 1.7132e-07
3633.6, 1.7178e-07
3635.6, 1.6678e-07
3637.6, 1.9588e-07
3639.6, 1.7557e-07
3641.6, 1.9523e-07
3643.6, 1.6211e-07
3645.6, 1.6282e-07
3647.6, 1.8691e-07
3649.6, 1.7134e-07
3651.6, 1.4115e-07
3653.6, 1.6978e-07
3655.7, 1.3449e-07
3657.7, 1.782e-07
3659.7, 1.6352e-07
3661.7, 1.947e-07
3663.7, 1.6896e-07
3665.7, 1.3346e-07
3667.7, 1.4531e-07
3669.7, 1.9469e-07
3671.7, 2.0561e-07
3673.7, 1.4752e-07
3675.7, 1.421e-07
3677.7, 1.777e-07
3679.7, 1.6419e-07
3681.7, 1.5101e-07
3683.7, 1.7155e-07
3685.7, 1.7449e-07
3687.7, 1.3931e-07
3689.7, 1.3846e-07
3691.7, 1.4482e-07
3693.7, 1.8924e-07
3695.7, 2.0287e-07
3697.7, 1.3802e-07
3699.7, 1.8232e-07
3701.7, 2.0353e-07
3703.7, 1.5792e-07
3705.7, 1.7016e-07
3707.7, 1.6318e-07
3709.7, 1.8062e-07
3711.7, 1.8343e-07
3713.7, 1.7493e-07
3715.7, 1.6968e-07
3717.7, 1.67e-07
3719.7, 1.457e-07
3721.7, 1.5061e-07
3723.7, 1.9833e-07
3725.7, 2.0551e-07
3727.7, 1.6384e-07
3729.7, 1.8103e-07
3731.7, 1.5491e-07
3733.7, 1.1792e-07
3735.7, 1.7121e-07
3737.7, 1.4622e-07
3739.7, 1.6165e-07
3741.7, 1.9758e-07
3743.7, 1.9431e-07
3745.7, 1.8001e-07
3747.7, 1.6493e-07
3749.7, 2.0505e-07
3751.7, 1.7535e-07
3753.7, 1.477e-07
3755.8, 1.5962e-07
3757.8, 1.9318e-07
3759.8, 1.4966e-07
3761.8, 1.791e-07
3763.8, 1.7704e-07
3765.8, 1.5717e-07
3767.8, 1.5982e-07
3769.8, 1.5508e-07
3771.8, 1.903e-07
3773.8, 1.4497e-07
3775.8, 1.6036e-07
3777.8, 1.5592e-07
3779.8, 1.75e-07
3781.8, 1.5066e-07
3783.8, 1.7128e-07
3785.8, 2.0423e-07
3787.8, 1.6186e-07
3789.8, 1.9578e-07
3791.8, 1.6882e-07
3793.8, 1.4151e-07
3795.8, 2.1807e-07
3797.8, 1.6007e-07
3799.8, 1.6973e-07
3801.8, 1.3354e-07
3803.8, 1.4531e-07
3805.8, 1.759e-07
3807.8, 1.5295e-07
3809.8, 1.8608e-07
3811.8, 1.9678e-07
3813.8, 1.691e-07
3815.8, 1.3645e-07
3817.8, 1.4246e-07
3819.8, 1.7857e-07
3821.8, 1.5317e-07
3823.8, 1.8091e-07
3825.8, 1.8712e-07
3827.8, 1.8384e-07
3829.8, 1.6396e-07
3831.8, 1.814e-07
3833.8, 1.507e-07
3835.8, 1.6305e-07
3837.8, 1.7353e-07
3839.8, 1.5179e-07
3841.8, 1.7682e-07
3843.8, 1.9897e-07
3845.8, 1.716e-07
3847.8, 1.5942e-07
3849.8, 1.931e-07
3851.8, 1.7438e-07
3853.8, 1.4667e-07
3855.9, 1.5542e-07
3857.9, 1.5168e-07
3859.9, 1.8935e-07
3861.9, 1.5524e-07
3863.9, 1.7147e-07
3865.9, 1.385e-07
3867.9, 1.499e-07
3869.9, 1.4406e-07
3871.9, 2.0683e-07
3873.9, 1.9776e-07
3875.9, 1.6524e-07
3877.9, 1.577e-07
3879.9, 2.0545e-07
3881.9, 1.7234e-07
3883.9, 2.0206e-07
3885.9, 1.5387e-07
3887.9, 1.6231e-07
3889.9, 1.9124e-07
3891.9, 1.2881e-07
3893.9, 1.8124e-07
3895.9, 1.581e-07
3897.9, 1.8011e-07
3899.9, 1.6954e-07
3901.9, 1.5067e-07
3903.9, 1.6216e-07
3905.9, 1.7434e-07
3907.9, 1.4529e-07
3909.9, 1.6218e-07
3911.9, 1.4617e-07
3913.9, 1.8026e-07
3915.9, 1.8259e-07
3917.9, 1.5719e-07
3919.9, 1.4988e-07
3921.9, 1.4229e-07
3923.9, 1.7279e-07
3925.9, 1.6522e-07
3927.9, 1.6762e-07
3929.9, 1.9041e-07
3931.9, 1.7656e-07
3933.9, 1.5351e-07
3935.9, 1.7279e-07
3937.9, 1.7969e-07
3939.9, 1.6767e-07
3941.9, 1.899e-07
3943.9, 1.5002e-07
3945.9, 1.2245e-07
3947.9, 1.746e-07
3949.9, 1.7092e-07
3951.9, 1.7697e-07
3953.9, 1.5039e-07
3956.0, 1.7207e-07
3958.0, 2.0225e-07
3960.0, 1.6868e-07
3962.0, 1.738e-07
3964.0, 1.6223e-07
3966.0, 1.7151e-07
3968.0, 1.9039e-07
3970.0, 1.9612e-07
3972.0, 1.6178e-07
3974.0, 1.9135e-07
3976.0, 1.6477e-07
3978.0, 1.6497e-07
3980.0, 2.264e-07
3982.0, 1.9145e-07
3984.0, 1.6611e-07
3986.0, 1.7951e-07
3988.0, 1.9806e-07
3990.0, 1.7348e-07
3992.0, 2.0654e-07
3994.0, 1.7259e-07
3996.0, 1.735e-07
3998.0, 1.8552e-07
4000.0, 2.1652e-07
4002.0, 1.7018e-07
4004.0, 1.4896e-07
4006.0, 1.613e-07
4008.0, 1.5369e-07
4010.0, 1.8043e-07
4012.0, 1.5185e-07
4014.0, 1.8521e-07
4016.0, 2.1222e-07
4018.0, 1.6746e-07
4020.0, 1.4848e-07
4022.0, 1.957e-07
4024.0, 1.8872e-07
4026.0, 1.6363e-07
4028.0, 1.3188e-07
4030.0, 1.6816e-07
4032.0, 1.7764e-07
4034.0, 1.9479e-07
4036.0, 1.6098e-07
4038.0, 1.6116e-07
4040.0, 1.5557e-07
4042.0, 2.2735e-07
4044.0, 1.7069e-07
4046.0, 1.7689e-07
4048.0, 2.0377e-07
4050.0, 2.0194e-07
4052.0, 1.8674e-07
4054.0, 1.8457e-07
4056.1, 1.5251e-07
4058.1, 1.44e-07
4060.1, 1.929e-07
4062.1, 1.8562e-07
4064.1, 1.5158e-07
4066.1, 1.638e-07
4068.1, 1.4612e-07
4070.1, 1.7602e-07
4072.1, 1.8985e-07
4074.1, 1.696e-07
4076.1, 1.5635e-07
4078.1, 1.7022e-07
4080.1, 1.5485e-07
4082.1, 1.9354e-07
4084.1, 1.8602e-07
4086.1, 1.6746e-07
4088.1, 2.0247e-07
4090.1, 2.0936e-07
4092.1, 1.7382e-07
4094.1, 1.8453e-07
4096.1, 1.6927e-07
4098.1, 1.3669e-07
4100.1, 1.7911e-07
4102.1, 1.4711e-07
4104.1, 1.3594e-07
4106.1, 1.6303e-07
4108.1, 1.8461e-07
4110.1, 2.0418e-07
4112.1, 1.7625e-07
4114.1, 1.8225e-07
4116.1, 1.4564e-07
4118.1, 1.8506e-07
4120.1, 1.6497e-07
4122.1, 1.566e-07
4124.1, 1.3669e-07
4126.1, 1.8599e-07
4128.1, 1.8449e-07
4130.1, 2.0657e-07
4132.1, 1.6118e-07
4134.1, 1.6083e-07
4136.1, 1.6284e-07
4138.1, 1.8341e-07
4140.1, 1.727e-07
4142.1, 1.5075e-07
4144.1, 1.7469e-07
4146.1, 1.5652e-07
4148.1, 1.5903e-07
4150.1, 1.9572e-07
4152.1, 1.6063e-07
4154.1, -3.142e-08
4156.2, -3.679e-08
4158.2, -3.637e-08
4160.2, -3.89e-08
4162.2, -3.634e-08
4164.2, -3.732e-08
4166.2, -3.71e-08
4168.2, -3.459e-08
4170.2, -3.776e-08
4172.2, -3.594e-08
4174.2, -3.452e-08
4176.2, -3.801e-08
4178.2, -4.069e-08
4180.2, -3.764e-08
4182.2, -3.252e-08
4184.2, -3.485e-08
4186.2, -3.693e-08
4188.2, -3.777e-08
4190.2, -3.371e-08
4192.2, -3.393e-08
4194.2, -3.503e-08
4196.2, -3.482e-08
4198.2, -3.444e-08
4200.2, -3.462e-08
4202.2, -3.268e-08
4204.2, -3.429e-08
4206.2, -3.208e-08
4208.2, -3.57e-08
4210.2, -3.497e-08
4212.2, -3.606e-08
4214.2, -3.782e-08
4216.2, -3.503e-08
4218.2, -3.847e-08
4220.2, -3.827e-08
4222.2, -3.822e-08
4224.2, -3.807e-08
4226.2, -3.597e-08
4228.2, -3.716e-08
4230.2, -3.611e-08
4232.2, -3.852e-08
4234.2, -4.046e-08
4236.2, -3.969e-08
4238.2, -3.917e-08
4240.2, -3.909e-08
4242.2, -3.728e-08
4244.2, -3.833e-08
4246.2, -3.921e-08
4248.2, -4.319e-08
4250.2, -4.212e-08
4252.2, -4.346e-08
4254.2, -4.182e-08
4256.3, -4.62e-08
4258.3, -4.524e-08
4260.3, -3.955e-08
4262.3, -4.175e-08
4264.3, -4.268e-08
4266.3, -4.217e-08
4268.3, -3.954e-08
4270.3, -4.005e-08
4272.3, -3.454e-08
4274.3, -3.949e-08
4276.3, -4.137e-08
4278.3, -4.126e-08
4280.3, -3.889e-08
4282.3, -3.838e-08
4284.3, -4.549e-08
4286.3, -4.466e-08
4288.3, -4.38e-08
4290.3, -3.858e-08
4292.3, -4.268e-08
4294.3, -3.983e-08
4296.3, -4.359e-08
4298.3, -4.178e-08
4300.3, -3.865e-08
4302.3, -3.993e-08
4304.3, -3.909e-08
4306.3, -4.135e-08
4308.3, -4.083e-08
4310.3, -3.925e-08
4312.3, -3.579e-08
4314.3, -3.711e-08
4316.3, -3.668e-08
4318.3, -3.764e-08
4320.3, -3.731e-08
4322.3, -3.587e-08
4324.3, -3.965e-08
4326.3, -3.882e-08
4328.3, -3.525e-08
4330.3, -3.672e-08
4332.3, -3.827e-08
4334.3, -4e-08
4336.3, -4.079e-08
4338.3, -4.028e-08
4340.3, -4.241e-08
4342.3, -3.842e-08
4344.3, -3.758e-08
4346.3, -4.026e-08
4348.3, -4.174e-08
4350.3, -4.198e-08
4352.3, -3.705e-08
4354.3, -4.187e-08
4356.4, -4.127e-08
4358.4, -4.342e-08
4360.4, -4.087e-08
4362.4, -4.159e-08
4364.4, -3.853e-08
4366.4, -4.336e-08
4368.4, -3.686e-08
4370.4, -4.089e-08
4372.4, -4.227e-08
4374.4, -4.206e-08
4376.4, -3.972e-08
4378.4, -3.973e-08
4380.4, -3.848e-08
4382.4, -3.899e-08
4384.4, -3.806e-08
4386.4, -3.898e-08
4388.4, -4.22e-08
4390.4, -3.684e-08
4392.4, -3.805e-08
4394.4, -4.466e-08
4396.4, -3.772e-08
4398.4, -3.721e-08
4400.4, -3.698e-08
4402.4, -3.867e-08
4404.4, -3.908e-08
4406.4, -3.593e-08
4408.4, -4.467e-08
4410.4, -3.848e-08
4412.4, -4.087e-08
4414.4, -4.13e-08
4416.4, -4.065e-08
4418.4, -3.97e-08
4420.4, -3.848e-08
4422.4, -4.065e-08
4424.4, -3.989e-08
4426.4, -4.083e-08
4428.4, -3.878e-08
4430.4, -3.889e-08
4432.4, -3.883e-08
4434.4, -3.884e-08
4436.4, -3.994e-08
4438.4, -3.915e-08
4440.4, -3.753e-08
4442.4, -3.535e-08
4444.4, -3.68e-08
4446.4, -3.434e-08
4448.4, -3.436e-08
4450.4, -3.514e-08
4452.4, -3.668e-08
4454.4, -3.673e-08
4456.5, -3.733e-08
4458.5, -4.302e-08
4460.5, -3.828e-08
4462.5, -3.543e-08
4464.5, -3.738e-08
4466.5, -3.74e-08
4468.5, -3.769e-08
4470.5, -3.816e-08
4472.5, -3.688e-08
4474.5, -3.778e-08
4476.5, -3.605e-08
4478.5, -3.861e-08
4480.5, -3.866e-08
4482.5, -4.073e-08
4484.5, -3.864e-08
4486.5, -3.784e-08
4488.5, -3.538e-08
4490.5, -3.441e-08
4492.5, -3.537e-08
4494.5, -3.636e-08
4496.5, -3.9e-08
4498.5, -3.674e-08
4500.5, -3.428e-08
4502.5, -3.719e-08
4504.5, -3.839e-08
4506.5, -3.662e-08
4508.5, -3.792e-08
4510.5, -3.571e-08
4512.5, -3.562e-08
4514.5, -3.662e-08
4516.5, -3.381e-08
4518.5, -3.181e-08
4520.5, -3.73e-08
4522.5, -3.516e-08
4524.5, -3.524e-08
4526.5, -3.822e-08
4528.5, -3.363e-08
4530.5, -3.659e-08
4532.5, -3.537e-08
4534.5, -4.135e-08
4536.5, -4.194e-08
4538.5, -4.552e-08
4540.5, -4.107e-08
4542.5, -4.313e-08
4544.5, -4.213e-08
4546.5, -4.441e-08
4548.5, -4.039e-08
4550.5, -3.953e-08
4552.5, -3.969e-08
4554.5, -3.992e-08
4556.6, -3.817e-08
4558.6, -3.861e-08
4560.6, -3.517e-08
4562.6, -3.586e-08
4564.6, -3.989e-08
4566.6, -3.805e-08
4568.6, -3.636e-08
4570.6, -4.024e-08
4572.6, -4.254e-08
4574.6, -3.841e-08
4576.6, -4.234e-08
4578.6, -4.122e-08
4580.6, -3.843e-08
4582.6, -3.619e-08
4584.6, -4.17e-08
4586.6, -3.877e-08
4588.6, -3.718e-08
4590.6, -3.62e-08
4592.6, -3.953e-08
4594.6, -3.771e-08
4596.6, -3.685e-08
4598.6, -3.569e-08
4600.6, -3.557e-08
4602.6, -3.326e-08
4604.6, -3.491e-08
4606.6, -3.348e-08
4608.6, -3.413e-08
4610.6, -3.066e-08
4612.6, -3.38e-08
4614.6, -3.23e-08
4616.6, -3.847e-08
4618.6, -3.639e-08
4620.6, -3.892e-08
4622.6, -3.582e-08
4624.6, -3.231e-08
4626.6, -3.656e-08
4628.6, -3.441e-08
4630.6, -3.253e-08
4632.6, -3.491e-08
4634.6, -3.669e-08
4636.6, -3.547e-08
4638.6, -3.606e-08
4640.6, -3.471e-08
4642.6, -3.282e-08
4644.6, -3.606e-08
4646.6, -3.808e-08
4648.6, -3.926e-08
4650.6, -3.636e-08
4652.6, -3.664e-08
4654.6, -3.425e-08
4656.7, -3.67e-08
4658.7, -3.443e-08
4660.7, -4.15e-08
4662.7, -3.885e-08
4664.7, -3.928e-08
4666.7, -3.64e-08
4668.7, -3.665e-08
4670.7, -3.784e-08
4672.7, -3.813e-08
4674.7, -3.978e-08
4676.7, -3.811e-08
4678.7, -4.061e-08
4680.7, -3.275e-08
4682.7, -3.795e-08
4684.7, -3.528e-08
4686.7, -3.687e-08
4688.7, -3.608e-08
4690.7, -3.265e-08
4692.7, -3.823e-08
4694.7, -3.554e-08
4696.7, -3.589e-08
4698.7, -3.598e-08
4700.7, -3.514e-08
4702.7, -3.842e-08
4704.7, -3.693e-08
4706.7, -3.802e-08
4708.7, -3.903e-08
4710.7, -3.433e-08
4712.7, -3.574e-08
4714.7, -3.482e-08
4716.7, -3.424e-08
4718.7, -3.465e-08
4720.7, -3.465e-08
4722.7, -3.477e-08
4724.7, -3.762e-08
4726.7, -3.751e-08
4728.7, -3.481e-08
4730.7, -3.697e-08
4732.7, -3.459e-08
4734.7, -3.307e-08
4736.7, -3.187e-08
4738.7, -3.499e-08
4740.7, -3.267e-08
4742.7, -3.471e-08
4744.7, -3.985e-08
4746.7, -3.772e-08
4748.7, -3.67e-08
4750.7, -3.584e-08
4752.7, -3.621e-08
4754.7, -3.904e-08
4756.8, -4.108e-08
4758.8, -3.76e-08
4760.8, -3.736e-08
4762.8, -3.475e-08
4764.8, -4.096e-08
4766.8, -4.081e-08
4768.8, -4.135e-08
4770.8, -3.9e-08
4772.8, -3.908e-08
4774.8, -3.602e-08
4776.8, -3.856e-08
4778.8, -3.859e-08
4780.8, -3.705e-08
4782.8, -3.556e-08
4784.8, -3.555e-08
4786.8, -3.81e-08
4788.8, -3.681e-08
4790.8, -4.122e-08
4792.8, -3.718e-08
4794.8, -3.596e-08
4796.8, -3.677e-08
4798.8, -4.225e-08
4800.8, -3.891e-08
4802.8, -3.943e-08
4804.8, -4.164e-08
4806.8, -3.889e-08
4808.8, -3.657e-08
4810.8, -3.815e-08
4812.8, -3.734e-08
4814.8, -3.571e-08
4816.8, -3.916e-08
4818.8, -3.754e-08
4820.8, -3.37e-08
4822.8, -3.352e-08
4824.8, -3.332e-08
4826.8, -3.627e-08
4828.8, -3.515e-08
4830.8, -3.099e-08
4832.8, -3.299e-08
4834.8, -3.436e-08
4836.8, -3.559e-08
4838.8, -3.338e-08
4840.8, -3.286e-08
4842.8, -3.195e-08
4844.8, -3.511e-08
4846.8, -3.221e-08
4848.8, -3.272e-08
4850.8, -3.228e-08
4852.8, -3.294e-08
4854.8, -3.393e-08
4856.9, -3.757e-08
4858.9, -3.479e-08
4860.9, -3.649e-08
4862.9, -3.367e-08
4864.9, -3.871e-08
4866.9, -3.436e-08
4868.9, -3.877e-08
4870.9, -4.102e-08
4872.9, -3.766e-08
4874.9, -3.672e-08
4876.9, -3.756e-08
4878.9, -3.683e-08
4880.9, -3.543e-08
4882.9, -3.443e-08
4884.9, -3.355e-08
4886.9, -3.22e-08
4888.9, -3.513e-08
4890.9, -3.503e-08
4892.9, -3.68e-08
4894.9, -3.751e-08
4896.9, -3.786e-08
4898.9, -3.982e-08
4900.9, -3.646e-08
4902.9, -4.09e-08
4904.9, -4.18e-08
4906.9, -3.736e-08
4908.9, -3.54e-08
4910.9, -3.693e-08
4912.9, -4.25e-08
4914.9, -4.086e-08
4916.9, -4.447e-08
4918.9, -3.802e-08
4920.9, -4.08e-08
4922.9, -3.889e-08
4924.9, -3.715e-08
4926.9, -4.071e-08
4928.9, -3.926e-08
4930.9, -3.92e-08
4932.9, -3.941e-08
4934.9, -4.163e-08
4936.9, -4.099e-08
4938.9, -3.853e-08
4940.9, -3.769e-08
4942.9, -3.402e-08
4944.9, -3.934e-08
4946.9, -4.147e-08
4948.9, -3.851e-08
4950.9, -3.877e-08
4952.9, -3.663e-08
4954.9, -3.562e-08
4957.0, -3.611e-08
4959.0, -3.887e-08
4961.0, -3.664e-08
4963.0, -3.814e-08
4965.0, -3.939e-08
4967.0, -3.836e-08
4969.0, -3.832e-08
4971.0, -3.858e-08
4973.0, -3.409e-08
4975.0, -4.025e-08
4977.0, -3.494e-08
4979.0, -3.721e-08
4981.0, -3.99e-08
4983.0, -3.829e-08
4985.0, -3.589e-08
4987.0, -3.608e-08
4989.0, -3.853e-08
4991.0, -4.188e-08
4993.0, -4.148e-08
4995.0, -4.01e-08
4997.0, -3.917e-08
4999.0, -3.908e-08
5001.0, -3.667e-08
5003.0, -3.645e-08
5005.0, -3.443e-08
5007.0, -3.797e-08
5009.0, -3.517e-08
5011.0, -3.383e-08
5013.0, -3.648e-08
5015.0, -3.679e-08
5017.0, -3.336e-08
5019.0, -3.788e-08
5021.0, -3.566e-08
5023.0, -3.717e-08
5025.0, -3.446e-08
5027.0, -3.304e-08
5029.0, -3.191e-08
5031.0, -3.301e-08
5033.0, -3.844e-08
5035.0, -3.622e-08
5037.0, -3.384e-08
5039.0, -3.587e-08
5041.0, -3.731e-08
5043.0, -3.377e-08
5045.0, -3.496e-08
5047.0, -3.862e-08
5049.0, -3.797e-08
5051.0, -3.883e-08
5053.0, -3.694e-08
5055.0, -3.822e-08
5057.1, -3.494e-08
5059.1, -3.657e-08
5061.1, -3.86e-08
5063.1, -3.755e-08
5065.1, -3.88e-08
5067.1, -4.217e-08
5069.1, -4.084e-08
5071.1, -3.694e-08
5073.1, -3.733e-08
5075.1, -3.713e-08
5077.1, -3.777e-08
5079.1, -3.455e-08
5081.1, -4.016e-08
5083.1, -3.815e-08
5085.1, -4.007e-08
5087.1, -3.854e-08
5089.1, -3.944e-08
5091.1, -3.974e-08
5093.1, -4.176e-08
5095.1, -3.849e-08
5097.1, -3.913e-08
5099.1, -3.821e-08
5101.1, -4.065e-08
5103.1, -4.081e-08
5105.1, -4.045e-08
5107.1, -4.008e-08
5109.1, -3.722e-08
5111.1, -3.573e-08
5113.1, -3.808e-08
5115.1, -3.791e-08
5117.1, -3.809e-08
5119.1, -3.954e-08
5121.1, -3.962e-08
5123.1, -3.81e-08
5125.1, -4.292e-08
5127.1, -3.895e-08
5129.1, -4.011e-08
5131.1, -3.628e-08
5133.1, -3.906e-08
5135.1, -3.778e-08
5137.1, -3.537e-08
5139.1, -3.65e-08
5141.1, -3.527e-08
5143.1, -3.782e-08
5145.1, -3.581e-08
5147.1, -3.993e-08
5149.1, -3.729e-08
5151.1, -3.562e-08
5153.1, -3.731e-08
5155.1, -3.687e-08
5157.2, -3.931e-08
5159.2, -3.739e-08
5161.2, -3.746e-08
5163.2, -3.429e-08
5165.2, -3.202e-08
5167.2, -3.576e-08
5169.2, -3.275e-08
5171.2, -3.799e-08
5173.2, -3.75e-08
5175.2, -3.64e-08
5177.2, -3.454e-08
5179.2, -3.704e-08
5181.2, -3.802e-08
5183.2, -3.555e-08
5185.2, -3.619e-08
5187.2, -3.648e-08
5189.2, -3.698e-08
5191.2, -3.603e-08
5193.2, -3.347e-08
5195.2, -3.517e-08
5197.2, -3.881e-08
5199.2, -3.446e-08
5201.2, -3.647e-08
5203.2, -3.362e-08
5205.2, -3.52e-08
5207.2, -3.546e-08
5209.2, -3.474e-08
5211.2, -3.057e-08
5213.2, -3.192e-08
5215.2, -3.432e-08
5217.2, -3.374e-08
5219.2, -3.425e-08
5221.2, -3.566e-08
5223.2, -3.821e-08
5225.2, 1.7862e-07
5227.2, 1.2338e-07
5229.2, 1.2913e-07
5231.2, 1.3177e-07
5233.2, 1.2823e-07
5235.2, 1.422e-07
5237.2, 1.332e-07
5239.2, 1.602e-07
5241.2, 1.3403e-07
5243.2, 1.3546e-07
5245.2, 1.2455e-07
5247.2, 1.5824e-07
5249.2, 1.4784e-07
5251.2, 1.3669e-07
5253.2, 1.6838e-07
5255.2, 1.369e-07
5257.3, 1.1992e-07
5259.3, 1.3664e-07
5261.3, 1.3739e-07
5263.3, 9.986e-08
5265.3, 1.2024e-07
5267.3, 1.3113e-07
5269.3, 1.2535e-07
5271.3, 1.5922e-07
5273.3, 1.6883e-07
5275.3, 1.3865e-07
5277.3, 1.4124e-07
5279.3, 1.4489e-07
5281.3, 1.4232e-07
5283.3, 1.4827e-07
5285.3, 1.4645e-07
5287.3, 1.3896e-07
5289.3, 1.4503e-07
5291.3, 1.7906e-07
5293.3, 1.8691e-07
5295.3, 1.6282e-07
5297.3, 1.5173e-07
5299.3, 1.4908e-07
5301.3, 1.3416e-07
5303.3, 1.5015e-07
5305.3, 1.6521e-07
5307.3, 1.2314e-07
5309.3, 1.2675e-07
5311.3, 1.2637e-07
5313.3, 1.2826e-07
5315.3, 1.4026e-07
5317.3, 1.6819e-07
5319.3, 1.4599e-07
5321.3, 1.5082e-07
5323.3, 1.4006e-07
5325.3, 1.6464e-07
5327.3, 1.6208e-07
5329.3, 1.2238e-07
5331.3, 1.6495e-07
5333.3, 1.4479e-07
5335.3, 1.6889e-07
5337.3, 1.3492e-07
5339.3, 1.4389e-07
5341.3, 1.7701e-07
5343.3, 1.4409e-07
5345.3, 1.2005e-07
5347.3, 1.467e-07
5349.3, 1.4703e-07
5351.3, 1.6956e-07
5353.3, 1.3974e-07
5355.3, 1.5823e-07
5357.4, 1.5162e-07
5359.4, 1.2778e-07
5361.4, 1.74e-07
5363.4, 1.5559e-07
5365.4, 1.7901e-07
5367.4, 1.7275e-07
5369.4, 1.275e-07
5371.4, 1.6208e-07
5373.4, 1.3997e-07
5375.4, 1.3528e-07
5377.4, 1.3247e-07
5379.4, 1.2916e-07
5381.4, 1.4541e-07
5383.4, 1.5905e-07
5385.4, 1.4577e-07
5387.4, 1.8179e-07
5389.4, 1.4214e-07
5391.4, 1.6287e-07
5393.4, 2.2319e-07
5395.4, 1.407e-07
5397.4, 1.4116e-07
5399.4, 1.6098e-07
5401.4, 1.6354e-07
5403.4, 1.4902e-07
5405.4, 1.464e-07
5407.4, 1.2042e-07
5409.4, 1.6379e-07
5411.4, 1.3213e-07
5413.4, 1.7053e-07
5415.4, 1.6824e-07
5417.4, 1.7521e-07
5419.4, 1.7954e-07
5421.4, 1.7191e-07
5423.4, 1.9213e-07
5425.4, 1.6627e-07
5427.4, 1.71e-07
5429.4, 1.6816e-07
5431.4, 1.2221e-07
5433.4, 1.4831e-07
5435.4, 1.5331e-07
5437.4, 1.5162e-07
5439.4, 1.3746e-07
5441.4, 1.4123e-07
5443.4, 1.6751e-07
5445.4, 1.4818e-07
5447.4, 1.9721e-07
5449.4, 1.6812e-07
5451.4, 1.4276e-07
5453.4, 1.7733e-07
5455.4, 1.553e-07
5457.5, 1.6269e-07
5459.5, 1.5489e-07
5461.5, 1.7205e-07
5463.5, 1.977e-07
5465.5, 1.669e-07
5467.5, 1.768e-07
5469.5, 1.5768e-07
5471.5, 1.5213e-07
5473.5, 1.9998e-07
5475.5, 2.2657e-07
5477.5, 1.5017e-07
5479.5, 1.391e-07
5481.5, 1.5535e-07
5483.5, 1.6051e-07
5485.5, 1.8211e-07
5487.5, 1.7524e-07
5489.5, 1.705e-07
5491.5, 1.7395e-07
5493.5, 1.2828e-07
5495.5, 1.733e-07
5497.5, 1.4913e-07
5499.5, 1.4874e-07
5501.5, 1.6819e-07
5503.5, 1.6491e-07
5505.5, 1.9485e-07
5507.5, 1.7712e-07
5509.5, 1.7698e-07
5511.5, 1.9868e-07
5513.5, 1.7132e-07
5515.5, 2.0269e-07
5517.5, 1.4094e-07
5519.5, 1.4849e-07
5521.5, 1.4358e-07
5523.5, 2.0449e-07
5525.5, 1.6968e-07
5527.5, 1.7526e-07
5529.5, 1.4037e-07
5531.5, 1.3015e-07
5533.5, 1.2287e-07
5535.5, 1.6217e-07
5537.5, 1.6256e-07
5539.5, 1.6089e-07
5541.5, 1.6434e-07
5543.5, 1.4548e-07
5545.5, 1.563e-07
5547.5, 1.6542e-07
5549.5, 1.5291e-07
5551.5, 1.5743e-07
5553.5, 1.6142e-07
5555.5, 1.5468e-07
5557.6, 1.3358e-07
5559.6, 1.8574e-07
5561.6, 1.7466e-07
5563.6, 2.0073e-07
5565.6, 1.6651e-07
5567.6, 1.6967e-07
5569.6, 1.632e-07
5571.6, 1.7388e-07
5573.6, 1.4252e-07
5575.6, 1.4118e-07
5577.6, 1.6344e-07
5579.6, 1.417e-07
5581.6, 1.753e-07
5583.6, 1.7265e-07
5585.6, 1.3754e-07
5587.6, 1.5988e-07
5589.6, 1.3568e-07
5591.6, 1.632e-07
5593.6, 1.7188e-07
5595.6, 1.9848e-07
5597.6, 1.1463e-07
5599.6, 1.2233e-07
5601.6, 1.5708e-07
5603.6, 1.5937e-07
5605.6, 1.6584e-07
5607.6, 1.4964e-07
5609.6, 1.4972e-07
5611.6, 1.4155e-07
5613.6, 1.8256e-07
5615.6, 1.5501e-07
5617.6, 1.4483e-07
5619.6, 1.5398e-07
5621.6, 1.8456e-07
5623.6, 1.4378e-07
5625.6, 1.5147e-07
5627.6, 1.3419e-07
5629.6, 1.3908e-07
5631.6, 1.5744e-07
5633.6, 1.7789e-07
5635.6, 1.6885e-07
5637.6, 1.5218e-07
5639.6, 1.3319e-07
5641.6, 1.5431e-07
5643.6, 1.9318e-07
5645.6, 1.7688e-07
5647.6, 1.842e-07
5649.6, 1.732e-07
5651.6, 1.6036e-07
5653.6, 1.6823e-07
5655.6, 1.0665e-07
5657.7, 2.0689e-07
5659.7, 1.9451e-07
5661.7, 1.7989e-07
5663.7, 1.6959e-07
5665.7, 1.932e-07
5667.7, 1.749e-07
5669.7, 1.5728e-07
5671.7, 1.6361e-07
5673.7, 1.7961e-07
5675.7, 1.5101e-07
5677.7, 1.3779e-07
5679.7, 1.6325e-07
5681.7, 1.6935e-07
5683.7, 1.8564e-07
5685.7, 1.5156e-07
5687.7, 1.7229e-07
5689.7, 1.7939e-07
5691.7, 1.6481e-07
5693.7, 1.8305e-07
5695.7, 1.389e-07
5697.7, 1.5205e-07
5699.7, 1.4702e-07
5701.7, 1.4726e-07
5703.7, 1.3562e-07
5705.7, 1.7132e-07
5707.7, 1.4949e-07
5709.7, 1.5512e-07
5711.7, 1.8073e-07
5713.7, 1.3349e-07
5715.7, 1.2821e-07
5717.7, 1.4893e-07
5719.7, 1.4309e-07
5721.7, 1.6571e-07
5723.7, 1.8973e-07
5725.7, 1.6545e-07
5727.7, 1.4452e-07
5729.7, 1.793e-07
5731.7, 1.9531e-07
5733.7, 1.3907e-07
5735.7, 1.9097e-07
5737.7, 1.4183e-07
5739.7, 1.8994e-07
5741.7, 1.5683e-07
5743.7, 1.5448e-07
5745.7, 1.7208e-07
5747.7, 1.7164e-07
5749.7, 1.5178e-07
5751.7, 1.8349e-07
5753.7, 1.6218e-07
5755.7, 1.6105e-07
5757.8, 1.411e-07
5759.8, 2.0948e-07
5761.8, 1.6791e-07
5763.8, 1.7924e-07
5765.8, 1.929e-07
5767.8, 1.7945e-07
5769.8, 1.649e-07
5771.8, 1.4884e-07
5773.8, 1.7527e-07
5775.8, 1.5635e-07
5777.8, 1.6455e-07
5779.8, 1.6691e-07
5781.8, 2.007e-07
5783.8, 1.6474e-07
5785.8, 1.6707e-07
5787.8, 1.6853e-07
5789.8, 1.6322e-07
5791.8, 1.7157e-07
5793.8, 1.577e-07
5795.8, 1.5624e-07
5797.8, 1.3994e-07
5799.8, 1.8927e-07
5801.8, 1.6419e-07
5803.8, 1.4365e-07
5805.8, 1.4437e-07
5807.8, 1.6128e-07
5809.8, 1.8495e-07
5811.8, 2.117e-07
5813.8, 1.8838e-07
5815.8, 1.5635e-07
5817.8, 1.6106e-07
5819.8, 1.5391e-07
5821.8, 1.8586e-07
5823.8, 1.757e-07
5825.8, 1.6266e-07
5827.8, 1.825e-07
5829.8, 1.994e-07
5831.8, 1.601e-07
5833.8, 1.9648e-07
5835.8, 1.5751e-07
5837.8, 1.6677e-07
5839.8, 1.723e-07
5841.8, 2.0876e-07
5843.8, 1.7171e-07
5845.8, 1.7579e-07
5847.8, 1.6466e-07
5849.8, 1.6077e-07
5851.8, 1.695e-07
5853.8, 1.5524e-07
5855.8, 1.497e-07
5857.9, 1.6364e-07
5859.9, 1.8078e-07
5861.9, 1.7976e-07
5863.9, 1.6403e-07
5865.9, 1.6829e-07
5867.9, 1.5815e-07
5869.9, 1.3902e-07
5871.9, 1.5051e-07
5873.9, 1.5201e-07
5875.9, 1.5576e-07
5877.9, 1.4062e-07
5879.9, 1.6728e-07
5881.9, 2.0345e-07
5883.9, 1.495e-07
5885.9, 1.8781e-07
5887.9, 1.4239e-07
5889.9, 1.6006e-07
5891.9, 1.6662e-07
5893.9, 1.6772e-07
5895.9, 1.7814e-07
5897.9, 1.6575e-07
5899.9, 1.58e-07
5901.9, 1.6771e-07
5903.9, 1.5988e-07
5905.9, 1.8166e-07
5907.9, 1.8319e-07
5909.9, 1.6229e-07
5911.9, 1.9179e-07
5913.9, 1.7125e-07
5915.9, 1.5944e-07
5917.9, 1.7615e-07
5919.9, 1.5166e-07
5921.9, 1.373e-07
5923.9, 1.7778e-07
5925.9, 1.6672e-07
5927.9, 1.6763e-07
5929.9, 1.517e-07
5931.9, 1.7512e-07
5933.9, 1.6549e-07
5935.9, 1.6754e-07
5937.9, 1.9099e-07
5939.9, 1.8324e-07
5941.9, 1.5735e-07
5943.9, 1.5889e-07
5945.9, 1.8575e-07
5947.9, 1.4274e-07
5949.9, 1.6035e-07
5951.9, 1.6812e-07
5953.9, 1.7658e-07
5955.9, 1.8092e-07
5958.0, 1.6801e-07
5960.0, 1.8839e-07
5962.0, 1.5527e-07
5964.0, 1.3986e-07
5966.0, 1.6916e-07
5968.0, 1.7452e-07
5970.0, 1.5553e-07
5972.0, 1.9229e-07
5974.0, 1.7709e-07
5976.0, 1.908e-07
5978.0, 1.8413e-07
5980.0, 1.6356e-07
5982.0, 1.3007e-07
5984.0, 1.8849e-07
5986.0, 1.5004e-07
5988.0, 1.5602e-07
5990.0, 1.5423e-07
5992.0, 1.7613e-07
5994.0, 1.8618e-07
5996.0, 1.8866e-07
5998.0, 1.8382e-07
6000.0, 1.7536e-07
6002.0, 1.5648e-07
6004.0, 1.8929e-07
6006.0, 2.1757e-07
6008.0, 1.5985e-07
6010.0, 1.608e-07
6012.0, 1.6956e-07
6014.0, 1.81e-07
6016.0, 1.7266e-07
6018.0, 1.5024e-07
6020.0, 1.8175e-07
6022.0, 1.8267e-07
6024.0, 1.5426e-07
6026.0, 1.5501e-07
6028.0, 1.7679e-07
6030.0, 1.9736e-07
6032.0, 1.7827e-07
6034.0, 2.1291e-07
6036.0, 1.5559e-07
6038.0, 1.6297e-07
6040.0, 1.7517e-07
6042.0, 1.873e-07
6044.0, 1.7937e-07
6046.0, 1.5233e-07
6048.0, 1.8419e-07
6050.0, 1.7523e-07
6052.0, 1.925e-07
6054.0, 1.7911e-07
6056.0, 1.6562e-07
6058.1, 1.762e-07
6060.1, 1.6966e-07
6062.1, 1.6287e-07
6064.1, 1.8544e-07
6066.1, 1.6428e-07
6068.1, 1.5924e-07
6070.1, 1.8048e-07
6072.1, 1.8737e-07
6074.1, 1.7177e-07
6076.1, 1.9348e-07
6078.1, 1.8168e-07
6080.1, 1.6197e-07
6082.1, 1.7627e-07
6084.1, 1.8694e-07
6086.1, 1.924e-07
6088.1, 1.4233e-07
6090.1, 1.5019e-07
6092.1, 2.159e-07
6094.1, 1.8358e-07
6096.1, 1.5167e-07
6098.1, 1.7577e-07
6100.1, 1.8372e-07
6102.1, 1.6846e-07
6104.1, 1.7254e-07
6106.1, 1.639e-07
6108.1, 1.5584e-07
6110.1, 1.6598e-07
6112.1, 1.6522e-07
6114.1, 1.7216e-07
6116.1, 1.6758e-07
6118.1, 1.3446e-07
6120.1, 2.0466e-07
6122.1, 1.6659e-07
6124.1, 1.627e-07
6126.1, 1.924e-07
6128.1, 1.75e-07
6130.1, 1.4422e-07
6132.1, 1.3028e-07
6134.1, 1.7731e-07
6136.1, 1.82e-07
6138.1, 1.7199e-07
6140.1, 1.7915e-07
6142.1, 1.698e-07
6144.1, 1.6003e-07
6146.1, 1.7156e-07
6148.1, 1.4399e-07
6150.1, 1.5782e-07
6152.1, 1.689e-07
6154.1, 1.8659e-07
6156.1, 1.8996e-07
6158.2, 1.6407e-07
6160.2, 1.6655e-07
6162.2, 1.7865e-07
6164.2, 1.5538e-07
6166.2, 1.7767e-07
6168.2, 1.7279e-07
6170.2, 1.9175e-07
6172.2, 1.6251e-07
6174.2, 1.4097e-07
6176.2, 1.659e-07
6178.2, 1.6546e-07
6180.2, 1.7301e-07
6182.2, 1.6264e-07
6184.2, 1.6482e-07
6186.2, 1.8648e-07
6188.2, 1.5672e-07
6190.2, 1.5295e-07
6192.2, 1.6281e-07
6194.2, 1.8342e-07
6196.2, 1.8896e-07
6198.2, 1.7905e-07
6200.2, 1.655e-07
6202.2, 1.39e-07
6204.2, 1.4187e-07
6206.2, 1.5575e-07
6208.2, 1.7119e-07
6210.2, 1.6755e-07
6212.2, 1.6981e-07
6214.2, 1.8538e-07
6216.2, 2.0325e-07
6218.2, 1.7961e-07
6220.2, 1.6246e-07
6222.2, 1.5838e-07
6224.2, 1.2276e-07
6226.2, -3.592e-08
6228.2, -3.907e-08
6230.2, -4.011e-08
6232.2, -3.848e-08
6234.2, -3.965e-08
6236.2, -3.696e-08
6238.2, -3.62e-08
6240.2, -3.846e-08
6242.2, -4.078e-08
6244.2, -4.13e-08
6246.2, -3.947e-08
6248.2, -4.121e-08
6250.2, -3.93e-08
6252.2, -4.139e-08
6254.2, -3.974e-08
6256.2, -4.124e-08
6258.3, -4.151e-08
6260.3, -4.498e-08
6262.3, -4.008e-08
6264.3, -4.225e-08
6266.3, -3.919e-08
6268.3, -4.01e-08
6270.3, -4.412e-08
6272.3, -4.237e-08
6274.3, -4.464e-08
6276.3, -4.143e-08
6278.3, -4.204e-08
6280.3, -3.79e-08
6282.3, -4.015e-08
6284.3, -3.893e-08
6286.3, -4.307e-08
6288.3, -4.269e-08
6290.3, -3.922e-08
6292.3, -4.103e-08
6294.3, -4.276e-08
6296.3, -4.214e-08
6298.3, -4.463e-08
6300.3, -4.185e-08
6302.3, -4.308e-08
6304.3, -4.193e-08
6306.3, -3.923e-08
6308.3, -4.074e-08
6310.3, -4.041e-08
6312.3, -4.147e-08
6314.3, -3.729e-08
6316.3, -3.459e-08
6318.3, -3.927e-08
6320.3, -3.778e-08
6322.3, -3.47e-08
6324.3, -3.716e-08
6326.3, -3.711e-08
6328.3, -3.604e-08
6330.3, -3.808e-08
6332.3, -3.571e-08
6334.3, -3.886e-08
6336.3, -3.911e-08
6338.3, -3.538e-08
6340.3, -3.744e-08
6342.3, -3.356e-08
6344.3, -3.87e-08
6346.3, -3.441e-08
6348.3, -3.944e-08
6350.3, -3.611e-08
6352.3, -3.468e-08
6354.3, -3.693e-08
6356.3, -3.521e-08
6358.4, -3.847e-08
6360.4, -3.858e-08
6362.4, -3.836e-08
6364.4, -3.714e-08
6366.4, -3.626e-08
6368.4, -3.69e-08
6370.4, -3.802e-08
6372.4, -3.888e-08
6374.4, -3.914e-08
6376.4, -3.837e-08
6378.4, -3.953e-08
6380.4, -4.121e-08
6382.4, -4.035e-08
6384.4, -4.144e-08
6386.4, -3.803e-08
6388.4, -4.24e-08
6390.4, -3.838e-08
6392.4, -3.66e-08
6394.4, -3.902e-08
6396.4, -4.205e-08
6398.4, -3.812e-08
6400.4, -3.913e-08
6402.4, -3.699e-08
6404.4, -3.748e-08
6406.4, -3.784e-08
6408.4, -3.929e-08
6410.4, -4.349e-08
6412.4, -3.883e-08
6414.4, -4.115e-08
6416.4, -3.814e-08
6418.4, -3.993e-08
6420.4, -3.751e-08
6422.4, -4.095e-08
6424.4, -3.903e-08
6426.4, -3.799e-08
6428.4, -4.419e-08
6430.4, -4.07e-08
6432.4, -3.958e-08
6434.4, -3.888e-08
6436.4, -4.134e-08
6438.4, -3.979e-08
6440.4, -3.798e-08
6442.4, -3.488e-08
6444.4, -3.894e-08
6446.4, -3.72e-08
6448.4, -3.699e-08
6450.4, -3.685e-08
6452.4, -3.67e-08
6454.4, -3.695e-08
6456.4, -3.693e-08
6458.5, -3.314e-08
6460.5, -3.267e-08
6462.5, -3.802e-08
6464.5, -3.308e-08
6466.5, -3.463e-08
6468.5, -4.28e-08
6470.5, -3.859e-08
6472.5, -3.419e-08
6474.5, -3.676e-08
6476.5, -3.902e-08
6478.5, -3.901e-08
6480.5, -3.648e-08
6482.5, -3.673e-08
6484.5, -3.765e-08
6486.5, -3.863e-08
6488.5, -3.725e-08
6490.5, -3.459e-08
6492.5, -4.174e-08
6494.5, -3.926e-08
6496.5, -3.703e-08
6498.5, -3.369e-08
6500.5, -3.648e-08
6502.5, -3.679e-08
6504.5, -3.849e-08
6506.5, -3.435e-08
6508.5, -3.758e-08
6510.5, -3.549e-08
6512.5, -3.546e-08
6514.5, -3.348e-08
6516.5, -3.983e-08
6518.5, -3.184e-08
6520.5, -3.242e-08
6522.5, -3.352e-08
6524.5, -3.558e-08
6526.5, -3.823e-08
6528.5, -3.661e-08
6530.5, -3.834e-08
6532.5, -3.374e-08
6534.5, -3.596e-08
6536.5, -3.746e-08
6538.5, -3.366e-08
6540.5, -3.536e-08
6542.5, -3.371e-08
6544.5, -3.551e-08
6546.5, -3.346e-08
6548.5, -3.61e-08
6550.5, -3.546e-08
6552.5, -3.688e-08
6554.5, -3.72e-08
6556.5, -3.599e-08
6558.6, -3.668e-08
6560.6, -3.658e-08
6562.6, -3.449e-08
6564.6, -3.402e-08
6566.6, -3.362e-08
6568.6, -3.601e-08
6570.6, -3.282e-08
6572.6, -3.355e-08
6574.6, -3.216e-08
6576.6, -3.666e-08
6578.6, -3.509e-08
6580.6, -3.539e-08
6582.6, -3.608e-08
6584.6, -3.267e-08
6586.6, -3.838e-08
6588.6, -3.944e-08
6590.6, -3.552e-08
6592.6, -3.747e-08
6594.6, -3.11e-08
6596.6, -3.744e-08
6598.6, -3.316e-08
6600.6, -3.675e-08
6602.6, -3.358e-08
6604.6, -3.739e-08
6606.6, -3.578e-08
6608.6, -3.716e-08
6610.6, -4.02e-08
6612.6, -3.895e-08
6614.6, -3.701e-08
6616.6, -3.813e-08
6618.6, -4.12e-08
6620.6, -3.848e-08
6622.6, -3.925e-08
6624.6, -4.07e-08
6626.6, -3.917e-08
6628.6, -4.14e-08
6630.6, -3.896e-08
6632.6, -3.651e-08
6634.6, -3.907e-08
6636.6, -3.905e-08
6638.6, -3.618e-08
6640.6, -4.095e-08
6642.6, -3.465e-08
6644.6, -3.494e-08
6646.6, -3.981e-08
6648.6, -4.209e-08
6650.6, -3.775e-08
6652.6, -4.187e-08
6654.6, -3.959e-08
6656.6, -3.911e-08
6658.7, -3.531e-08
6660.7, -3.872e-08
6662.7, -4.006e-08
6664.7, -3.39e-08
6666.7, -3.926e-08
6668.7, -3.786e-08
6670.7, -3.744e-08
6672.7, -3.854e-08
6674.7, -3.42e-08
6676.7, -3.646e-08
6678.7, -3.732e-08
6680.7, -3.732e-08
6682.7, -3.655e-08
6684.7, -3.715e-08
6686.7, -3.35e-08
6688.7, -3.377e-08
6690.7, -4.114e-08
6692.7, -3.886e-08
6694.7, -3.794e-08
6696.7, -3.765e-08
6698.7, -3.409e-08
6700.7, -3.307e-08
6702.7, -3.557e-08
6704.7, -3.34e-08
6706.7, -3.44e-08
6708.7, -3.489e-08
6710.7, -3.575e-08
6712.7, -4.309e-08
6714.7, -3.193e-08
6716.7, -3.373e-08
6718.7, -3.471e-08
6720.7, -3.771e-08
6722.7, -3.349e-08
6724.7, -3.093e-08
6726.7, -2.973e-08
6728.7, -3.445e-08
6730.7, -3.509e-08
6732.7, -3.332e-08
6734.7, -3.411e-08
6736.7, -3.489e-08
6738.7, -3.359e-08
6740.7, -3.896e-08
6742.7, -3.788e-08
6744.7, -3.497e-08
6746.7, -3.605e-08
6748.7, -3.583e-08
6750.7, -3.76e-08
6752.7, -3.849e-08
6754.7, -3.512e-08
6756.7, -3.638e-08
6758.8, -3.428e-08
6760.8, -3.088e-08
6762.8, -3.429e-08
6764.8, -3.114e-08
6766.8, -3.563e-08
6768.8, -3.239e-08
6770.8, -3.611e-08
6772.8, -3.535e-08
6774.8, -3.629e-08
6776.8, -3.49e-08
6778.8, -3.523e-08
6780.8, -3.185e-08
6782.8, -3.144e-08
6784.8, -3.265e-08
6786.8, -3.261e-08
6788.8, -3.598e-08
6790.8, -3.658e-08
6792.8, -3.195e-08
6794.8, -3.414e-08
6796.8, -3.469e-08
6798.8, -3.421e-08
6800.8, -3.565e-08
6802.8, -3.569e-08
6804.8, -3.299e-08
6806.8, -3.557e-08
6808.8, -3.329e-08
6810.8, -3.289e-08
6812.8, -3.861e-08
6814.8, -3.551e-08
6816.8, -3.468e-08
6818.8, -3.465e-08
6820.8, -3.765e-08
6822.8, -3.587e-08
6824.8, -3.103e-08
6826.8, -3.023e-08
6828.8, -3.266e-08
6830.8, -3.153e-08
6832.8, -2.989e-08
6834.8, -3.37e-08
6836.8, -3.247e-08
6838.8, -3.487e-08
6840.8, -3.298e-08
6842.8, -3.271e-08
6844.8, -3.072e-08
6846.8, -3.669e-08
6848.8, -3.671e-08
6850.8, -3.732e-08
6852.8, -3.496e-08
6854.8, -3.424e-08
6856.8, -3.566e-08
6858.9, -3.77e-08
6860.9, -3.955e-08
6862.9, -3.657e-08
6864.9, -3.733e-08
6866.9, -3.533e-08
6868.9, -3.374e-08
6870.9, -3.46e-08
6872.9, -3.813e-08
6874.9, -3.537e-08
6876.9, -3.322e-08
6878.9, -3.725e-08
6880.9, -3.723e-08
6882.9, -3.685e-08
6884.9, -3.227e-08
6886.9, -3.605e-08
6888.9, -3.192e-08
6890.9, -3.303e-08
6892.9, -3.633e-08
6894.9, -3.227e-08
6896.9, -3.783e-08
6898.9, -3.2e-08
6900.9, -3.268e-08
6902.9, -3.394e-08
6904.9, -3.692e-08
6906.9, -3.282e-08
6908.9, -3.371e-08
6910.9, -3.775e-08
6912.9, -3.701e-08
6914.9, -3.38e-08
6916.9, -3.625e-08
6918.9, -3.721e-08
6920.9, -3.651e-08
6922.9, -3.431e-08
6924.9, -3.835e-08
6926.9, -3.765e-08
6928.9, -3.269e-08
6930.9, -3.535e-08
6932.9, -3.621e-08
6934.9, -3.411e-08
6936.9, -3.603e-08
6938.9, -3.523e-08
6940.9, -3.542e-08
6942.9, -3.689e-08
6944.9, -3.48e-08
6946.9, -3.677e-08
6948.9, -3.656e-08
6950.9, -3.553e-08
6952.9, -3.368e-08
6954.9, -3.607e-08
6956.9, -3.695e-08
6959.0, -3.384e-08
6961.0, -3.344e-08
6963.0, -3.674e-08
6965.0, -3.297e-08
6967.0, -3.579e-08
6969.0, -3.531e-08
6971.0, -3.81e-08
6973.0, -3.567e-08
6975.0, -3.441e-08
6977.0, -3.874e-08
6979.0, -3.957e-08
6981.0, -3.644e-08
6983.0, -3.471e-08
6985.0, -3.677e-08
6987.0, -3.349e-08
6989.0, -3.255e-08
6991.0, -3.259e-08
6993.0, -3.689e-08
6995.0, -3.533e-08
6997.0, -3.149e-08
6999.0, -3.73e-08
7001.0, -3.734e-08
7003.0, -3.385e-08
7005.0, -3.26e-08
7007.0, -3.133e-08
7009.0, -2.768e-08
7011.0, -3.226e-08
7013.0, -3.299e-08
7015.0, -3.144e-08
7017.0, -3.46e-08
7019.0, -2.909e-08
7021.0, -3.018e-08
7023.0, -3.429e-08
7025.0, -3.69e-08
7027.0, -3.373e-08
7029.0, -3.153e-08
7031.0, -2.959e-08
7033.0, -3.149e-08
7035.0, -3.279e-08
7037.0, -3.402e-08
7039.0, -3.338e-08
7041.0, -3.317e-08
7043.0, -3.26e-08
7045.0, -3.394e-08
7047.0, -3.554e-08
7049.0, -3.291e-08
7051.0, -3.15e-08
7053.0, -3.509e-08
7055.0, -3.327e-08
7057.0, -3.537e-08
7059.1, -3.685e-08
7061.1, -3.301e-08
7063.1, -3.191e-08
7065.1, -3.483e-08
7067.1, -3.186e-08
7069.1, -3.504e-08
7071.1, -3.289e-08
7073.1, -3.146e-08
7075.1, -3.486e-08
7077.1, -3.159e-08
7079.1, -3.403e-08
7081.1, -3.522e-08
7083.1, -3.281e-08
7085.1, -3.165e-08
7087.1, -3.099e-08
7089.1, -3.255e-08
7091.1, -3.583e-08
7093.1, -3.6e-08
7095.1, -3.289e-08
7097.1, -3.434e-08
7099.1, -3.671e-08
7101.1, -3.37e-08
7103.1, -3.176e-08
7105.1, -3.32e-08
7107.1, -3.424e-08
7109.1, -3.124e-08
7111.1, -3.66e-08
7113.1, -3.491e-08
7115.1, -3.068e-08
7117.1, -3.998e-08
7119.1, -3.898e-08
7121.1, -3.703e-08
7123.1, -3.716e-08
7125.1, -3.504e-08
7127.1, -3.416e-08
7129.1, -3.419e-08
7131.1, -3.427e-08
7133.1, -3.04e-08
7135.1, -3.573e-08
7137.1, -3.629e-08
7139.1, -3.664e-08
7141.1, -3.581e-08
7143.1, -3.728e-08
7145.1, -3.415e-08
7147.1, -3.461e-08
7149.1, -3.257e-08
7151.1, -3.671e-08
7153.1, -3.804e-08
7155.1, -3.689e-08
7157.1, -3.635e-08
7159.2, -3.583e-08
7161.2, -3.377e-08
7163.2, -3.231e-08
7165.2, -3.118e-08
7167.2, -3.031e-08
7169.2, -2.763e-08
7171.2, -3.027e-08
7173.2, -3.058e-08
7175.2, -3.199e-08
7177.2, -3.424e-08
7179.2, -3.373e-08
7181.2, -3.312e-08
7183.2, -3.334e-08
7185.2, -3.199e-08
7187.2, -3.199e-08
7189.2, -3.618e-08
7191.2, -3.339e-08
7193.2, -3.237e-08
7195.2, -3.58e-08
7197.2, -3.564e-08
7199.2, -3.808e-08
7201.2, -3.993e-08
7203.2, -3.547e-08
7205.2, -3.825e-08
7207.2, -3.851e-08
7209.2, -3.641e-08
7211.2, -3.656e-08
7213.2, -3.486e-08
7215.2, -3.671e-08
7217.2, -3.692e-08
7219.2, -3.471e-08
7221.2, -3.37e-08
7223.2, -3.039e-08
7225.2, -3.221e-08
7227.2, -3.65e-08
7229.2, -3.712e-08
7231.2, -3.759e-08
7233.2, -3.693e-08
7235.2, -3.471e-08
7237.2, -3.178e-08
7239.2, -3.3e-08
7241.2, -3.461e-08
7243.2, -3.52e-08
7245.2, -3.344e-08
7247.2, -3.476e-08
7249.2, -3.359e-08
7251.2, -3.309e-08
7253.2, -3.351e-08
7255.2, -3.897e-08
7257.2, -3.605e-08
7259.3, -3.528e-08
7261.3, -3.878e-08
7263.3, -3.949e-08
7265.3, -3.813e-08
7267.3, -3.491e-08
7269.3, -3.746e-08
7271.3, -3.587e-08
7273.3, -3.418e-08
7275.3, -3.266e-08
7277.3, -3.252e-08
7279.3, -3.67e-08
7281.3, -3.715e-08
7283.3, -3.575e-08
7285.3, -3.219e-08
7287.3, -3.47e-08
7289.3, -3.698e-08
7291.3, 1.1522e-07
7293.3, 1.1754e-07
7295.3, 1.2062e-07
7297.3, 1.3957e-07
7299.3, 1.1457e-07
7301.3, 1.2683e-07
7303.3, 1.3828e-07
7305.3, 1.446e-07
7307.3, 1.6456e-07
7309.3, 1.588e-07
7311.3, 1.6395e-07
7313.3, 1.7893e-07
7315.3, 1.3991e-07
7317.3, 1.5542e-07
7319.3, 1.4417e-07
7321.3, 1.1905e-07
7323.3, 1.5396e-07
7325.3, 1.67e-07
7327.3, 1.4697e-07
7329.3, 1.273e-07
7331.3, 1.5059e-07
7333.3, 1.546e-07
7335.3, 1.3275e-07
7337.3, 1.5233e-07
7339.3, 1.4539e-07
7341.3, 1.5855e-07
7343.3, 1.7067e-07
7345.3, 1.53e-07
7347.3, 1.2785e-07
7349.3, 1.5475e-07
7351.3, 1.5303e-07
7353.3, 1.2182e-07
7355.3, 1.7851e-07
7357.3, 1.3362e-07
7359.4, 1.4772e-07
7361.4, 1.3108e-07
7363.4, 1.6822e-07
7365.4, 1.5627e-07
7367.4, 1.5243e-07
7369.4, 1.4601e-07
7371.4, 1.2307e-07
7373.4, 1.4859e-07
7375.4, 1.56e-07
7377.4, 1.7328e-07
7379.4, 1.6229e-07
7381.4, 1.4529e-07
7383.4, 1.6114e-07
7385.4, 1.4848e-07
7387.4, 1.5252e-07
7389.4, 1.6037e-07
7391.4, 1.256e-07
7393.4, 1.5118e-07
7395.4, 1.5855e-07
7397.4, 1.6929e-07
7399.4, 1.9615e-07
7401.4, 1.8489e-07
7403.4, 1.476e-07
7405.4, 1.6777e-07
7407.4, 1.5709e-07
7409.4, 1.9562e-07
7411.4, 1.6879e-07
7413.4, 1.5428e-07
7415.4, 1.7525e-07
7417.4, 1.7597e-07
7419.4, 1.4108e-07
7421.4, 1.5899e-07
7423.4, 1.4427e-07
7425.4, 1.6406e-07
7427.4, 1.8831e-07
7429.4, 1.6072e-07
7431.4, 1.5562e-07
7433.4, 1.7521e-07
7435.4, 1.5604e-07
7437.4, 1.7102e-07
7439.4, 1.5678e-07
7441.4, 1.7019e-07
7443.4, 1.4336e-07
7445.4, 1.538e-07
7447.4, 1.5069e-07
7449.4, 1.5199e-07
7451.4, 1.4019e-07
7453.4, 1.5411e-07
7455.4, 1.5645e-07
7457.4, 1.7816e-07
7459.5, 1.714e-07
7461.5, 1.7757e-07
7463.5, 1.5798e-07
7465.5, 1.637e-07
7467.5, 1.8439e-07
7469.5, 1.8418e-07
7471.5, 1.7532e-07
7473.5, 1.8695e-07
7475.5, 1.722e-07
7477.5, 1.8048e-07
7479.5, 1.7685e-07
7481.5, 1.4805e-07
7483.5, 2.0031e-07
7485.5, 1.6843e-07
7487.5, 2.0423e-07
7489.5, 1.886e-07
7491.5, 1.4882e-07
7493.5, 1.6864e-07
7495.5, 1.5232e-07
7497.5, 1.4881e-07
7499.5, 1.4965e-07
7501.5, 1.3739e-07
7503.5, 1.5546e-07
7505.5, 1.6885e-07
7507.5, 1.5036e-07
7509.5, 1.5528e-07
7511.5, 1.3746e-07
7513.5, 1.6161e-07
7515.5, 1.5534e-07
7517.5, 1.7548e-07
7519.5, 1.4665e-07
7521.5, 1.7058e-07
7523.5, 1.8249e-07
7525.5, 2.103e-07
7527.5, 2.1173e-07
7529.5, 1.6431e-07
7531.5, 1.5941e-07
7533.5, 1.6572e-07
7535.5, 1.298e-07
7537.5, 1.5518e-07
7539.5, 1.8242e-07
7541.5, 1.6618e-07
7543.5, 1.7262e-07
7545.5, 1.6186e-07
7547.5, 1.7055e-07
7549.5, 1.7119e-07
7551.5, 1.6071e-07
7553.5, 1.9117e-07
7555.5, 2.1582e-07
7557.5, 1.6575e-07
7559.6, 1.5718e-07
7561.6, 1.5248e-07
7563.6, 1.8632e-07
7565.6, 1.634e-07
7567.6, 1.5281e-07
7569.6, 1.4775e-07
7571.6, 1.8542e-07
7573.6, 2.0634e-07
7575.6, 1.8488e-07
7577.6, 1.5393e-07
7579.6, 1.7175e-07
7581.6, 1.3277e-07
7583.6, 1.455e-07
7585.6, 1.6219e-07
7587.6, 2.1018e-07
7589.6, 1.8765e-07
7591.6, 1.9383e-07
7593.6, 1.5655e-07
7595.6, 1.8354e-07
7597.6, 2.0784e-07
7599.6, 1.5728e-07
7601.6, 1.2438e-07
7603.6, 1.7312e-07
7605.6, 1.9382e-07
7607.6, 1.5404e-07
7609.6, 1.8359e-07
7611.6, 1.5401e-07
7613.6, 1.9267e-07
7615.6, 1.5948e-07
7617.6, 1.637e-07
7619.6, 1.8066e-07
7621.6, 1.7494e-07
7623.6, 1.4648e-07
7625.6, 1.5964e-07
7627.6, 1.8073e-07
7629.6, 1.7098e-07
7631.6, 1.4384e-07
7633.6, 1.5807e-07
7635.6, 1.54e-07
7637.6, 1.4749e-07
7639.6, 1.7346e-07
7641.6, 1.8665e-07
7643.6, 1.7103e-07
7645.6, 1.9796e-07
7647.6, 1.5042e-07
7649.6, 1.9444e-07
7651.6, 1.5487e-07
7653.6, 1.9277e-07
7655.6, 1.732e-07
7657.6, 1.422e-07
7659.7, 1.7547e-07
7661.7, 1.547e-07
7663.7, 1.8022e-07
7665.7, 1.8952e-07
7667.7, 1.7734e-07
7669.7, 1.7749e-07
7671.7, 1.5588e-07
7673.7, 1.6766e-07
7675.7, 1.8233e-07
7677.7, 1.5119e-07
7679.7, 1.8756e-07
7681.7, 1.7238e-07
7683.7, 1.7239e-07
7685.7, 1.7956e-07
7687.7, 1.6208e-07
7689.7, 1.7156e-07
7691.7, 1.5819e-07
7693.7, 1.4725e-07
7695.7, 1.4217e-07
7697.7, 1.626e-07
7699.7, 1.9601e-07
7701.7, 1.9312e-07
7703.7, 1.498e-07
7705.7, 1.8408e-07
7707.7, 2.0261e-07
7709.7, 1.4694e-07
7711.7, 2.105e-07
7713.7, 1.7009e-07
7715.7, 1.7075e-07
7717.7, 1.6875e-07
7719.7, 2.0036e-07
7721.7, 1.8377e-07
7723.7, 1.6882e-07
7725.7, 1.794e-07
7727.7, 1.8482e-07
7729.7, 1.8457e-07
7731.7, 1.6924e-07
7733.7, 1.8076e-07
7735.7, 1.8141e-07
7737.7, 1.6756e-07
7739.7, 1.6319e-07
7741.7, 1.7436e-07
7743.7, 1.8326e-07
7745.7, 1.8535e-07
7747.7, 2.1034e-07
7749.7, 1.7398e-07
7751.7, 1.7097e-07
7753.7, 1.552e-07
7755.7, 2.0582e-07
7757.7, 1.7468e-07
7759.8, 1.6476e-07
7761.8, 1.896e-07
7763.8, 1.7576e-07
7765.8, 1.9619e-07
7767.8, 1.5717e-07
7769.8, 1.9648e-07
7771.8, 1.615e-07
7773.8, 1.5071e-07
7775.8, 1.9581e-07
7777.8, 1.7179e-07
7779.8, 1.9078e-07
7781.8, 1.8453e-07
7783.8, 1.7634e-07
7785.8, 1.6228e-07
7787.8, 1.7389e-07
7789.8, 1.7181e-07
7791.8, 1.7145e-07
7793.8, 1.4307e-07
7795.8, 1.7021e-07
7797.8, 1.6788e-07
7799.8, 1.9733e-07
7801.8, 1.5246e-07
7803.8, 1.9923e-07
7805.8, 1.8284e-07
7807.8, 1.6137e-07
7809.8, 1.4554e-07
7811.8, 1.8011e-07
7813.8, 1.7513e-07
7815.8, 1.9232e-07
7817.8, 1.4483e-07
7819.8, 1.7481e-07
7821.8, 1.4599e-07
7823.8, 1.7307e-07
7825.8, 1.8563e-07
7827.8, 2.0004e-07
7829.8, 1.7924e-07
7831.8, 1.7197e-07
7833.8, 1.5272e-07
7835.8, 1.8385e-07
7837.8, 2.1414e-07
7839.8, 1.6918e-07
7841.8, 1.7928e-07
7843.8, 1.9636e-07
7845.8, 1.868e-07
7847.8, 1.9659e-07
7849.8, 1.6296e-07
7851.8, 1.6825e-07
7853.8, 1.843e-07
7855.8, 1.7075e-07
7857.8, 1.6512e-07
7859.9, 1.4325e-07
7861.9, 1.8173e-07
7863.9, 1.6626e-07
7865.9, 1.6513e-07
7867.9, 2.2032e-07
7869.9, 1.6711e-07
7871.9, 1.9843e-07
7873.9, 1.5646e-07
7875.9, 1.8221e-07
7877.9, 1.3815e-07
7879.9, 1.6373e-07
7881.9, 1.7947e-07
7883.9, 1.5809e-07
7885.9, 1.7649e-07
7887.9, 1.6571e-07
7889.9, 1.7371e-07
7891.9, 2.0945e-07
7893.9, 1.7843e-07
7895.9, 1.5652e-07
7897.9, 1.8712e-07
7899.9, 1.8186e-07
7901.9, 2.1417e-07
7903.9, 1.7705e-07
7905.9, 1.8419e-07
7907.9, 1.7205e-07
7909.9, 2.0856e-07
7911.9, 1.7947e-07
7913.9, 1.9146e-07
7915.9, 1.8014e-07
7917.9, 1.6412e-07
7919.9, 1.4957e-07
7921.9, 1.6113e-07
7923.9, 1.9215e-07
7925.9, 1.386e-07
7927.9, 1.4641e-07
7929.9, 1.754e-07
7931.9, 1.9609e-07
7933.9, 1.9407e-07
7935.9, 1.8708e-07
7937.9, 1.8389e-07
7939.9, 1.8148e-07
7941.9, 1.9006e-07
7943.9, 1.6176e-07
7945.9, 1.9275e-07
7947.9, 1.6263e-07
7949.9, 1.876e-07
7951.9, 1.8711e-07
7953.9, 1.7803e-07
7955.9, 2.0824e-07
7957.9, 1.6956e-07
7960.0, 1.8574e-07
7962.0, 2.044e-07
7964.0, 1.79e-07
7966.0, 1.9315e-07
7968.0, 1.5028e-07
7970.0, 1.8886e-07
7972.0, 1.9598e-07
7974.0, 1.6323e-07
7976.0, 1.8319e-07
7978.0, 1.7228e-07
7980.0, 1.9052e-07
7982.0, 1.6822e-07
7984.0, 1.6948e-07
7986.0, 1.8449e-07
7988.0, 1.4717e-07
7990.0, 2.1292e-07
7992.0, 1.5306e-07
7994.0, 1.6931e-07
7996.0, 1.899e-07
7998.0, 1.9097e-07
8000.0, 1.6699e-07
8002.0, 1.4327e-07
8004.0, 1.6524e-07
8006.0, 1.5065e-07
8008.0, 1.6704e-07
8010.0, 1.8173e-07
8012.0, 1.8087e-07
8014.0, 1.5671e-07
8016.0, 1.8386e-07
8018.0, 1.8486e-07
8020.0, 1.9435e-07
8022.0, 1.9673e-07
8024.0, 1.6859e-07
8026.0, 1.7925e-07
8028.0, 2.1861e-07
8030.0, 1.8231e-07
8032.0, 1.6755e-07
8034.0, 1.9406e-07
8036.0, 1.65e-07
8038.0, 1.8271e-07
8040.0, 1.7952e-07
8042.0, 1.9213e-07
8044.0, 1.8639e-07
8046.0, 1.9078e-07
8048.0, 2.0167e-07
8050.0, 1.7553e-07
8052.0, 2.0287e-07
8054.0, 1.7119e-07
8056.0, 1.575e-07
8058.0, 1.8174e-07
8060.1, 2.0751e-07
8062.1, 1.9158e-07
8064.1, 2.1756e-07
8066.1, 1.8398e-07
8068.1, 1.8615e-07
8070.1, 1.7426e-07
8072.1, 1.9387e-07
8074.1, 1.767e-07
8076.1, 1.5601e-07
8078.1, 1.9809e-07
8080.1, 1.8709e-07
8082.1, 1.4643e-07
8084.1, 1.6035e-07
8086.1, 1.8523e-07
8088.1, 1.8238e-07
8090.1, 1.8278e-07
8092.1, 1.8156e-07
8094.1, 1.629e-07
8096.1, 1.953e-07
8098.1, 1.6963e-07
8100.1, 1.9267e-07
8102.1, 1.9072e-07
8104.1, 1.6582e-07
8106.1, 1.992e-07
8108.1, 1.8675e-07
8110.1, 2.2026e-07
8112.1, 2.0698e-07
8114.1, 1.6207e-07
8116.1, 1.4655e-07
8118.1, 2.2967e-07
8120.1, 1.6343e-07
8122.1, 1.8937e-07
8124.1, 1.2871e-07
8126.1, 1.9427e-07
8128.1, 2.1866e-07
8130.1, 1.8062e-07
8132.1, 1.9842e-07
8134.1, 1.9687e-07
8136.1, 1.6054e-07
8138.1, 1.4728e-07
8140.1, 1.952e-07
8142.1, 1.4639e-07
8144.1, 1.8378e-07
8146.1, 2.2204e-07
8148.1, 1.7686e-07
8150.1, 1.6307e-07
8152.1, 1.4863e-07
8154.1, 1.5959e-07
8156.1, 2.0319e-07
8158.1, 1.5701e-07
8160.2, 1.9795e-07
8162.2, 1.51e-07
8164.2, 1.8665e-07
8166.2, 1.838e-07
8168.2, 1.839e-07
8170.2, 1.9071e-07
8172.2, 1.4475e-07
8174.2, 1.5897e-07
8176.2, 1.5408e-07
8178.2, 1.7622e-07
8180.2, 1.6437e-07
8182.2, 1.7783e-07
8184.2, 1.5594e-07
8186.2, 1.6388e-07
8188.2, 1.8184e-07
8190.2, 1.7484e-07
8192.2, 1.6559e-07
8194.2, 1.6256e-07
8196.2, 1.4098e-07
8198.2, 1.8311e-07
8200.2, 2.1287e-07
8202.2, 2.0568e-07
8204.2, 1.9333e-07
8206.2, 1.8619e-07
8208.2, 1.7852e-07
8210.2, 1.4492e-07
8212.2, 1.5648e-07
8214.2, 1.8359e-07
8216.2, 1.7218e-07
8218.2, 1.876e-07
8220.2, 1.7491e-07
8222.2, 1.8898e-07
8224.2, 1.8236e-07
8226.2, 1.766e-07
8228.2, 1.7665e-07
8230.2, 1.5818e-07
8232.2, 1.9378e-07
8234.2, 1.746e-07
8236.2, 2.012e-07
8238.2, 2.0305e-07
8240.2, 1.7303e-07
8242.2, 1.4783e-07
8244.2, 1.9728e-07
8246.2, 1.8176e-07
8248.2, 1.6981e-07
8250.2, 2.136e-07
8252.2, 1.5382e-07
8254.2, 1.7444e-07
8256.2, 1.5876e-07
8258.2, 1.7634e-07
8260.3, 1.5664e-07
8262.3, 1.649e-07
8264.3, 2.1744e-07
8266.3, 1.9873e-07
8268.3, 1.7879e-07
8270.3, 1.6795e-07
8272.3, 1.5452e-07
8274.3, 1.4612e-07
8276.3, 1.7007e-07
8278.3, 1.8774e-07
8280.3, 1.5625e-07
8282.3, 1.6402e-07
8284.3, 1.7241e-07
8286.3, 1.4815e-07
8288.3, 1.9636e-07
8290.3, 2.3922e-07
8292.3, -3.668e-08
8294.3, -3.646e-08
8296.3, -3.448e-08
8298.3, -3.68e-08
8300.3, -3.788e-08
8302.3, -3.163e-08
8304.3, -3.778e-08
8306.3, -3.82e-08
8308.3, -3.671e-08
8310.3, -3.878e-08
8312.3, -3.858e-08
8314.3, -3.924e-08
8316.3, -3.9e-08
8318.3, -3.854e-08
8320.3, -3.811e-08
8322.3, -3.553e-08
8324.3, -3.69e-08
8326.3, -3.555e-08
8328.3, -3.713e-08
8330.3, -3.68e-08
8332.3, -4.13e-08
8334.3, -3.713e-08
8336.3, -3.545e-08
8338.3, -3.475e-08
8340.3, -3.228e-08
8342.3, -3.361e-08
8344.3, -3.961e-08
8346.3, -3.623e-08
8348.3, -3.632e-08
8350.3, -3.425e-08
8352.3, -3.685e-08
8354.3, -3.608e-08
8356.3, -3.394e-08
8358.3, -3.521e-08
8360.4, -3.772e-08
8362.4, -3.715e-08
8364.4, -3.506e-08
8366.4, -3.623e-08
8368.4, -3.593e-08
8370.4, -3.666e-08
8372.4, -3.613e-08
8374.4, -3.752e-08
8376.4, -3.425e-08
8378.4, -3.829e-08
8380.4, -4.034e-08
8382.4, -4.006e-08
8384.4, -4.259e-08
8386.4, -4.309e-08
8388.4, -3.951e-08
8390.4, -4.004e-08
8392.4, -4.184e-08
8394.4, -4.421e-08
8396.4, -4.175e-08
8398.4, -4.051e-08
8400.4, -4.444e-08
8402.4, -4.146e-08
8404.4, -4.177e-08
8406.4, -4.331e-08
8408.4, -4.155e-08
8410.4, -4.106e-08
8412.4, -3.83e-08
8414.4, -4.17e-08
8416.4, -4.425e-08
8418.4, -3.961e-08
8420.4, -4.47e-08
8422.4, -4.567e-08
8424.4, -3.967e-08
8426.4, -3.982e-08
8428.4, -3.964e-08
8430.4, -4.385e-08
8432.4, -4.71e-08
8434.4, -4.238e-08
8436.4, -4.275e-08
8438.4, -4.05e-08
8440.4, -3.914e-08
8442.4, -4.134e-08
8444.4, -4.346e-08
8446.4, -4.141e-08
8448.4, -3.693e-08
8450.4, -4.036e-08
8452.4, -4.128e-08
8454.4, -3.952e-08
8456.4, -3.744e-08
8458.4, -4.206e-08
8460.5, -4.298e-08
8462.5, -3.947e-08
8464.5, -4.18e-08
8466.5, -3.912e-08
8468.5, -3.818e-08
8470.5, -4.083e-08
8472.5, -4.378e-08
8474.5, -4.026e-08
8476.5, -4.293e-08
8478.5, -4.388e-08
8480.5, -4.116e-08
8482.5, -4.231e-08
8484.5, -4.157e-08
8486.5, -4.05e-08
8488.5, -4.027e-08
8490.5, -4.174e-08
8492.5, -4.215e-08
8494.5, -4.358e-08
8496.5, -4.315e-08
8498.5, -4.395e-08
8500.5, -4.135e-08
8502.5, -4.456e-08
8504.5, -4.389e-08
8506.5, -4.128e-08
8508.5, -3.993e-08
8510.5, -4.414e-08
8512.5, -4.026e-08
8514.5, -4.049e-08
8516.5, -4.098e-08
8518.5, -4.415e-08
8520.5, -4.474e-08
8522.5, -4.719e-08
8524.5, -4.238e-08
8526.5, -4.13e-08
8528.5, -4.259e-08
8530.5, -4.208e-08
8532.5, -4.011e-08
8534.5, -3.657e-08
8536.5, -3.957e-08
8538.5, -3.862e-08
8540.5, -4.012e-08
8542.5, -4.217e-08
8544.5, -4.145e-08
8546.5, -4.081e-08
8548.5, -4.399e-08
8550.5, -4.334e-08
8552.5, -4.497e-08
8554.5, -4.141e-08
8556.5, -4.391e-08
8558.5, -3.807e-08
8560.6, -3.963e-08
8562.6, -3.691e-08
8564.6, -3.414e-08
8566.6, -3.892e-08
8568.6, -3.765e-08
8570.6, -3.877e-08
8572.6, -4.099e-08
8574.6, -3.833e-08
8576.6, -3.878e-08
8578.6, -3.966e-08
8580.6, -4.133e-08
8582.6, -4.133e-08
8584.6, -4.343e-08
8586.6, -4.147e-08
8588.6, -3.896e-08
8590.6, -3.973e-08
8592.6, -4.026e-08
8594.6, -3.59e-08
8596.6, -3.753e-08
8598.6, -3.905e-08
8600.6, -3.848e-08
8602.6, -3.767e-08
8604.6, -3.59e-08
8606.6, -3.709e-08
8608.6, -3.312e-08
8610.6, -3.449e-08
8612.6, -3.707e-08
8614.6, -3.989e-08
8616.6, -3.517e-08
8618.6, -3.79e-08
8620.6, -4.11e-08
8622.6, -4.346e-08
8624.6, -4.054e-08
8626.6, -4.238e-08
8628.6, -4.116e-08
8630.6, -4.167e-08
8632.6, -4.033e-08
8634.6, -4.109e-08
8636.6, -4.113e-08
8638.6, -4.241e-08
8640.6, -4.092e-08
8642.6, -3.952e-08
8644.6, -3.799e-08
8646.6, -3.777e-08
8648.6, -3.839e-08
8650.6, -3.764e-08
8652.6, -3.88e-08
8654.6, -3.817e-08
8656.6, -3.773e-08
8658.6, -3.728e-08
8660.7, -4.024e-08
8662.7, -4.031e-08
8664.7, -4.169e-08
8666.7, -3.92e-08
8668.7, -3.928e-08
8670.7, -4.03e-08
8672.7, -3.618e-08
8674.7, -3.863e-08
8676.7, -3.823e-08
8678.7, -3.895e-08
8680.7, -3.952e-08
8682.7, -3.781e-08
8684.7, -3.921e-08
8686.7, -3.788e-08
8688.7, -4.012e-08
8690.7, -4.117e-08
8692.7, -3.915e-08
8694.7, -3.657e-08
8696.7, -3.394e-08
8698.7, -3.875e-08
8700.7, -4.067e-08
8702.7, -4.067e-08
8704.7, -4.15e-08
8706.7, -3.893e-08
8708.7, -3.848e-08
8710.7, -3.738e-08
8712.7, -3.379e-08
8714.7, -3.136e-08
8716.7, -3.634e-08
8718.7, -3.51e-08
8720.7, -3.956e-08
8722.7, -3.877e-08
8724.7, -3.788e-08
8726.7, -3.702e-08
8728.7, -3.453e-08
8730.7, -3.236e-08
8732.7, -3.477e-08
8734.7, -3.782e-08
8736.7, -3.615e-08
8738.7, -3.867e-08
8740.7, -3.89e-08
8742.7, -3.91e-08
8744.7, -3.569e-08
8746.7, -3.51e-08
8748.7, -3.949e-08
8750.7, -3.631e-08
8752.7, -3.658e-08
8754.7, -3.664e-08
8756.7, -4.089e-08
8758.7, -3.735e-08
8760.8, -3.806e-08
8762.8, -4.055e-08
8764.8, -4.332e-08
8766.8, -4.081e-08
8768.8, -4.327e-08
8770.8, -4.096e-08
8772.8, -4.088e-08
8774.8, -3.425e-08
8776.8, -3.691e-08
8778.8, -4.007e-08
8780.8, -3.774e-08
8782.8, -3.746e-08
8784.8, -3.79e-08
8786.8, -3.475e-08
8788.8, -4.028e-08
8790.8, -3.429e-08
8792.8, -3.947e-08
8794.8, -3.818e-08
8796.8, -3.599e-08
8798.8, -3.527e-08
8800.8, -3.427e-08
8802.8, -3.592e-08
8804.8, -3.384e-08
8806.8, -3.966e-08
8808.8, -4.124e-08
8810.8, -3.684e-08
8812.8, -3.721e-08
8814.8, -3.476e-08
8816.8, -3.804e-08
8818.8, -3.896e-08
8820.8, -3.61e-08
8822.8, -3.771e-08
8824.8, -3.517e-08
8826.8, -3.931e-08
8828.8, -4.236e-08
8830.8, -3.759e-08
8832.8, -3.925e-08
8834.8, -3.64e-08
8836.8, -3.868e-08
8838.8, -4.422e-08
8840.8, -4.282e-08
8842.8, -3.872e-08
8844.8, -4.043e-08
8846.8, -3.973e-08
8848.8, -3.759e-08
8850.8, -3.956e-08
8852.8, -3.938e-08
8854.8, -3.935e-08
8856.8, -4.137e-08
8858.8, -4.108e-08
8860.9, -3.922e-08
8862.9, -3.823e-08
8864.9, -3.882e-08
8866.9, -3.698e-08
8868.9, -3.743e-08
8870.9, -4.06e-08
8872.9, -3.796e-08
8874.9, -3.759e-08
8876.9, -3.856e-08
8878.9, -4.243e-08
8880.9, -3.849e-08
8882.9, -4.027e-08
8884.9, -3.976e-08
8886.9, -3.674e-08
8888.9, -3.886e-08
8890.9, -4.186e-08
8892.9, -3.676e-08
8894.9, -3.786e-08
8896.9, -3.63e-08
8898.9, -4.062e-08
8900.9, -3.923e-08
8902.9, -3.962e-08
8904.9, -3.799e-08
8906.9, -3.893e-08
8908.9, -4.026e-08
8910.9, -3.817e-08
8912.9, -4.029e-08
8914.9, -3.335e-08
8916.9, -3.399e-08
8918.9, -3.636e-08
8920.9, -3.745e-08
8922.9, -4.101e-08
8924.9, -3.835e-08
8926.9, -3.854e-08
8928.9, -3.39e-08
8930.9, -3.953e-08
8932.9, -3.662e-08
8934.9, -3.448e-08
8936.9, -4.038e-08
8938.9, -3.905e-08
8940.9, -3.994e-08
8942.9, -3.731e-08
8944.9, -4.08e-08
8946.9, -3.663e-08
8948.9, -3.993e-08
8950.9, -4.016e-08
8952.9, -4.779e-08
8954.9, -4.214e-08
8956.9, -4.183e-08
8958.9, -4.524e-08
8961.0, -3.956e-08
8963.0, -4.046e-08
8965.0, -3.65e-08
8967.0, -3.668e-08
8969.0, -4.164e-08
8971.0, -3.818e-08
8973.0, -3.885e-08
8975.0, -3.74e-08
8977.0, -3.69e-08
8979.0, -3.965e-08
8981.0, -3.7e-08
8983.0, -3.294e-08
8985.0, -3.614e-08
8987.0, -3.537e-08
8989.0, -3.641e-08
8991.0, -3.724e-08
8993.0, -3.48e-08
8995.0, -3.419e-08
8997.0, -3.215e-08
8999.0, -3.122e-08
9001.0, -3.461e-08
9003.0, -3.136e-08
9005.0, -3.214e-08
9007.0, -3.008e-08
9009.0, -3.251e-08
9011.0, -3.581e-08
9013.0, -3.777e-08
9015.0, -3.31e-08
9017.0, -3.508e-08
9019.0, -3.252e-08
9021.0, -3.393e-08
9023.0, -3.27e-08
9025.0, -3.262e-08
9027.0, -3.335e-08
9029.0, -3.32e-08
9031.0, -3.083e-08
9033.0, -3.386e-08
9035.0, -3.363e-08
9037.0, -3.065e-08
9039.0, -3.275e-08
9041.0, -3.387e-08
9043.0, -3.615e-08
9045.0, -3.602e-08
9047.0, -3.236e-08
9049.0, -3.862e-08
9051.0, -3.561e-08
9053.0, -3.26e-08
9055.0, -3.813e-08
9057.0, -3.921e-08
9059.0, -3.714e-08
9061.1, -3.869e-08
9063.1, -3.873e-08
9065.1, -3.83e-08
9067.1, -3.514e-08
9069.1, -3.745e-08
9071.1, -3.874e-08
9073.1, -3.854e-08
9075.1, -3.749e-08
9077.1, -3.76e-08
9079.1, -3.863e-08
9081.1, -3.826e-08
9083.1, -3.666e-08
9085.1, -3.916e-08
9087.1, -3.777e-08
9089.1, -3.661e-08
9091.1, -3.988e-08
9093.1, -3.825e-08
9095.1, -4.01e-08
9097.1, -4.116e-08
9099.1, -3.927e-08
9101.1, -4.038e-08
9103.1, -4.167e-08
9105.1, -3.751e-08
9107.1, -3.31e-08
9109.1, -3.754e-08
9111.1, -4.162e-08
9113.1, -3.664e-08
9115.1, -3.821e-08
9117.1, -3.658e-08
9119.1, -3.561e-08
9121.1, -3.431e-08
9123.1, -4.09e-08
9125.1, -3.78e-08
9127.1, -3.715e-08
9129.1, -3.662e-08
9131.1, -4.171e-08
9133.1, -3.885e-08
9135.1, -3.592e-08
9137.1, -3.564e-08
9139.1, -3.598e-08
9141.1, -3.7e-08
9143.1, -3.746e-08
9145.1, -3.541e-08
9147.1, -3.655e-08
9149.1, -3.376e-08
9151.1, -3.496e-08
9153.1, -3.24e-08
9155.1, -3.653e-08
9157.1, -3.114e-08
9159.1, -3.818e-08
9161.2, -3.419e-08
9163.2, -3.653e-08
9165.2, -3.518e-08
9167.2, -3.259e-08
9169.2, -3.411e-08
9171.2, -3.72e-08
9173.2, -3.585e-08
9175.2, -3.327e-08
9177.2, -3.331e-08
9179.2, -3.919e-08
9181.2, -3.513e-08
9183.2, -3.477e-08
9185.2, -3.609e-08
9187.2, -3.555e-08
9189.2, -3.625e-08
9191.2, -3.85e-08
9193.2, -3.681e-08
9195.2, -3.481e-08
9197.2, -3.47e-08
9199.2, -3.689e-08
9201.2, -3.635e-08
9203.2, -3.819e-08
9205.2, -3.669e-08
9207.2, -3.479e-08
9209.2, -3.758e-08
9211.2, -3.547e-08
9213.2, -3.739e-08
9215.2, -3.527e-08
9217.2, -3.191e-08
9219.2, -3.276e-08
9221.2, -3.352e-08
9223.2, -3.767e-08
9225.2, -3.648e-08
9227.2, -3.732e-08
9229.2, -4.118e-08
9231.2, -3.828e-08
9233.2, -3.774e-08
9235.2, -3.699e-08
9237.2, -4.066e-08
9239.2, -3.425e-08
9241.2, -3.846e-08
9243.2, -4.011e-08
9245.2, -3.366e-08
9247.2, -3.494e-08
9249.2, -3.562e-08
9251.2, -3.207e-08
9253.2, -3.631e-08
9255.2, -3.687e-08
9257.2, -3.61e-08
9259.2, -3.922e-08
9261.3, -3.539e-08
9263.3, -3.856e-08
9265.3, -3.33e-08
9267.3, -3.569e-08
9269.3, -3.717e-08
9271.3, -3.499e-08
9273.3, -3.697e-08
9275.3, -3.138e-08
9277.3, -3.487e-08
9279.3, -3.686e-08
9281.3, -3.39e-08
9283.3, -3.434e-08
9285.3, -3.399e-08
9287.3, -3.681e-08
9289.3, -3.736e-08
9291.3, -3.736e-08
9293.3, -3.729e-08
9295.3, -3.87e-08
9297.3, -3.792e-08
9299.3, -3.857e-08
9301.3, -3.842e-08
9303.3, -4.106e-08
9305.3, -3.859e-08
9307.3, -3.64e-08
9309.3, -3.942e-08
9311.3, -4.18e-08
9313.3, -3.912e-08
9315.3, -3.837e-08
9317.3, -3.81e-08
9319.3, -4.116e-08
9321.3, -4.085e-08
9323.3, -3.633e-08
9325.3, -4.017e-08
9327.3, -3.878e-08
9329.3, -3.652e-08
9331.3, -3.414e-08
9333.3, -3.574e-08
9335.3, -3.688e-08
9337.3, -3.974e-08
9339.3, -3.818e-08
9341.3, -3.315e-08
9343.3, -3.516e-08
9345.3, -3.947e-08
9347.3, -3.863e-08
9349.3, -3.925e-08
9351.3, -3.799e-08
9353.3, -4.047e-08
9355.3, -3.936e-08
9357.3, -4.276e-08
9359.3, -4.112e-08
9361.4, 9.267e-08
9363.4, 1.3135e-07
9365.4, 1.1266e-07
9367.4, 1.4301e-07
9369.4, 1.8312e-07
9371.4, 1.6492e-07
9373.4, 1.3847e-07
9375.4, 1.6812e-07
9377.4, 1.5182e-07
9379.4, 1.2664e-07
9381.4, 1.446e-07
9383.4, 1.2036e-07
9385.4, 1.474e-07
9387.4, 1.6006e-07
9389.4, 1.3854e-07
9391.4, 1.5353e-07
9393.4, 1.3903e-07
9395.4, 1.4668e-07
9397.4, 1.6104e-07
9399.4, 1.4414e-07
9401.4, 1.7585e-07
9403.4, 1.757e-07
9405.4, 1.4761e-07
9407.4, 1.4973e-07
9409.4, 1.1417e-07
9411.4, 1.3452e-07
9413.4, 1.3755e-07
9415.4, 1.6817e-07
9417.4, 1.4096e-07
9419.4, 1.8679e-07
9421.4, 1.4372e-07
9423.4, 1.4954e-07
9425.4, 1.3654e-07
9427.4, 1.344e-07
9429.4, 1.5771e-07
9431.4, 1.8039e-07
9433.4, 1.2929e-07
9435.4, 1.4622e-07
9437.4, 1.4832e-07
9439.4, 1.3138e-07
9441.4, 1.6403e-07
9443.4, 1.3933e-07
9445.4, 1.7637e-07
9447.4, 1.7395e-07
9449.4, 1.4792e-07
9451.4, 1.5088e-07
9453.4, 1.3605e-07
9455.4, 1.5703e-07
9457.4, 1.5661e-07
9459.4, 1.4655e-07
9461.5, 1.4278e-07
9463.5, 1.6075e-07
9465.5, 1.9117e-07
9467.5, 1.451e-07
9469.5, 1.4995e-07
9471.5, 1.5586e-07
9473.5, 1.286e-07
9475.5, 1.4383e-07
9477.5, 1.7095e-07
9479.5, 1.5638e-07
9481.5, 1.3678e-07
9483.5, 1.8237e-07
9485.5, 1.5955e-07
9487.5, 1.5237e-07
9489.5, 1.8038e-07
9491.5, 1.769e-07
9493.5, 1.3556e-07
9495.5, 1.2215e-07
9497.5, 1.3962e-07
9499.5, 1.4103e-07
9501.5, 1.5103e-07
9503.5, 1.6811e-07
9505.5, 1.5956e-07
9507.5, 1.4656e-07
9509.5, 1.5738e-07
9511.5, 1.4071e-07
9513.5, 1.4915e-07
9515.5, 1.6909e-07
9517.5, 1.5995e-07
9519.5, 1.6659e-07
9521.5, 1.5175e-07
9523.5, 1.2817e-07
9525.5, 1.6233e-07
9527.5, 1.6232e-07
9529.5, 1.3576e-07
9531.5, 1.368e-07
9533.5, 1.5429e-07
9535.5, 1.671e-07
9537.5, 1.5789e-07
9539.5, 1.5673e-07
9541.5, 1.6082e-07
9543.5, 1.4211e-07
9545.5, 1.5046e-07
9547.5, 1.6169e-07
9549.5, 1.6182e-07
9551.5, 1.7869e-07
9553.5, 1.841e-07
9555.5, 1.5061e-07
9557.5, 1.4367e-07
9559.5, 1.8772e-07
9561.6, 1.9225e-07
9563.6, 1.5491e-07
9565.6, 1.5982e-07
9567.6, 1.5798e-07
9569.6, 1.6957e-07
9571.6, 1.2731e-07
9573.6, 1.8547e-07
9575.6, 1.8709e-07
9577.6, 1.5952e-07
9579.6, 1.5601e-07
9581.6, 1.5164e-07
9583.6, 2.1577e-07
9585.6, 1.5685e-07
9587.6, 1.5825e-07
9589.6, 1.4893e-07
9591.6, 1.4363e-07
9593.6, 1.8543e-07
9595.6, 1.6868e-07
9597.6, 1.4569e-07
9599.6, 1.6908e-07
9601.6, 1.7462e-07
9603.6, 1.6111e-07
9605.6, 1.4123e-07
9607.6, 1.686e-07
9609.6, 1.7993e-07
9611.6, 1.3633e-07
9613.6, 1.9077e-07
9615.6, 1.4796e-07
9617.6, 1.4787e-07
9619.6, 1.8537e-07
9621.6, 1.6151e-07
9623.6, 1.7802e-07
9625.6, 1.5731e-07
9627.6, 1.9538e-07
9629.6, 1.6525e-07
9631.6, 1.5641e-07
9633.6, 1.938e-07
9635.6, 1.577e-07
9637.6, 1.6286e-07
9639.6, 1.5704e-07
9641.6, 1.4781e-07
9643.6, 1.6359e-07
9645.6, 1.8961e-07
9647.6, 2.1923e-07
9649.6, 1.5792e-07
9651.6, 1.8339e-07
9653.6, 1.5352e-07
9655.6, 1.7316e-07
9657.6, 1.6684e-07
9659.6, 1.6799e-07
9661.7, 1.8642e-07
9663.7, 1.7758e-07
9665.7, 1.5889e-07
9667.7, 1.5882e-07
9669.7, 1.7914e-07
9671.7, 1.8913e-07
9673.7, 1.6052e-07
9675.7, 1.787e-07
9677.7, 2.1237e-07
9679.7, 1.8503e-07
9681.7, 1.7418e-07
9683.7, 1.6159e-07
9685.7, 1.7975e-07
9687.7, 1.9623e-07
9689.7, 1.6645e-07
9691.7, 1.515e-07
9693.7, 1.7208e-07
9695.7, 1.4678e-07
9697.7, 1.6858e-07
9699.7, 1.4363e-07
9701.7, 1.8625e-07
9703.7, 1.7068e-07
9705.7, 1.7988e-07
9707.7, 1.6092e-07
9709.7, 1.8658e-07
9711.7, 1.5413e-07
9713.7, 1.4621e-07
9715.7, 2.183e-07
9717.7, 1.7943e-07
9719.7, 1.9015e-07
9721.7, 1.506e-07
9723.7, 1.3705e-07
9725.7, 1.5317e-07
9727.7, 2.3279e-07
9729.7, 1.8127e-07
9731.7, 1.608e-07
9733.7, 1.8195e-07
9735.7, 2.3505e-07
9737.7, 1.8122e-07
9739.7, 1.8992e-07
9741.7, 1.4467e-07
9743.7, 1.9962e-07
9745.7, 1.6047e-07
9747.7, 1.7502e-07
9749.7, 1.4565e-07
9751.7, 1.7722e-07
9753.7, 1.9548e-07
9755.7, 1.6225e-07
9757.7, 1.8593e-07
9759.7, 1.317e-07
9761.8, 1.8183e-07
9763.8, 1.5503e-07
9765.8, 1.4499e-07
9767.8, 1.6737e-07
9769.8, 1.9543e-07
9771.8, 1.8833e-07
9773.8, 1.6677e-07
9775.8, 1.4325e-07
9777.8, 1.7593e-07
9779.8, 1.6692e-07
9781.8, 1.8421e-07
9783.8, 1.6574e-07
9785.8, 1.3584e-07
9787.8, 1.9455e-07
9789.8, 1.4786e-07
9791.8, 1.8909e-07
9793.8, 1.6017e-07
9795.8, 1.4255e-07
9797.8, 1.686e-07
9799.8, 1.706e-07
9801.8, 1.555e-07
9803.8, 1.4415e-07
9805.8, 1.7652e-07
9807.8, 1.805e-07
9809.8, 1.6921e-07
9811.8, 1.5174e-07
9813.8, 1.9852e-07
9815.8, 1.6744e-07
9817.8, 1.673e-07
9819.8, 1.62e-07
9821.8, 1.4955e-07
9823.8, 1.6484e-07
9825.8, 1.49e-07
9827.8, 1.9105e-07
9829.8, 1.8902e-07
9831.8, 1.774e-07
9833.8, 1.6097e-07
9835.8, 1.5636e-07
9837.8, 1.5247e-07
9839.8, 1.8308e-07
9841.8, 1.6181e-07
9843.8, 1.5155e-07
9845.8, 1.7797e-07
9847.8, 1.9359e-07
9849.8, 1.5716e-07
9851.8, 1.63e-07
9853.8, 2.0133e-07
9855.8, 1.5435e-07
9857.8, 1.6766e-07
9859.8, 1.6637e-07
9861.9, 1.9549e-07
9863.9, 1.3932e-07
9865.9, 1.7185e-07
9867.9, 1.5929e-07
9869.9, 1.8796e-07
9871.9, 1.7437e-07
9873.9, 1.856e-07
9875.9, 1.68e-07
9877.9, 1.9393e-07
9879.9, 1.5922e-07
9881.9, 1.51e-07
9883.9, 1.7916e-07
9885.9, 1.6377e-07
9887.9, 1.584e-07
9889.9, 1.7772e-07
9891.9, 1.7548e-07
9893.9, 1.658e-07
9895.9, 1.4703e-07
9897.9, 1.8515e-07
9899.9, 1.7212e-07
9901.9, 1.3968e-07
9903.9, 1.8919e-07
9905.9, 1.617e-07
9907.9, 1.3179e-07
9909.9, 2.2541e-07
9911.9, 1.6523e-07
9913.9, 1.6628e-07
9915.9, 1.5683e-07
9917.9, 1.8433e-07
9919.9, 1.4741e-07
9921.9, 1.5561e-07
9923.9, 1.9806e-07
9925.9, 1.7647e-07
9927.9, 1.528e-07
9929.9, 1.6377e-07
9931.9, 1.5966e-07
9933.9, 1.8126e-07
9935.9, 1.6518e-07
9937.9, 1.6968e-07
9939.9, 1.5778e-07
9941.9, 1.6124e-07
9943.9, 1.8548e-07
9945.9, 1.7333e-07
9947.9, 2.1613e-07
9949.9, 1.5466e-07
9951.9, 1.5418e-07
9953.9, 1.6517e-07
9955.9, 1.6504e-07
9957.9, 1.7653e-07
9959.9, 2.0838e-07
9962.0, 1.5562e-07
9964.0, 1.9567e-07
9966.0, 1.6275e-07
9968.0, 1.6851e-07
9970.0, 1.8183e-07
9972.0, 1.6573e-07
9974.0, 1.5416e-07
9976.0, 1.7826e-07
9978.0, 1.7274e-07
9980.0, 1.645e-07
9982.0, 1.6879e-07
9984.0, 1.926e-07
9986.0, 1.6765e-07
9988.0, 1.5276e-07
9990.0, 1.8962e-07
9992.0, 1.6363e-07
9994.0, 1.8338e-07
9996.0, 1.9406e-07
9998.0, 1.7941e-07
10000.0, 1.8646e-07
10002.0, 1.7688e-07
10004.0, 2.0333e-07
10006.0, 1.6822e-07
10008.0, 1.4616e-07
10010.0, 1.3245e-07
10012.0, 1.8713e-07
10014.0, 1.8446e-07
10016.0, 1.8465e-07
10018.0, 1.8104e-07
10020.0, 1.8292e-07
10022.0, 1.9254e-07
10024.0, 1.7717e-07
10026.0, 1.722e-07
10028.0, 1.6791e-07
10030.0, 1.509e-07
10032.0, 1.5767e-07
10034.0, 1.6601e-07
10036.0, 1.8354e-07
10038.0, 1.9091e-07
10040.0, 1.7643e-07
10042.0, 1.6746e-07
10044.0, 1.498e-07
10046.0, 1.8874e-07
10048.0, 1.7538e-07
10050.0, 1.3476e-07
10052.0, 1.5811e-07
10054.0, 1.7315e-07
10056.0, 1.7611e-07
10058.0, 1.8191e-07
10060.0, 1.6758e-07
10062.0, 1.5688e-07
10064.0, 1.751e-07
10066.0, 1.6197e-07
10068.0, 1.5084e-07
10070.0, 1.474e-07
10072.0, 1.7057e-07
10074.0, 1.8144e-07
10076.0, 1.8573e-07
10078.0, 1.9512e-07
10080.0, 1.6412e-07
10082.0, 1.9253e-07
10084.0, 1.8216e-07
10086.0, 1.8854e-07
10088.0, 1.6477e-07
10090.0, 1.787e-07
10092.0, 1.5874e-07
10094.0, 1.5499e-07
10096.0, 1.794e-07
10098.0, 1.7556e-07
10100.0, 1.8615e-07
10102.0, 1.9468e-07
10104.0, 1.7048e-07
10106.0, 2.2176e-07
10108.0, 1.6646e-07
10110.0, 1.665e-07
10112.0, 1.8646e-07
10114.0, 1.3388e-07
10116.0, 1.5611e-07
10118.0, 1.8973e-07
10120.0, 1.4401e-07
10122.0, 1.846e-07
10124.0, 1.3492e-07
10126.0, 1.6249e-07
10128.0, 1.8084e-07
10130.0, 1.9679e-07
10132.0, 2.0945e-07
10134.0, 1.9212e-07
10136.0, 2.0654e-07
10138.0, 2.078e-07
10140.0, 1.5012e-07
10142.0, 1.8021e-07
10144.0, 1.3402e-07
10146.0, 1.6588e-07
10148.0, 2.3026e-07
10150.0, 1.7315e-07
10152.0, 1.4602e-07
10154.0, 1.8019e-07
10156.0, 1.5407e-07
10158.0, 1.9392e-07
10160.0, 1.7735e-07
10162.0, 1.3318e-07
10164.0, 1.6529e-07
10166.0, 1.3409e-07
10168.0, 1.6526e-07
10170.0, 1.511e-07
10172.0, 1.8601e-07
10174.0, 1.7203e-07
10176.0, 1.7698e-07
10178.0, 2.0529e-07
10180.0, 1.74e-07
10182.0, 1.6231e-07
10184.0, 1.8378e-07
10186.0, 1.7707e-07
10188.0, 1.9713e-07
10190.0, 1.9021e-07
10192.0, 1.6308e-07
10194.0, 1.4752e-07
10196.0, 2.0885e-07
10198.0, 1.976e-07
10200.0, 1.8953e-07
10202.0, 1.4996e-07
10204.0, 1.6644e-07
10206.0, 1.8352e-07
10208.0, 1.5348e-07
10210.0, 1.6977e-07
10212.0, 1.7074e-07
10214.0, 1.8355e-07
10216.0, 1.7796e-07
10218.0, 1.8947e-07
10220.0, 2.1227e-07
10222.0, 1.4425e-07
10224.0, 1.5898e-07
10226.0, 1.6353e-07
10228.0, 2.0598e-07
10230.0, 1.9794e-07
10232.0, 1.7228e-07
10234.0, 1.5506e-07
10236.0, 1.2833e-07
10238.0, 1.6691e-07
10240.0, 1.5723e-07
10242.0, 1.8132e-07
10244.0, 1.6203e-07
10246.0, 1.714e-07
10248.0, 1.2519e-07
10250.0, 2.0131e-07
10252.0, 1.8267e-07
10254.0, 2.0649e-07
10256.0, 1.7744e-07
10258.0, 1.5075e-07
10260.0, 1.7886e-07
10262.0, 1.7889e-07
10264.0, 1.6502e-07
10266.0, 1.6756e-07
10268.0, 1.6474e-07
10270.0, 1.5883e-07
10272.0, 1.5351e-07
10274.0, 1.6899e-07
10276.0, 1.5993e-07
10278.0, 2.1346e-07
10280.0, 1.8917e-07
10282.0, 1.3775e-07
10284.0, 1.7335e-07
10286.0, 1.7879e-07
10288.0, 1.7056e-07
10290.0, 1.7728e-07
10292.0, 1.3307e-07
10294.0, 2.2371e-07
10296.0, 1.8005e-07
10298.0, 2.1632e-07
10300.0, 1.7694e-07
10302.0, 1.7825e-07
10304.0, 1.8575e-07
10306.0, 1.4119e-07
10308.0, 1.9278e-07
10310.0, 1.6377e-07
10312.0, 1.8351e-07
10314.0, 1.4898e-07
10316.0, 1.6513e-07
10318.0, 1.9343e-07
10320.0, 1.8347e-07
10322.0, 1.6141e-07
10324.0, 1.8844e-07
10326.0, 1.5959e-07
10328.0, 1.7483e-07
10330.0, 1.809e-07
10332.0, 1.849e-07
10334.0, 1.7199e-07
10336.0, 2.0502e-07
10338.0, 1.744e-07
10340.0, 1.7932e-07
10342.0, 1.6339e-07
10344.0, 2.0414e-07
10346.0, 1.4495e-07
10348.0, 2.2479e-07
10350.0, 1.9536e-07
10352.0, 1.6485e-07
10354.0, 1.7536e-07
10356.0, 1.8394e-07
10358.0, 2.0274e-07
10360.0, 1.6994e-07
10362.0, 5.67e-08
10364.0, -4.288e-08
10366.0, -4.174e-08
10368.0, -4.308e-08
10370.0, -3.914e-08
10372.0, -4.211e-08
10374.0, -4.323e-08
10376.0, -4.225e-08
10378.0, -4.343e-08
10380.0, -4.27e-08
10382.0, -4.427e-08
10384.0, -4.068e-08
10386.0, -3.944e-08
10388.0, -3.959e-08
10390.0, -4.065e-08
10392.0, -3.967e-08
10394.0, -4.039e-08
10396.0, -4.388e-08
10398.0, -4.443e-08
10400.0, -4.376e-08
10402.0, -4.636e-08
10404.0, -4.74e-08
10406.0, -4.026e-08
10408.0, -4.206e-08
10410.0, -4.471e-08
10412.0, -4.413e-08
10414.0, -4.348e-08
10416.0, -4.404e-08
10418.0, -4.204e-08
10420.0, -4.28e-08
10422.0, -4.415e-08
10424.0, -4.195e-08
10426.0, -4.556e-08
10428.0, -4.496e-08
10430.0, -4.392e-08
10432.0, -4.632e-08
10434.0, -4.499e-08
10436.0, -4.3e-08
10438.0, -4.374e-08
10440.0, -4.662e-08
10442.0, -4.495e-08
10444.0, -4.296e-08
10446.0, -4.605e-08
10448.0, -4.319e-08
10450.0, -4.511e-08
10452.0, -4.512e-08
10454.0, -4.159e-08
10456.0, -4.664e-08
10458.0, -4.323e-08
10460.0, -4.505e-08
10462.0, -4.423e-08
10464.0, -4.452e-08
10466.0, -4.075e-08
10468.0, -4.18e-08
10470.0, -4.113e-08
10472.0, -4.437e-08
10474.0, -4.338e-08
10476.0, -4.213e-08
10478.0, -4.454e-08
10480.0, -4.251e-08
10482.0, -4.522e-08
10484.0, -4.616e-08
10486.0, -4.17e-08
10488.0, -4.297e-08
10490.0, -4.404e-08
10492.0, -4.693e-08
10494.0, -4.315e-08
10496.0, -4.286e-08
10498.0, -4.385e-08
10500.0, -4.873e-08
10502.0, -4.273e-08
10504.0, -4.623e-08
10506.0, -4.143e-08
10508.0, -4.376e-08
10510.0, -4.466e-08
10513.0, -4.507e-08
10515.0, -4.731e-08
10517.0, -4.717e-08
10519.0, -4.393e-08
10521.0, -4.756e-08
10523.0, -4.478e-08
10525.0, -4.378e-08
10527.0, -4.189e-08
10529.0, -4.53e-08
10531.0, -4.689e-08
10533.0, -4.88e-08
10535.0, -4.289e-08
10537.0, -4.296e-08
10539.0, -4.397e-08
10541.0, -4.446e-08
10543.0, -4.093e-08
10545.0, -4.101e-08
10547.0, -4.577e-08
10549.0, -4.369e-08
10551.0, -4.404e-08
10553.0, -4.446e-08
10555.0, -4.828e-08
10557.0, -4.546e-08
10559.0, -4.372e-08
10561.0, -4.329e-08
10563.0, -4.292e-08
10565.0, -4.322e-08
10567.0, -4.106e-08
10569.0, -3.892e-08
10571.0, -4.097e-08
10573.0, -4.18e-08
10575.0, -4.358e-08
10577.0, -4.141e-08
10579.0, -4.344e-08
10581.0, -4.133e-08
10583.0, -4.206e-08
10585.0, -4.502e-08
10587.0, -4.598e-08
10589.0, -4.357e-08
10591.0, -4.451e-08
10593.0, -4.434e-08
10595.0, -4.479e-08
10597.0, -4.38e-08
10599.0, -4.323e-08
10601.0, -3.833e-08
10603.0, -3.917e-08
10605.0, -3.731e-08
10607.0, -3.717e-08
10609.0, -4.383e-08
10611.0, -4.267e-08
10613.0, -4.482e-08
10615.0, -4.205e-08
10617.0, -4.108e-08
10619.0, -4.601e-08
10621.0, -4.405e-08
10623.0, -4.478e-08
10625.0, -4.37e-08
10627.0, -4.272e-08
10629.0, -3.942e-08
10631.0, -4.385e-08
10633.0, -4.599e-08
10635.0, -4.474e-08
10637.0, -4.415e-08
10639.0, -4.448e-08
10641.0, -4.2e-08
10643.0, -4.26e-08
10645.0, -4.026e-08
10647.0, -4.137e-08
10649.0, -4.146e-08
10651.0, -4.079e-08
10653.0, -4.038e-08
10655.0, -3.685e-08
10657.0, -3.984e-08
10659.0, -4.283e-08
10661.0, -4.182e-08
10663.0, -3.806e-08
10665.0, -3.742e-08
10667.0, -4.09e-08
10669.0, -4.126e-08
10671.0, -4.036e-08
10673.0, -4.281e-08
10675.0, -4.248e-08
10677.0, -4.547e-08
10679.0, -3.948e-08
10681.0, -4.51e-08
10683.0, -4.306e-08
10685.0, -4.286e-08
10687.0, -4.285e-08
10689.0, -4.334e-08
10691.0, -4.227e-08
10693.0, -4.41e-08
10695.0, -4.195e-08
10697.0, -4.157e-08
10699.0, -4.427e-08
10701.0, -4.233e-08
10703.0, -4.365e-08
10705.0, -4.417e-08
10707.0, -4.251e-08
10709.0, -4.556e-08
10711.0, -4.397e-08
10713.0, -4.357e-08
10715.0, -4.256e-08
10717.0, -4.521e-08
10719.0, -4.516e-08
10721.0, -4.149e-08
10723.0, -4.733e-08
10725.0, -4.261e-08
10727.0, -4.374e-08
10729.0, -4.322e-08
10731.0, -4.168e-08
10733.0, -4.534e-08
10735.0, -4.571e-08
10737.0, -4.282e-08
10739.0, -4.562e-08
10741.0, -4.371e-08
10743.0, -4.302e-08
10745.0, -4.366e-08
10747.0, -4.14e-08
10749.0, -4.35e-08
10751.0, -4.208e-08
10753.0, -4.775e-08
10755.0, -4.599e-08
10757.0, -4.817e-08
10759.0, -4.78e-08
10761.0, -4.473e-08
10763.0, -4.496e-08
10765.0, -4.729e-08
10767.0, -4.505e-08
10769.0, -4.707e-08
10771.0, -4.551e-08
10773.0, -4.59e-08
10775.0, -4.542e-08
10777.0, -4.776e-08
10779.0, -4.448e-08
10781.0, -4.434e-08
10783.0, -4.05e-08
10785.0, -4.759e-08
10787.0, -4.411e-08
10789.0, -4.183e-08
10791.0, -4.387e-08
10793.0, -4.388e-08
10795.0, -4.518e-08
10797.0, -4.21e-08
10799.0, -4.427e-08
10801.0, -4.713e-08
10803.0, -4.442e-08
10805.0, -4.284e-08
10807.0, -4.663e-08
10809.0, -4.345e-08
10811.0, -4.59e-08
10813.0, -4.458e-08
10815.0, -4.57e-08
10817.0, -4.63e-08
10819.0, -4.2e-08
10821.0, -4.086e-08
10823.0, -4.141e-08
10825.0, -4.436e-08
10827.0, -4.333e-08
10829.0, -4.303e-08
10831.0, -4.266e-08
10833.0, -4.672e-08
10835.0, -4.558e-08
10837.0, -4.298e-08
10839.0, -4.327e-08
10841.0, -4.23e-08
10843.0, -4.115e-08
10845.0, -4.352e-08
10847.0, -4.355e-08
10849.0, -4.015e-08
10851.0, -3.947e-08
10853.0, -4.169e-08
10855.0, -4.484e-08
10857.0, -4.179e-08
10859.0, -4.728e-08
10861.0, -4.127e-08
10863.0, -4.406e-08
10865.0, -4.308e-08
10867.0, -4.416e-08
10869.0, -4.004e-08
10871.0, -4.234e-08
10873.0, -4.455e-08
10875.0, -4.162e-08
10877.0, -4.292e-08
10879.0, -4.297e-08
10881.0, -4.228e-08
10883.0, -4.307e-08
10885.0, -4.251e-08
10887.0, -4.456e-08
10889.0, -4.156e-08
10891.0, -4.278e-08
10893.0, -4.227e-08
10895.0, -4.286e-08
10897.0, -4.153e-08
10899.0, -3.941e-08
10901.0, -3.966e-08
10903.0, -4.223e-08
10905.0, -4.164e-08
10907.0, -4.069e-08
10909.0, -3.899e-08
10911.0, -3.85e-08
10913.0, -4.086e-08
10915.0, -4.247e-08
10917.0, -4.099e-08
10919.0, -4.025e-08
10921.0, -4.096e-08
10923.0, -3.957e-08
10925.0, -4.232e-08
10927.0, -3.67e-08
10929.0, -4.046e-08
10931.0, -4.256e-08
10933.0, -3.983e-08
10935.0, -4.244e-08
10937.0, -4.149e-08
10939.0, -3.784e-08
10941.0, -3.739e-08
10943.0, -4.227e-08
10945.0, -3.983e-08
10947.0, -4.377e-08
10949.0, -4.29e-08
10951.0, -3.862e-08
10953.0, -4.045e-08
10955.0, -3.777e-08
10957.0, -4.032e-08
10959.0, -3.856e-08
10961.0, -3.896e-08
10963.0, -3.862e-08
10965.0, -3.837e-08
10967.0, -3.679e-08
10969.0, -3.827e-08
10971.0, -3.848e-08
10973.0, -3.856e-08
10975.0, -3.72e-08
10977.0, -3.635e-08
10979.0, -3.737e-08
10981.0, -3.801e-08
10983.0, -3.742e-08
10985.0, -3.954e-08
10987.0, -3.905e-08
10989.0, -3.837e-08
10991.0, -3.747e-08
10993.0, -3.794e-08
10995.0, -3.572e-08
10997.0, -3.589e-08
10999.0, -4.118e-08
11001.0, -3.937e-08
11003.0, -3.934e-08
11005.0, -3.853e-08
11007.0, -4.179e-08
11009.0, -4.017e-08
