Time sep (ms?), Current (A)
0.0, -3.597e-08
2.002, -3.489e-08
4.004, -3.351e-08
6.006, -3.885e-08
8.008, -3.753e-08
10.01, -3.952e-08
12.012, -3.678e-08
14.014, -3.9e-08
16.016, -3.543e-08
18.018, -3.885e-08
20.02, -3.694e-08
22.022, -3.41e-08
24.024, -3.451e-08
26.026, -3.381e-08
28.028, -3.264e-08
30.03, -3.345e-08
32.032, -3.904e-08
34.034, -3.161e-08
36.036, -3.708e-08
38.038, -3.636e-08
40.04, -3.785e-08
42.042, -3.563e-08
44.044, -3.594e-08
46.046, -3.895e-08
48.048, -3.951e-08
50.05, -3.683e-08
52.052, -3.425e-08
54.054, -3.456e-08
56.056, -3.514e-08
58.058, -3.278e-08
60.06, -3.896e-08
62.062, -3.696e-08
64.064, -3.822e-08
66.066, -3.688e-08
68.068, -3.758e-08
70.07, -3.664e-08
72.072, -3.83e-08
74.074, -3.721e-08
76.076, -3.516e-08
78.078, -3.87e-08
80.08, -3.248e-08
82.082, -3.369e-08
84.084, -3.437e-08
86.086, -3.727e-08
88.088, -3.76e-08
90.09, -3.538e-08
92.092, -3.545e-08
94.094, -3.799e-08
96.096, -3.62e-08
98.098, -3.489e-08
100.1, -3.467e-08
102.1, -3.822e-08
104.1, -3.74e-08
106.11, -3.682e-08
108.11, -3.456e-08
110.11, -3.81e-08
112.11, -3.87e-08
114.11, -3.751e-08
116.12, -3.595e-08
118.12, -3.537e-08
120.12, -3.798e-08
122.12, -3.425e-08
124.12, -3.409e-08
126.13, -3.732e-08
128.13, -3.939e-08
130.13, -3.798e-08
132.13, -4.018e-08
134.13, -3.888e-08
136.14, -3.956e-08
138.14, -3.87e-08
140.14, -3.971e-08
142.14, -3.642e-08
144.14, -3.436e-08
146.15, -3.414e-08
148.15, -3.693e-08
150.15, -4.102e-08
152.15, -3.713e-08
154.15, -3.522e-08
156.16, -3.552e-08
158.16, -3.515e-08
160.16, -3.722e-08
162.16, -3.574e-08
164.16, -3.864e-08
166.17, -3.86e-08
168.17, -4.073e-08
170.17, -3.72e-08
172.17, -3.639e-08
174.17, -3.508e-08
176.18, -3.266e-08
178.18, -3.633e-08
180.18, -3.014e-08
182.18, -3.515e-08
184.18, -3.555e-08
186.19, -3.566e-08
188.19, -3.453e-08
190.19, -3.743e-08
192.19, -3.377e-08
194.19, -3.371e-08
196.2, -3.711e-08
198.2, -3.703e-08
200.2, -3.832e-08
202.2, -3.617e-08
204.2, -3.755e-08
206.21, -3.699e-08
208.21, -3.87e-08
210.21, -3.691e-08
212.21, -3.624e-08
214.21, -3.617e-08
216.22, -3.353e-08
218.22, -3.838e-08
220.22, -3.653e-08
222.22, -3.624e-08
224.22, -3.315e-08
226.23, -3.062e-08
228.23, -3.344e-08
230.23, -3.373e-08
232.23, -3.537e-08
234.23, -3.466e-08
236.24, -3.455e-08
238.24, -3.562e-08
240.24, -3.379e-08
242.24, -3.581e-08
244.24, -3.385e-08
246.25, -3.471e-08
248.25, -3.55e-08
250.25, -3.457e-08
252.25, -3.424e-08
254.25, -3.508e-08
256.26, -3.824e-08
258.26, -3.283e-08
260.26, -3.782e-08
262.26, -3.367e-08
264.26, -3.717e-08
266.27, -3.435e-08
268.27, -3.623e-08
270.27, -4.027e-08
272.27, -4.106e-08
274.27, -3.813e-08
276.28, -3.855e-08
278.28, -3.573e-08
280.28, -3.809e-08
282.28, -3.686e-08
284.28, -3.32e-08
286.29, -3.78e-08
288.29, -4.251e-08
290.29, -3.478e-08
292.29, -3.586e-08
294.29, -3.574e-08
296.3, -3.792e-08
298.3, -3.858e-08
300.3, -3.727e-08
302.3, -3.914e-08
304.3, -3.528e-08
306.31, -3.639e-08
308.31, -3.758e-08
310.31, -3.976e-08
312.31, -3.788e-08
314.31, -3.881e-08
316.32, -4.114e-08
318.32, -4.076e-08
320.32, -3.871e-08
322.32, -4.112e-08
324.32, -4.027e-08
326.33, -3.792e-08
328.33, -3.859e-08
330.33, -3.986e-08
332.33, -4.191e-08
334.33, -4.144e-08
336.34, -3.688e-08
338.34, -4.18e-08
340.34, -4.223e-08
342.34, -3.681e-08
344.34, -3.975e-08
346.35, -4.004e-08
348.35, -3.966e-08
350.35, -3.998e-08
352.35, -4.019e-08
354.35, -4.049e-08
356.36, -3.79e-08
358.36, -3.961e-08
360.36, -3.985e-08
362.36, -3.939e-08
364.36, -3.993e-08
366.37, -4.022e-08
368.37, -3.744e-08
370.37, -3.803e-08
372.37, -3.628e-08
374.37, -3.676e-08
376.38, -3.28e-08
378.38, -3.5e-08
380.38, -3.552e-08
382.38, -3.632e-08
384.38, -3.588e-08
386.39, -3.493e-08
388.39, -3.615e-08
390.39, -3.529e-08
392.39, -3.428e-08
394.39, -3.59e-08
396.4, -3.275e-08
398.4, -3.392e-08
400.4, -3.313e-08
402.4, -3.676e-08
404.4, -3.335e-08
406.41, -3.449e-08
408.41, -3.796e-08
410.41, -3.733e-08
412.41, -3.556e-08
414.41, -3.631e-08
416.42, -3.416e-08
418.42, -3.365e-08
420.42, -3.219e-08
422.42, -3.49e-08
424.42, -3.543e-08
426.43, -3.613e-08
428.43, -3.514e-08
430.43, -3.574e-08
432.43, -3.676e-08
434.43, -3.299e-08
436.44, -3.355e-08
438.44, -3.617e-08
440.44, -3.809e-08
442.44, -3.541e-08
444.44, -3.361e-08
446.45, -3.46e-08
448.45, -3.839e-08
450.45, -3.774e-08
452.45, -3.8e-08
454.45, -3.647e-08
456.46, -3.53e-08
458.46, -3.608e-08
460.46, -3.801e-08
462.46, -3.701e-08
464.46, -3.62e-08
466.47, -3.709e-08
468.47, -3.805e-08
470.47, -3.728e-08
472.47, -3.982e-08
474.47, -3.74e-08
476.48, -3.857e-08
478.48, -4.041e-08
480.48, -4.294e-08
482.48, -3.92e-08
484.48, -3.929e-08
486.49, -3.672e-08
488.49, -3.803e-08
490.49, -3.313e-08
492.49, -3.678e-08
494.49, -3.6e-08
496.5, -3.584e-08
498.5, -3.65e-08
500.5, -3.661e-08
502.5, -3.532e-08
504.5, -3.478e-08
506.51, -3.187e-08
508.51, -3.949e-08
510.51, -3.626e-08
512.51, -3.656e-08
514.51, -3.371e-08
516.52, -3.638e-08
518.52, -4.022e-08
520.52, -3.783e-08
522.52, -4.096e-08
524.52, -3.839e-08
526.53, -4.021e-08
528.53, -3.806e-08
530.53, -3.867e-08
532.53, -3.681e-08
534.53, -3.791e-08
536.54, -4.048e-08
538.54, -3.612e-08
540.54, -3.982e-08
542.54, -3.67e-08
544.54, -3.893e-08
546.55, -3.764e-08
548.55, -3.501e-08
550.55, -4.007e-08
552.55, -3.705e-08
554.55, -3.58e-08
556.56, -3.514e-08
558.56, -3.718e-08
560.56, -4.23e-08
562.56, -3.911e-08
564.56, -3.74e-08
566.57, -3.883e-08
568.57, -3.443e-08
570.57, -3.839e-08
572.57, -3.734e-08
574.57, -3.753e-08
576.58, -3.689e-08
578.58, -3.73e-08
580.58, -3.712e-08
582.58, -3.578e-08
584.58, -3.616e-08
586.59, -3.644e-08
588.59, -3.811e-08
590.59, -3.465e-08
592.59, -3.728e-08
594.59, -4.084e-08
596.6, -4.193e-08
598.6, -3.918e-08
600.6, -4.182e-08
602.6, -3.897e-08
604.6, -4.081e-08
606.61, -3.711e-08
608.61, -3.916e-08
610.61, -4.055e-08
612.61, -4.011e-08
614.61, -3.961e-08
616.62, -3.702e-08
618.62, -3.906e-08
620.62, -3.673e-08
622.62, -3.633e-08
624.62, -3.155e-08
626.63, -3.372e-08
628.63, -3.784e-08
630.63, -3.496e-08
632.63, -3.548e-08
634.63, -3.177e-08
636.64, -3.36e-08
638.64, -3.784e-08
640.64, -3.96e-08
642.64, -3.753e-08
644.64, -3.861e-08
646.65, -3.89e-08
648.65, -3.751e-08
650.65, -3.888e-08
652.65, -3.87e-08
654.65, -3.813e-08
656.66, -3.983e-08
658.66, -4.127e-08
660.66, -4.209e-08
662.66, -4.53e-08
664.66, -4.141e-08
666.67, -3.892e-08
668.67, -4.168e-08
670.67, -4.046e-08
672.67, -3.681e-08
674.67, -3.716e-08
676.68, -4.044e-08
678.68, -4.107e-08
680.68, -4.142e-08
682.68, -4.066e-08
684.68, -3.983e-08
686.69, -4.142e-08
688.69, -3.971e-08
690.69, -4.041e-08
692.69, -4.074e-08
694.69, -3.62e-08
696.7, -3.856e-08
698.7, -3.8e-08
700.7, -4.073e-08
702.7, -3.75e-08
704.7, -4.054e-08
706.71, -3.915e-08
708.71, -4.038e-08
710.71, -4.029e-08
712.71, -3.807e-08
714.71, -3.868e-08
716.72, -3.964e-08
718.72, -4.026e-08
720.72, -3.832e-08
722.72, -3.888e-08
724.72, -3.833e-08
726.73, -3.894e-08
728.73, -3.51e-08
730.73, -3.737e-08
732.73, -3.749e-08
734.73, -3.487e-08
736.74, -3.633e-08
738.74, -3.723e-08
740.74, -3.91e-08
742.74, -3.957e-08
744.74, -4.139e-08
746.75, -3.686e-08
748.75, -3.826e-08
750.75, -3.641e-08
752.75, -3.307e-08
754.75, -3.556e-08
756.76, -3.435e-08
758.76, -3.686e-08
760.76, -3.498e-08
762.76, -3.435e-08
764.76, -3.508e-08
766.77, -3.344e-08
768.77, -3.247e-08
770.77, -3.318e-08
772.77, -3.469e-08
774.77, -3.717e-08
776.78, -3.531e-08
778.78, -3.303e-08
780.78, -3.274e-08
782.78, -3.651e-08
784.78, -3.341e-08
786.79, -3.963e-08
788.79, -3.815e-08
790.79, -3.853e-08
792.79, -3.702e-08
794.79, -3.82e-08
796.8, -3.706e-08
798.8, -3.702e-08
800.8, -3.976e-08
802.8, -3.561e-08
804.8, -3.499e-08
806.81, -3.58e-08
808.81, -3.442e-08
810.81, -3.877e-08
812.81, -3.674e-08
814.81, -3.506e-08
816.82, -3.815e-08
818.82, -3.938e-08
820.82, -3.975e-08
822.82, -3.661e-08
824.82, -3.618e-08
826.83, -3.564e-08
828.83, -3.375e-08
830.83, -3.361e-08
832.83, -3.669e-08
834.83, -3.66e-08
836.84, -3.434e-08
838.84, -3.591e-08
840.84, -3.949e-08
842.84, -3.662e-08
844.84, -3.734e-08
846.85, -3.555e-08
848.85, -3.704e-08
850.85, -3.588e-08
852.85, -3.753e-08
854.85, -3.52e-08
856.86, -3.741e-08
858.86, -3.74e-08
860.86, -3.236e-08
862.86, -3.399e-08
864.86, -3.64e-08
866.87, -3.229e-08
868.87, -3.253e-08
870.87, -3.623e-08
872.87, -3.631e-08
874.87, -3.606e-08
876.88, -3.327e-08
878.88, -3.506e-08
880.88, -3.499e-08
882.88, -3.52e-08
884.88, -3.543e-08
886.89, -3.494e-08
888.89, -3.779e-08
890.89, -3.896e-08
892.89, -3.849e-08
894.89, -3.919e-08
896.9, -3.612e-08
898.9, -3.829e-08
900.9, -3.533e-08
902.9, -4.018e-08
904.9, -4.139e-08
906.91, -4.049e-08
908.91, -3.675e-08
910.91, -3.925e-08
912.91, -3.578e-08
914.91, -3.702e-08
916.92, -3.691e-08
918.92, -3.707e-08
920.92, -3.969e-08
922.92, -3.704e-08
924.92, -3.909e-08
926.93, -4.234e-08
928.93, -4.044e-08
930.93, -3.877e-08
932.93, -3.98e-08
934.93, -3.575e-08
936.94, -3.827e-08
938.94, -3.733e-08
940.94, -3.979e-08
942.94, -3.782e-08
944.94, -3.613e-08
946.95, -3.602e-08
948.95, -3.553e-08
950.95, -3.698e-08
952.95, -3.877e-08
954.95, -3.689e-08
956.96, -3.747e-08
958.96, -3.925e-08
960.96, -3.776e-08
962.96, -3.537e-08
964.96, -3.672e-08
966.97, -3.564e-08
968.97, -3.701e-08
970.97, -3.489e-08
972.97, -3.862e-08
974.97, -3.734e-08
976.98, -3.56e-08
978.98, -3.451e-08
980.98, -3.383e-08
982.98, -3.559e-08
984.98, -3.648e-08
986.99, -3.716e-08
988.99, -3.825e-08
990.99, -3.91e-08
992.99, -3.701e-08
994.99, -3.68e-08
997.0, -3.785e-08
999.0, -3.695e-08
1001.0, -3.617e-08
1003.0, -4.106e-08
1005.0, -3.602e-08
1007.0, -3.906e-08
1009.0, -3.678e-08
1011.0, -3.452e-08
1013.0, -3.656e-08
1015.0, -3.787e-08
1017.0, -3.762e-08
1019.0, -3.288e-08
1021.0, -3.14e-08
1023.0, -3.559e-08
1025.0, -3.576e-08
1027.0, -3.083e-08
1029.0, -3.513e-08
1031.0, -3.404e-08
1033.0, -3.442e-08
1035.0, -3.575e-08
1037.0, -3.458e-08
1039.0, -4.074e-08
1041.0, -3.42e-08
1043.0, -3.976e-08
1045.0, -4.005e-08
1047.0, 1.4622e-07
1049.0, 8.938e-07
1051.0, 8.57e-07
1053.1, 8.289e-07
1055.1, 8.2724e-07
1057.1, 8.5952e-07
1059.1, 8.4354e-07
1061.1, 8.6917e-07
1063.1, 8.0735e-07
1065.1, 8.3952e-07
1067.1, 8.6527e-07
1069.1, 8.7389e-07
1071.1, 8.1455e-07
1073.1, 8.5692e-07
1075.1, 8.9006e-07
1077.1, 9.3211e-07
1079.1, 8.5011e-07
1081.1, 8.3954e-07
1083.1, 8.7545e-07
1085.1, 9.1496e-07
1087.1, 9.105e-07
1089.1, 8.6267e-07
1091.1, 8.5926e-07
1093.1, 9.1672e-07
1095.1, 9.3661e-07
1097.1, 8.7566e-07
1099.1, 8.8819e-07
1101.1, 8.5344e-07
1103.1, 8.7325e-07
1105.1, 8.7781e-07
1107.1, 8.635e-07
1109.1, 8.9064e-07
1111.1, 9.1225e-07
1113.1, 8.5447e-07
1115.1, 9.4676e-07
1117.1, 8.6199e-07
1119.1, 9.0784e-07
1121.1, 9.2843e-07
1123.1, 9.2315e-07
1125.1, 8.6455e-07
1127.1, 8.1829e-07
1129.1, 8.8094e-07
1131.1, 9.1334e-07
1133.1, 9.3601e-07
1135.1, 9.4324e-07
1137.1, 9.1185e-07
1139.1, 9.427e-07
1141.1, 9.1923e-07
1143.1, 8.8992e-07
1145.1, 9.1116e-07
1147.1, 8.9067e-07
1149.1, 9.0263e-07
1151.1, 8.8655e-07
1153.2, 9.0581e-07
1155.2, 9.1016e-07
1157.2, 9.0588e-07
1159.2, 8.6407e-07
1161.2, 8.9057e-07
1163.2, 9.1839e-07
1165.2, 8.1244e-07
1167.2, 8.9859e-07
1169.2, 8.9426e-07
1171.2, 8.7638e-07
1173.2, 8.5407e-07
1175.2, 8.9367e-07
1177.2, 9.0303e-07
1179.2, 9.4567e-07
1181.2, 9.4152e-07
1183.2, 8.883e-07
1185.2, 9.1855e-07
1187.2, 8.72e-07
1189.2, 8.7459e-07
1191.2, 9.1496e-07
1193.2, 9.1332e-07
1195.2, 1.0026e-06
1197.2, 9.0117e-07
1199.2, 9.1554e-07
1201.2, 9.5985e-07
1203.2, 9.8429e-07
1205.2, 9.3636e-07
1207.2, 9.6291e-07
1209.2, 9.2317e-07
1211.2, 8.9771e-07
1213.2, 8.9728e-07
1215.2, 9.3848e-07
1217.2, 9.7407e-07
1219.2, 9.8115e-07
1221.2, 8.9805e-07
1223.2, 8.8012e-07
1225.2, 9.5025e-07
1227.2, 9.3879e-07
1229.2, 8.7913e-07
1231.2, 8.8862e-07
1233.2, 9.249e-07
1235.2, 8.9837e-07
1237.2, 8.9478e-07
1239.2, 9.5296e-07
1241.2, 9.5926e-07
1243.2, 9.2999e-07
1245.2, 9.4948e-07
1247.2, 9.9558e-07
1249.2, 9.8606e-07
1251.2, 9.4145e-07
1253.3, 9.0044e-07
1255.3, 9.5653e-07
1257.3, 9.4099e-07
1259.3, 9.3499e-07
1261.3, 9.363e-07
1263.3, 9.0413e-07
1265.3, 9.3248e-07
1267.3, 9.1189e-07
1269.3, 9.5811e-07
1271.3, 9.522e-07
1273.3, 9.1422e-07
1275.3, 9.5146e-07
1277.3, 9.8348e-07
1279.3, 9.3781e-07
1281.3, 9.4217e-07
1283.3, 8.9551e-07
1285.3, 8.6566e-07
1287.3, 9.5724e-07
1289.3, 9.6621e-07
1291.3, 9.7938e-07
1293.3, 1.0251e-06
1295.3, 9.9599e-07
1297.3, 9.2975e-07
1299.3, 9.4576e-07
1301.3, 9.3786e-07
1303.3, 9.9026e-07
1305.3, 9.2139e-07
1307.3, 1.0028e-06
1309.3, 9.6941e-07
1311.3, 9.6518e-07
1313.3, 9.3661e-07
1315.3, 9.1452e-07
1317.3, 9.0158e-07
1319.3, 8.9681e-07
1321.3, 8.8094e-07
1323.3, 9.0006e-07
1325.3, 9.7002e-07
1327.3, 9.9912e-07
1329.3, 9.9524e-07
1331.3, 9.6959e-07
1333.3, 9.6242e-07
1335.3, 9.4201e-07
1337.3, 9.426e-07
1339.3, 9.4613e-07
1341.3, 8.9559e-07
1343.3, 9.1862e-07
1345.3, 9.4636e-07
1347.3, 8.8585e-07
1349.3, 9.4407e-07
1351.3, 9.1399e-07
1353.4, 9.5264e-07
1355.4, 9.3908e-07
1357.4, 9.7222e-07
1359.4, 1.0055e-06
1361.4, 9.1674e-07
1363.4, 8.9935e-07
1365.4, 9.763e-07
1367.4, 9.1853e-07
1369.4, 9.7961e-07
1371.4, 9.7478e-07
1373.4, 9.3212e-07
1375.4, 9.3468e-07
1377.4, 9.6283e-07
1379.4, 9.557e-07
1381.4, 1.0454e-06
1383.4, 9.1238e-07
1385.4, 8.7966e-07
1387.4, 9.1594e-07
1389.4, 9.4702e-07
1391.4, 9.8624e-07
1393.4, 9.2303e-07
1395.4, 9.6801e-07
1397.4, 9.9105e-07
1399.4, 9.8893e-07
1401.4, 9.0378e-07
1403.4, 9.2051e-07
1405.4, 9.6861e-07
1407.4, 9.7211e-07
1409.4, 9.6332e-07
1411.4, 9.9286e-07
1413.4, 9.4876e-07
1415.4, 1.0096e-06
1417.4, 9.8996e-07
1419.4, 9.6176e-07
1421.4, 9.1978e-07
1423.4, 1.006e-06
1425.4, 9.2644e-07
1427.4, 9.2482e-07
1429.4, 9.466e-07
1431.4, 9.566e-07
1433.4, 1.014e-06
1435.4, 9.6695e-07
1437.4, 9.5439e-07
1439.4, 9.7524e-07
1441.4, 9.9564e-07
1443.4, 1.0016e-06
1445.4, 1.0061e-06
1447.4, 1.0245e-06
1449.4, 9.4403e-07
1451.4, 9.7223e-07
1453.5, 9.1397e-07
1455.5, 1.0003e-06
1457.5, 9.3087e-07
1459.5, 9.3408e-07
1461.5, 9.9713e-07
1463.5, 9.1124e-07
1465.5, 9.0169e-07
1467.5, 8.9684e-07
1469.5, 9.2008e-07
1471.5, 9.6414e-07
1473.5, 9.749e-07
1475.5, 9.5966e-07
1477.5, 9.9481e-07
1479.5, 9.947e-07
1481.5, 9.4408e-07
1483.5, 9.7666e-07
1485.5, 1.0006e-06
1487.5, 9.6892e-07
1489.5, 9.2627e-07
1491.5, 9.7689e-07
1493.5, 9.6338e-07
1495.5, 9.5398e-07
1497.5, 9.7475e-07
1499.5, 9.6251e-07
1501.5, 9.3452e-07
1503.5, 9.4927e-07
1505.5, 9.9778e-07
1507.5, 9.7112e-07
1509.5, 9.673e-07
1511.5, 9.739e-07
1513.5, 9.2889e-07
1515.5, 9.6352e-07
1517.5, 9.9756e-07
1519.5, 9.5013e-07
1521.5, 9.6588e-07
1523.5, 9.5005e-07
1525.5, 9.182e-07
1527.5, 9.3647e-07
1529.5, 9.744e-07
1531.5, 9.6475e-07
1533.5, 9.6713e-07
1535.5, 9.3257e-07
1537.5, 9.8665e-07
1539.5, 9.6842e-07
1541.5, 9.7034e-07
1543.5, 9.6496e-07
1545.5, 9.2034e-07
1547.5, 9.4509e-07
1549.5, 9.5159e-07
1551.5, 1.111e-06
1553.6, 1.0143e-06
1555.6, 9.2238e-07
1557.6, 9.9921e-07
1559.6, 1.0371e-06
1561.6, 1.0058e-06
1563.6, 9.6326e-07
1565.6, 1.015e-06
1567.6, 9.1496e-07
1569.6, 9.9283e-07
1571.6, 9.857e-07
1573.6, 9.598e-07
1575.6, 9.6268e-07
1577.6, 9.6244e-07
1579.6, 9.9529e-07
1581.6, 9.3357e-07
1583.6, 9.7764e-07
1585.6, 9.5192e-07
1587.6, 9.6083e-07
1589.6, 1.0035e-06
1591.6, 9.6632e-07
1593.6, 1.0197e-06
1595.6, 9.1766e-07
1597.6, 1.0242e-06
1599.6, 9.9705e-07
1601.6, 9.9208e-07
1603.6, 9.5557e-07
1605.6, 9.0363e-07
1607.6, 9.7587e-07
1609.6, 9.2252e-07
1611.6, 9.6492e-07
1613.6, 1.0218e-06
1615.6, 9.4474e-07
1617.6, 9.7525e-07
1619.6, 9.9485e-07
1621.6, 9.6095e-07
1623.6, 1.0032e-06
1625.6, 9.8303e-07
1627.6, 9.9826e-07
1629.6, 9.803e-07
1631.6, 9.0925e-07
1633.6, 9.4414e-07
1635.6, 9.7486e-07
1637.6, 9.9359e-07
1639.6, 1.0019e-06
1641.6, 9.4009e-07
1643.6, 9.3986e-07
1645.6, 9.8904e-07
1647.6, 1.032e-06
1649.6, 9.2967e-07
1651.6, 9.6921e-07
1653.7, 1.0629e-06
1655.7, 9.55e-07
1657.7, 9.4833e-07
1659.7, 8.6126e-07
1661.7, 9.4193e-07
1663.7, 9.4603e-07
1665.7, 9.2367e-07
1667.7, 9.8375e-07
1669.7, 1.025e-06
1671.7, 1.0067e-06
1673.7, 1.0275e-06
1675.7, 9.2574e-07
1677.7, 9.6722e-07
1679.7, 9.8583e-07
1681.7, 9.6828e-07
1683.7, 9.3628e-07
1685.7, 9.9205e-07
1687.7, 9.5587e-07
1689.7, 9.9273e-07
1691.7, 9.8886e-07
1693.7, 9.4901e-07
1695.7, 1.0315e-06
1697.7, 9.8921e-07
1699.7, 9.8747e-07
1701.7, 9.5396e-07
1703.7, 9.7481e-07
1705.7, 9.8915e-07
1707.7, 9.9882e-07
1709.7, 9.7996e-07
1711.7, 1.011e-06
1713.7, 1.0227e-06
1715.7, 9.4266e-07
1717.7, 9.8482e-07
1719.7, 9.9611e-07
1721.7, 8.9652e-07
1723.7, 9.4631e-07
1725.7, 9.6272e-07
1727.7, 9.4988e-07
1729.7, 9.8522e-07
1731.7, 1.0074e-06
1733.7, 9.6819e-07
1735.7, 1.0109e-06
1737.7, 9.8968e-07
1739.7, 1.0594e-06
1741.7, 1.0034e-06
1743.7, 9.3241e-07
1745.7, 9.6297e-07
1747.7, 9.5677e-07
1749.7, 9.5896e-07
1751.7, 9.7548e-07
1753.8, 1.0248e-06
1755.8, 9.8923e-07
1757.8, 1.0065e-06
1759.8, 9.9895e-07
1761.8, 1.0142e-06
1763.8, 9.7766e-07
1765.8, 9.9415e-07
1767.8, 9.7255e-07
1769.8, 1.0116e-06
1771.8, 9.4035e-07
1773.8, 9.9306e-07
1775.8, 9.578e-07
1777.8, 9.5601e-07
1779.8, 9.6344e-07
1781.8, 9.243e-07
1783.8, 9.8195e-07
1785.8, 9.7217e-07
1787.8, 9.8334e-07
1789.8, 1.0369e-06
1791.8, 9.2699e-07
1793.8, 1.0271e-06
1795.8, 1.0113e-06
1797.8, 1.01e-06
1799.8, 1.031e-06
1801.8, 1.0123e-06
1803.8, 1.0233e-06
1805.8, 1.0573e-06
1807.8, 1.0397e-06
1809.8, 1.0157e-06
1811.8, 9.4818e-07
1813.8, 9.7484e-07
1815.8, 9.3798e-07
1817.8, 1.0373e-06
1819.8, 9.3717e-07
1821.8, 9.9459e-07
1823.8, 1.0519e-06
1825.8, 9.7258e-07
1827.8, 9.996e-07
1829.8, 1.0119e-06
1831.8, 1.0033e-06
1833.8, 1.0518e-06
1835.8, 1.0057e-06
1837.8, 9.6212e-07
1839.8, 9.4417e-07
1841.8, 9.4005e-07
1843.8, 9.5212e-07
1845.8, 1.0013e-06
1847.8, 9.9466e-07
1849.8, 1.0591e-06
1851.8, 9.8548e-07
1853.9, 9.4315e-07
1855.9, 9.3674e-07
1857.9, 9.5816e-07
1859.9, 1.0166e-06
1861.9, 1.0081e-06
1863.9, 9.8093e-07
1865.9, 9.8435e-07
1867.9, 9.4038e-07
1869.9, 9.94e-07
1871.9, 9.9766e-07
1873.9, 1.0475e-06
1875.9, 9.7099e-07
1877.9, 9.0945e-07
1879.9, 8.8376e-07
1881.9, 9.8253e-07
1883.9, 9.7393e-07
1885.9, 9.8961e-07
1887.9, 9.731e-07
1889.9, 9.9022e-07
1891.9, 1.0072e-06
1893.9, 9.7414e-07
1895.9, 9.8733e-07
1897.9, 9.4695e-07
1899.9, 9.9066e-07
1901.9, 9.965e-07
1903.9, 9.9825e-07
1905.9, 9.6731e-07
1907.9, 9.5505e-07
1909.9, 9.9832e-07
1911.9, 9.2061e-07
1913.9, 1.0024e-06
1915.9, 9.6269e-07
1917.9, 1.0316e-06
1919.9, 9.9743e-07
1921.9, 9.9944e-07
1923.9, 9.871e-07
1925.9, 1.0053e-06
1927.9, 1.0103e-06
1929.9, 9.9675e-07
1931.9, 9.7605e-07
1933.9, 1.0097e-06
1935.9, 1.0126e-06
1937.9, 1.0001e-06
1939.9, 9.5222e-07
1941.9, 9.9573e-07
1943.9, 9.4224e-07
1945.9, 9.1512e-07
1947.9, 9.45e-07
1949.9, 9.7563e-07
1951.9, 9.6195e-07
1954.0, 9.7707e-07
1956.0, 1.0074e-06
1958.0, 9.3661e-07
1960.0, 1.0121e-06
1962.0, 9.5803e-07
1964.0, 9.8767e-07
1966.0, 9.2972e-07
1968.0, 9.8621e-07
1970.0, 1.019e-06
1972.0, 1.0331e-06
1974.0, 9.9529e-07
1976.0, 9.6881e-07
1978.0, 9.8006e-07
1980.0, 9.52e-07
1982.0, 9.5226e-07
1984.0, 1.0194e-06
1986.0, 9.494e-07
1988.0, 9.6793e-07
1990.0, 9.9913e-07
1992.0, 1.011e-06
1994.0, 9.2709e-07
1996.0, 9.2537e-07
1998.0, 9.4353e-07
2000.0, 9.7622e-07
2002.0, 9.4475e-07
2004.0, 1.0227e-06
2006.0, 1.0263e-06
2008.0, 8.8288e-07
2010.0, 9.4124e-07
2012.0, 1.0176e-06
2014.0, 1.0098e-06
2016.0, 9.6466e-07
2018.0, 1.0158e-06
2020.0, 9.6741e-07
2022.0, 9.102e-07
2024.0, 9.6979e-07
2026.0, 1.0315e-06
2028.0, 9.4096e-07
2030.0, 9.7613e-07
2032.0, 9.8865e-07
2034.0, 9.7579e-07
2036.0, 1.0616e-06
2038.0, 9.9447e-07
2040.0, 9.0714e-07
2042.0, 1.0319e-06
2044.0, 1.0172e-06
2046.0, 1.0101e-06
2048.0, 5.188e-07
2050.0, -3.676e-08
2052.0, -3.586e-08
2054.1, -3.458e-08
2056.1, -3.937e-08
2058.1, -3.282e-08
2060.1, -3.916e-08
2062.1, -4.02e-08
2064.1, -3.634e-08
2066.1, -3.858e-08
2068.1, -3.751e-08
2070.1, -3.65e-08
2072.1, -3.616e-08
2074.1, -3.961e-08
2076.1, -3.653e-08
2078.1, -3.938e-08
2080.1, -4.151e-08
2082.1, -3.654e-08
2084.1, -3.592e-08
2086.1, -3.582e-08
2088.1, -4.081e-08
2090.1, -4.024e-08
2092.1, -3.896e-08
2094.1, -4.019e-08
2096.1, -3.819e-08
2098.1, -3.816e-08
2100.1, -3.841e-08
2102.1, -3.784e-08
2104.1, -3.727e-08
2106.1, -3.646e-08
2108.1, -3.492e-08
2110.1, -3.776e-08
2112.1, -3.599e-08
2114.1, -3.702e-08
2116.1, -3.631e-08
2118.1, -3.846e-08
2120.1, -3.689e-08
2122.1, -3.614e-08
2124.1, -3.895e-08
2126.1, -3.642e-08
2128.1, -3.554e-08
2130.1, -3.59e-08
2132.1, -3.562e-08
2134.1, -3.988e-08
2136.1, -4.034e-08
2138.1, -3.595e-08
2140.1, -3.784e-08
2142.1, -3.835e-08
2144.1, -3.688e-08
2146.1, -3.583e-08
2148.1, -3.412e-08
2150.1, -3.741e-08
2152.1, -3.676e-08
2154.2, -3.637e-08
2156.2, -3.559e-08
2158.2, -3.44e-08
2160.2, -3.823e-08
2162.2, -3.586e-08
2164.2, -3.829e-08
2166.2, -3.212e-08
2168.2, -3.535e-08
2170.2, -3.869e-08
2172.2, -3.4e-08
2174.2, -3.716e-08
2176.2, -3.796e-08
2178.2, -3.428e-08
2180.2, -3.295e-08
2182.2, -3.701e-08
2184.2, -3.692e-08
2186.2, -3.533e-08
2188.2, -3.441e-08
2190.2, -3.58e-08
2192.2, -3.883e-08
2194.2, -3.777e-08
2196.2, -4.05e-08
2198.2, -3.695e-08
2200.2, -3.507e-08
2202.2, -3.79e-08
2204.2, -3.723e-08
2206.2, -3.903e-08
2208.2, -3.796e-08
2210.2, -3.708e-08
2212.2, -3.951e-08
2214.2, -3.949e-08
2216.2, -3.664e-08
2218.2, -3.562e-08
2220.2, -3.239e-08
2222.2, -3.703e-08
2224.2, -3.66e-08
2226.2, -3.546e-08
2228.2, -3.644e-08
2230.2, -3.052e-08
2232.2, -3.578e-08
2234.2, -3.699e-08
2236.2, -3.609e-08
2238.2, -3.793e-08
2240.2, -3.63e-08
2242.2, -3.303e-08
2244.2, -3.261e-08
2246.2, -3.045e-08
2248.2, -3.151e-08
2250.2, -3.52e-08
2252.2, -3.429e-08
2254.3, -3.768e-08
2256.3, -3.584e-08
2258.3, -3.429e-08
2260.3, -3.27e-08
2262.3, -3.214e-08
2264.3, -3.12e-08
2266.3, -3.097e-08
2268.3, -3.586e-08
2270.3, -3.393e-08
2272.3, -3.26e-08
2274.3, -3.49e-08
2276.3, -3.913e-08
2278.3, -3.837e-08
2280.3, -3.672e-08
2282.3, -3.642e-08
2284.3, -3.737e-08
2286.3, -3.371e-08
2288.3, -3.621e-08
2290.3, -3.543e-08
2292.3, -3.59e-08
2294.3, -3.394e-08
2296.3, -3.403e-08
2298.3, -3.434e-08
2300.3, -3.34e-08
2302.3, -3.713e-08
2304.3, -3.435e-08
2306.3, -3.353e-08
2308.3, -3.363e-08
2310.3, -3.497e-08
2312.3, -3.133e-08
2314.3, -3.323e-08
2316.3, -3.618e-08
2318.3, -3.843e-08
2320.3, -3.521e-08
2322.3, -3.529e-08
2324.3, -3.537e-08
2326.3, -3.673e-08
2328.3, -3.246e-08
2330.3, -3.59e-08
2332.3, -3.214e-08
2334.3, -3.371e-08
2336.3, -3.727e-08
2338.3, -3.572e-08
2340.3, -3.623e-08
2342.3, -3.613e-08
2344.3, -3.437e-08
2346.3, -3.33e-08
2348.3, -3.325e-08
2350.3, -3.592e-08
2352.3, -3.514e-08
2354.4, -3.268e-08
2356.4, -3.551e-08
2358.4, -3.585e-08
2360.4, -3.648e-08
2362.4, -3.42e-08
2364.4, -3.274e-08
2366.4, -3.615e-08
2368.4, -3.456e-08
2370.4, -3.408e-08
2372.4, -3.212e-08
2374.4, -3.414e-08
2376.4, -3.211e-08
2378.4, -3.344e-08
2380.4, -3.302e-08
2382.4, -3.579e-08
2384.4, -3.297e-08
2386.4, -3.145e-08
2388.4, -3.197e-08
2390.4, -3.134e-08
2392.4, -2.972e-08
2394.4, -3.154e-08
2396.4, -3.204e-08
2398.4, -3.199e-08
2400.4, -3.402e-08
2402.4, -3.481e-08
2404.4, -3.151e-08
2406.4, -3.312e-08
2408.4, -3.546e-08
2410.4, -3.747e-08
2412.4, -3.602e-08
2414.4, -3.787e-08
2416.4, -3.211e-08
2418.4, -3.394e-08
2420.4, -3.515e-08
2422.4, -3.579e-08
2424.4, -3.376e-08
2426.4, -3.803e-08
2428.4, -3.544e-08
2430.4, -3.579e-08
2432.4, -3.611e-08
2434.4, -3.425e-08
2436.4, -3.624e-08
2438.4, -3.61e-08
2440.4, -3.485e-08
2442.4, -4.075e-08
2444.4, -3.316e-08
2446.4, -3.548e-08
2448.4, -3.382e-08
2450.4, -3.317e-08
2452.4, -3.379e-08
2454.5, -3.322e-08
2456.5, -3.515e-08
2458.5, -3.206e-08
2460.5, -3.4e-08
2462.5, -3.739e-08
2464.5, -3.474e-08
2466.5, -3.493e-08
2468.5, -3.744e-08
2470.5, -3.642e-08
2472.5, -3.706e-08
2474.5, -3.605e-08
2476.5, -3.312e-08
2478.5, -3.264e-08
2480.5, -3.25e-08
2482.5, -3.655e-08
2484.5, -3.443e-08
2486.5, -3.463e-08
2488.5, -3.272e-08
2490.5, -3.23e-08
2492.5, -3.267e-08
2494.5, -3.673e-08
2496.5, -3.606e-08
2498.5, -3.138e-08
2500.5, -3.427e-08
2502.5, -3.527e-08
2504.5, -3.72e-08
2506.5, -3.431e-08
2508.5, -3.579e-08
2510.5, -3.697e-08
2512.5, -3.737e-08
2514.5, -3.406e-08
2516.5, -3.559e-08
2518.5, -3.287e-08
2520.5, -3.541e-08
2522.5, -3.463e-08
2524.5, -3.121e-08
2526.5, -3.248e-08
2528.5, -3.327e-08
2530.5, -3.297e-08
2532.5, -3.189e-08
2534.5, -3.231e-08
2536.5, -3.265e-08
2538.5, -3.612e-08
2540.5, -3.219e-08
2542.5, -3.573e-08
2544.5, -3.424e-08
2546.5, -3.48e-08
2548.5, -3.535e-08
2550.5, -3.745e-08
2552.5, -3.353e-08
2554.6, -3.863e-08
2556.6, -3.582e-08
2558.6, -3.605e-08
2560.6, -4.075e-08
2562.6, -3.944e-08
2564.6, -4.19e-08
2566.6, -3.827e-08
2568.6, -3.84e-08
2570.6, -3.364e-08
2572.6, -3.753e-08
2574.6, -3.756e-08
2576.6, -3.646e-08
2578.6, -3.656e-08
2580.6, -3.513e-08
2582.6, -3.426e-08
2584.6, -3.807e-08
2586.6, -3.553e-08
2588.6, -3.582e-08
2590.6, -3.356e-08
2592.6, -4.018e-08
2594.6, -4.082e-08
2596.6, -3.685e-08
2598.6, -3.76e-08
2600.6, -3.876e-08
2602.6, -3.864e-08
2604.6, -3.771e-08
2606.6, -3.91e-08
2608.6, -3.909e-08
2610.6, -3.933e-08
2612.6, -3.685e-08
2614.6, -4.06e-08
2616.6, -3.734e-08
2618.6, -3.749e-08
2620.6, -3.298e-08
2622.6, -4.056e-08
2624.6, -4.07e-08
2626.6, -4.157e-08
2628.6, -3.863e-08
2630.6, -3.952e-08
2632.6, -3.933e-08
2634.6, -3.902e-08
2636.6, -3.59e-08
2638.6, -3.922e-08
2640.6, -3.609e-08
2642.6, -3.55e-08
2644.6, -3.586e-08
2646.6, -3.747e-08
2648.6, -3.788e-08
2650.6, -3.768e-08
2652.6, -3.794e-08
2654.7, -3.59e-08
2656.7, -3.89e-08
2658.7, -3.893e-08
2660.7, -4.087e-08
2662.7, -3.811e-08
2664.7, -4.173e-08
2666.7, -3.417e-08
2668.7, -3.621e-08
2670.7, -3.805e-08
2672.7, -3.887e-08
2674.7, -3.949e-08
2676.7, -3.651e-08
2678.7, -3.976e-08
2680.7, -3.962e-08
2682.7, -3.998e-08
2684.7, -3.965e-08
2686.7, -3.905e-08
2688.7, -3.532e-08
2690.7, -3.99e-08
2692.7, -3.582e-08
2694.7, -3.795e-08
2696.7, -3.634e-08
2698.7, -3.513e-08
2700.7, -3.469e-08
2702.7, -3.591e-08
2704.7, -3.732e-08
2706.7, -3.687e-08
2708.7, -3.639e-08
2710.7, -3.386e-08
2712.7, -3.723e-08
2714.7, -4.143e-08
2716.7, -3.861e-08
2718.7, -3.732e-08
2720.7, -3.494e-08
2722.7, -3.76e-08
2724.7, -3.814e-08
2726.7, -3.312e-08
2728.7, -3.551e-08
2730.7, -3.759e-08
2732.7, -3.331e-08
2734.7, -3.691e-08
2736.7, -3.872e-08
2738.7, -3.957e-08
2740.7, -3.405e-08
2742.7, -3.668e-08
2744.7, -3.742e-08
2746.7, -3.397e-08
2748.7, -3.512e-08
2750.7, -3.682e-08
2752.7, -3.742e-08
2754.8, -3.488e-08
2756.8, -3.756e-08
2758.8, -3.911e-08
2760.8, -3.802e-08
2762.8, -4.105e-08
2764.8, -3.723e-08
2766.8, -4.086e-08
2768.8, -3.848e-08
2770.8, -4.072e-08
2772.8, -3.925e-08
2774.8, -3.871e-08
2776.8, -3.89e-08
2778.8, -4.063e-08
2780.8, -3.616e-08
2782.8, -3.735e-08
2784.8, -3.7e-08
2786.8, -3.77e-08
2788.8, -3.737e-08
2790.8, -3.96e-08
2792.8, -3.828e-08
2794.8, -4.08e-08
2796.8, -3.581e-08
2798.8, -3.99e-08
2800.8, -4.183e-08
2802.8, -4.091e-08
2804.8, -4.215e-08
2806.8, -3.726e-08
2808.8, -3.727e-08
2810.8, -4.174e-08
2812.8, -3.849e-08
2814.8, -3.816e-08
2816.8, -3.882e-08
2818.8, -3.658e-08
2820.8, -4.226e-08
2822.8, -4.145e-08
2824.8, -4.291e-08
2826.8, -3.637e-08
2828.8, -3.516e-08
2830.8, -3.751e-08
2832.8, -3.454e-08
2834.8, -3.774e-08
2836.8, -3.92e-08
2838.8, -3.895e-08
2840.8, -3.778e-08
2842.8, -3.924e-08
2844.8, -3.675e-08
2846.8, -3.587e-08
2848.8, -4.101e-08
2850.8, -3.9e-08
2852.8, -3.77e-08
2854.9, -3.917e-08
2856.9, -3.754e-08
2858.9, -3.931e-08
2860.9, -3.677e-08
2862.9, -4.13e-08
2864.9, -3.643e-08
2866.9, -3.442e-08
2868.9, -3.65e-08
2870.9, -3.531e-08
2872.9, -3.601e-08
2874.9, -3.601e-08
2876.9, -3.953e-08
2878.9, -3.776e-08
2880.9, -3.681e-08
2882.9, -3.443e-08
2884.9, -3.59e-08
2886.9, -3.965e-08
2888.9, -3.403e-08
2890.9, -3.804e-08
2892.9, -3.625e-08
2894.9, -3.594e-08
2896.9, -3.596e-08
2898.9, -3.948e-08
2900.9, -3.929e-08
2902.9, -4.118e-08
2904.9, -3.954e-08
2906.9, -3.681e-08
2908.9, -3.554e-08
2910.9, -3.677e-08
2912.9, -3.74e-08
2914.9, -3.911e-08
2916.9, -4.036e-08
2918.9, -3.931e-08
2920.9, -3.81e-08
2922.9, -3.731e-08
2924.9, -4.258e-08
2926.9, -4.009e-08
2928.9, -4.014e-08
2930.9, -4.028e-08
2932.9, -3.911e-08
2934.9, -4.014e-08
2936.9, -3.854e-08
2938.9, -3.699e-08
2940.9, -3.563e-08
2942.9, -3.785e-08
2944.9, -3.572e-08
2946.9, -3.596e-08
2948.9, -3.861e-08
2950.9, -3.751e-08
2952.9, -3.77e-08
2955.0, -4.243e-08
2957.0, -4.197e-08
2959.0, -3.983e-08
2961.0, -4.229e-08
2963.0, -4.252e-08
2965.0, -4.054e-08
2967.0, -3.812e-08
2969.0, -3.826e-08
2971.0, -3.745e-08
2973.0, -4.164e-08
2975.0, -4.23e-08
2977.0, -4.055e-08
2979.0, -4.11e-08
2981.0, -4.173e-08
2983.0, -4.151e-08
2985.0, -3.901e-08
2987.0, -3.941e-08
2989.0, -4.035e-08
2991.0, -3.934e-08
2993.0, -3.786e-08
2995.0, -3.723e-08
2997.0, -3.873e-08
2999.0, -3.868e-08
3001.0, -3.626e-08
3003.0, -3.335e-08
3005.0, -3.747e-08
3007.0, -3.704e-08
3009.0, -3.712e-08
3011.0, -3.819e-08
3013.0, -3.723e-08
3015.0, -3.456e-08
3017.0, -3.494e-08
3019.0, -3.752e-08
3021.0, -3.817e-08
3023.0, -4.416e-08
3025.0, -4.097e-08
3027.0, -4.049e-08
3029.0, -3.716e-08
3031.0, -3.897e-08
3033.0, -3.658e-08
3035.0, -3.941e-08
3037.0, -3.807e-08
3039.0, -3.823e-08
3041.0, -4.24e-08
3043.0, -4.034e-08
3045.0, -3.977e-08
3047.0, -3.762e-08
3049.0, -3.456e-08
3051.0, -3.727e-08
3053.0, -3.725e-08
3055.1, -3.687e-08
3057.1, -4.413e-08
3059.1, -4.118e-08
3061.1, -4.083e-08
3063.1, -4.181e-08
3065.1, -3.976e-08
3067.1, -4.086e-08
3069.1, -3.918e-08
3071.1, -4.087e-08
3073.1, -3.813e-08
3075.1, -3.966e-08
3077.1, -3.666e-08
3079.1, -3.898e-08
3081.1, -3.646e-08
3083.1, -3.921e-08
3085.1, 5.141e-07
3087.1, 8.6832e-07
3089.1, 9.1955e-07
3091.1, 8.9917e-07
3093.1, 8.1724e-07
3095.1, 9.331e-07
3097.1, 8.7443e-07
3099.1, 9.1633e-07
3101.1, 8.8455e-07
3103.1, 9.0183e-07
3105.1, 8.5139e-07
3107.1, 8.3941e-07
3109.1, 9.1749e-07
3111.1, 9.988e-07
3113.1, 9.3064e-07
3115.1, 9.2317e-07
3117.1, 9.5853e-07
3119.1, 9.3143e-07
3121.1, 9.008e-07
3123.1, 8.1963e-07
3125.1, 9.2022e-07
3127.1, 9.6641e-07
3129.1, 8.8732e-07
3131.1, 9.5345e-07
3133.1, 9.3071e-07
3135.1, 9.1801e-07
3137.1, 8.9018e-07
3139.1, 8.6881e-07
3141.1, 9.3892e-07
3143.1, 9.163e-07
3145.1, 9.5987e-07
3147.1, 9.2873e-07
3149.1, 8.7719e-07
3151.1, 9.5058e-07
3153.1, 9.0305e-07
3155.2, 9.4603e-07
3157.2, 9.7022e-07
3159.2, 9.6071e-07
3161.2, 9.136e-07
3163.2, 9.2672e-07
3165.2, 8.9204e-07
3167.2, 9.7715e-07
3169.2, 9.3754e-07
3171.2, 8.9287e-07
3173.2, 8.9436e-07
3175.2, 9.0376e-07
3177.2, 9.0721e-07
3179.2, 8.8843e-07
3181.2, 9.2435e-07
3183.2, 9.5508e-07
3185.2, 8.8107e-07
3187.2, 9.7913e-07
3189.2, 9.397e-07
3191.2, 8.982e-07
3193.2, 8.3471e-07
3195.2, 9.8476e-07
3197.2, 8.8843e-07
3199.2, 9.5193e-07
3201.2, 9.3889e-07
3203.2, 8.4633e-07
3205.2, 9.0117e-07
3207.2, 8.8579e-07
3209.2, 9.4387e-07
3211.2, 9.9791e-07
3213.2, 9.5231e-07
3215.2, 9.1951e-07
3217.2, 8.9978e-07
3219.2, 9.3813e-07
3221.2, 9.3757e-07
3223.2, 8.6979e-07
3225.2, 9.0823e-07
3227.2, 9.271e-07
3229.2, 9.5002e-07
3231.2, 9.8796e-07
3233.2, 8.5325e-07
3235.2, 9.1721e-07
3237.2, 1.0277e-06
3239.2, 9.1974e-07
3241.2, 9.1062e-07
3243.2, 9.5371e-07
3245.2, 8.5915e-07
3247.2, 1.0654e-06
3249.2, 1.0036e-06
3251.2, 9.118e-07
3253.2, 9.1937e-07
3255.3, 9.763e-07
3257.3, 9.0396e-07
3259.3, 9.1437e-07
3261.3, 1.0253e-06
3263.3, 9.5122e-07
3265.3, 9.2987e-07
3267.3, 9.7962e-07
3269.3, 9.7174e-07
3271.3, 8.9689e-07
3273.3, 9.531e-07
3275.3, 9.3391e-07
3277.3, 9.5191e-07
3279.3, 9.9203e-07
3281.3, 9.33e-07
3283.3, 9.4797e-07
3285.3, 9.6805e-07
3287.3, 8.5469e-07
3289.3, 9.2042e-07
3291.3, 9.8027e-07
3293.3, 9.1451e-07
3295.3, 8.7813e-07
3297.3, 9.9825e-07
3299.3, 8.3694e-07
3301.3, 9.5405e-07
3303.3, 9.1706e-07
3305.3, 9.8182e-07
3307.3, 9.6182e-07
3309.3, 9.7496e-07
3311.3, 9.2633e-07
3313.3, 8.9145e-07
3315.3, 9.548e-07
3317.3, 9.5636e-07
3319.3, 9.5952e-07
3321.3, 1.0139e-06
3323.3, 1.0162e-06
3325.3, 1.0226e-06
3327.3, 9.3902e-07
3329.3, 9.4478e-07
3331.3, 9.0797e-07
3333.3, 9.773e-07
3335.3, 9.4725e-07
3337.3, 9.8889e-07
3339.3, 1.0248e-06
3341.3, 9.404e-07
3343.3, 1.0852e-06
3345.3, 1.0083e-06
3347.3, 9.6676e-07
3349.3, 8.7779e-07
3351.3, 9.6823e-07
3353.3, 9.4464e-07
3355.4, 9.9563e-07
3357.4, 9.5693e-07
3359.4, 9.9741e-07
3361.4, 9.1536e-07
3363.4, 1.0008e-06
3365.4, 9.546e-07
3367.4, 9.7667e-07
3369.4, 1.0276e-06
3371.4, 9.5406e-07
3373.4, 9.8593e-07
3375.4, 9.2414e-07
3377.4, 9.906e-07
3379.4, 9.1273e-07
3381.4, 8.9056e-07
3383.4, 9.9858e-07
3385.4, 9.4019e-07
3387.4, 9.7388e-07
3389.4, 9.3877e-07
3391.4, 1.0836e-06
3393.4, 9.7101e-07
3395.4, 9.5038e-07
3397.4, 1.0019e-06
3399.4, 9.763e-07
3401.4, 9.7566e-07
3403.4, 9.8577e-07
3405.4, 9.5485e-07
3407.4, 1.0016e-06
3409.4, 9.3966e-07
3411.4, 9.9044e-07
3413.4, 9.638e-07
3415.4, 9.7038e-07
3417.4, 9.9293e-07
3419.4, 9.5078e-07
3421.4, 9.7728e-07
3423.4, 1.0413e-06
3425.4, 1.0133e-06
3427.4, 9.9593e-07
3429.4, 9.7782e-07
3431.4, 1.0159e-06
3433.4, 9.8865e-07
3435.4, 9.9736e-07
3437.4, 9.9304e-07
3439.4, 9.5787e-07
3441.4, 9.5935e-07
3443.4, 1.0401e-06
3445.4, 9.8016e-07
3447.4, 9.6862e-07
3449.4, 9.6455e-07
3451.4, 1.0043e-06
3453.4, 1.0277e-06
3455.5, 9.4613e-07
3457.5, 9.7666e-07
3459.5, 9.6748e-07
3461.5, 9.4161e-07
3463.5, 8.9071e-07
3465.5, 1.0432e-06
3467.5, 1.0507e-06
3469.5, 9.4548e-07
3471.5, 9.8416e-07
3473.5, 1.0497e-06
3475.5, 9.6007e-07
3477.5, 9.6556e-07
3479.5, 9.7914e-07
3481.5, 9.841e-07
3483.5, 1.0237e-06
3485.5, 9.6487e-07
3487.5, 9.5514e-07
3489.5, 9.1435e-07
3491.5, 9.6662e-07
3493.5, 9.5226e-07
3495.5, 1.0644e-06
3497.5, 9.866e-07
3499.5, 9.2993e-07
3501.5, 9.871e-07
3503.5, 9.1058e-07
3505.5, 9.9901e-07
3507.5, 9.1758e-07
3509.5, 1.0138e-06
3511.5, 9.9018e-07
3513.5, 1.0048e-06
3515.5, 8.6181e-07
3517.5, 1.0286e-06
3519.5, 1.026e-06
3521.5, 9.4775e-07
3523.5, 9.5235e-07
3525.5, 1.0831e-06
3527.5, 9.3427e-07
3529.5, 9.7369e-07
3531.5, 9.9437e-07
3533.5, 1.01e-06
3535.5, 9.8314e-07
3537.5, 9.1112e-07
3539.5, 9.888e-07
3541.5, 9.2726e-07
3543.5, 9.7761e-07
3545.5, 9.4878e-07
3547.5, 9.7676e-07
3549.5, 9.8794e-07
3551.5, 1.0594e-06
3553.5, 9.37e-07
3555.6, 9.5538e-07
3557.6, 1.0164e-06
3559.6, 9.7437e-07
3561.6, 9.6536e-07
3563.6, 9.2674e-07
3565.6, 9.8707e-07
3567.6, 9.6008e-07
3569.6, 9.2912e-07
3571.6, 1.0471e-06
3573.6, 9.624e-07
3575.6, 9.3847e-07
3577.6, 9.8659e-07
3579.6, 9.9527e-07
3581.6, 9.9069e-07
3583.6, 9.6013e-07
3585.6, 9.5579e-07
3587.6, 1.0217e-06
3589.6, 9.7446e-07
3591.6, 9.4832e-07
3593.6, 9.496e-07
3595.6, 9.226e-07
3597.6, 9.7082e-07
3599.6, 1.0157e-06
3601.6, 1.0063e-06
3603.6, 9.7743e-07
3605.6, 1.0498e-06
3607.6, 9.9898e-07
3609.6, 9.626e-07
3611.6, 1.0196e-06
3613.6, 9.4601e-07
3615.6, 9.2851e-07
3617.6, 9.0169e-07
3619.6, 9.6498e-07
3621.6, 9.4218e-07
3623.6, 9.4697e-07
3625.6, 9.7401e-07
3627.6, 1.0511e-06
3629.6, 9.3058e-07
3631.6, 9.6333e-07
3633.6, 9.8025e-07
3635.6, 9.4854e-07
3637.6, 1.0018e-06
3639.6, 9.8206e-07
3641.6, 1.0073e-06
3643.6, 9.2118e-07
3645.6, 9.4764e-07
3647.6, 9.3923e-07
3649.6, 9.2645e-07
3651.6, 1.0651e-06
3653.6, 9.7237e-07
3655.7, 9.9737e-07
3657.7, 9.9093e-07
3659.7, 9.4589e-07
3661.7, 9.8363e-07
3663.7, 9.911e-07
3665.7, 9.8796e-07
3667.7, 9.5548e-07
3669.7, 9.36e-07
3671.7, 9.9039e-07
3673.7, 1.0246e-06
3675.7, 1.0354e-06
3677.7, 9.9816e-07
3679.7, 9.5926e-07
3681.7, 9.7516e-07
3683.7, 9.4043e-07
3685.7, 9.9084e-07
3687.7, 8.7399e-07
3689.7, 9.4272e-07
3691.7, 9.8441e-07
3693.7, 9.1368e-07
3695.7, 1.0519e-06
3697.7, 9.9808e-07
3699.7, 9.4202e-07
3701.7, 9.5169e-07
3703.7, 9.9401e-07
3705.7, 9.7231e-07
3707.7, 9.2884e-07
3709.7, 1.0157e-06
3711.7, 9.3359e-07
3713.7, 9.6246e-07
3715.7, 9.8204e-07
3717.7, 9.4169e-07
3719.7, 9.9257e-07
3721.7, 9.8875e-07
3723.7, 1.0334e-06
3725.7, 9.4815e-07
3727.7, 9.9363e-07
3729.7, 1.0081e-06
3731.7, 1.0427e-06
3733.7, 9.4792e-07
3735.7, 9.92e-07
3737.7, 9.5548e-07
3739.7, 9.4079e-07
3741.7, 9.5709e-07
3743.7, 1.0035e-06
3745.7, 9.5394e-07
3747.7, 9.5605e-07
3749.7, 9.9053e-07
3751.7, 9.4487e-07
3753.7, 9.558e-07
3755.8, 9.8897e-07
3757.8, 9.4496e-07
3759.8, 9.8853e-07
3761.8, 1.0675e-06
3763.8, 9.8222e-07
3765.8, 9.9907e-07
3767.8, 9.7768e-07
3769.8, 9.6679e-07
3771.8, 9.2037e-07
3773.8, 1.0328e-06
3775.8, 1.0043e-06
3777.8, 9.4741e-07
3779.8, 1.1035e-06
3781.8, 9.8896e-07
3783.8, 9.6274e-07
3785.8, 9.9333e-07
3787.8, 1.0088e-06
3789.8, 1.0265e-06
3791.8, 9.505e-07
3793.8, 1.0118e-06
3795.8, 9.6726e-07
3797.8, 9.6452e-07
3799.8, 9.0979e-07
3801.8, 9.8511e-07
3803.8, 9.8137e-07
3805.8, 9.3544e-07
3807.8, 9.1801e-07
3809.8, 1.0703e-06
3811.8, 9.4512e-07
3813.8, 1.0384e-06
3815.8, 9.8587e-07
3817.8, 9.9275e-07
3819.8, 1.0097e-06
3821.8, 9.2622e-07
3823.8, 9.7288e-07
3825.8, 1.0636e-06
3827.8, 1.0012e-06
3829.8, 9.0651e-07
3831.8, 8.6539e-07
3833.8, 1.1081e-06
3835.8, 9.4945e-07
3837.8, 1.0392e-06
3839.8, 9.558e-07
3841.8, 9.463e-07
3843.8, 9.9711e-07
3845.8, 9.7158e-07
3847.8, 9.65e-07
3849.8, 9.9567e-07
3851.8, 1.0193e-06
3853.8, 9.999e-07
3855.9, 1.0152e-06
3857.9, 9.6923e-07
3859.9, 1.0154e-06
3861.9, 9.7301e-07
3863.9, 1.0696e-06
3865.9, 1.0385e-06
3867.9, 9.9479e-07
3869.9, 9.4623e-07
3871.9, 9.5055e-07
3873.9, 9.8706e-07
3875.9, 9.7093e-07
3877.9, 1.063e-06
3879.9, 9.5211e-07
3881.9, 1.089e-06
3883.9, 9.3588e-07
3885.9, 1.0022e-06
3887.9, 9.395e-07
3889.9, 1.0236e-06
3891.9, 1.0138e-06
3893.9, 1.0954e-06
3895.9, 1.0437e-06
3897.9, 1.0122e-06
3899.9, 9.5001e-07
3901.9, 9.7781e-07
3903.9, 9.7885e-07
3905.9, 9.8616e-07
3907.9, 9.2549e-07
3909.9, 9.7783e-07
3911.9, 1.0478e-06
3913.9, 9.8275e-07
3915.9, 1.0062e-06
3917.9, 9.5253e-07
3919.9, 9.435e-07
3921.9, 9.7577e-07
3923.9, 9.763e-07
3925.9, 9.9486e-07
3927.9, 1.013e-06
3929.9, 9.7653e-07
3931.9, 9.0795e-07
3933.9, 9.9277e-07
3935.9, 1.0185e-06
3937.9, 1.0238e-06
3939.9, 9.9812e-07
3941.9, 9.7166e-07
3943.9, 9.7109e-07
3945.9, 1.0299e-06
3947.9, 9.2052e-07
3949.9, 1.0097e-06
3951.9, 9.2105e-07
3953.9, 9.8862e-07
3956.0, 1.0482e-06
3958.0, 1.0469e-06
3960.0, 9.3733e-07
3962.0, 9.9009e-07
3964.0, 9.4933e-07
3966.0, 1.0134e-06
3968.0, 1.0429e-06
3970.0, 9.7094e-07
3972.0, 9.6893e-07
3974.0, 1.0134e-06
3976.0, 1.0315e-06
3978.0, 1.0173e-06
3980.0, 9.7825e-07
3982.0, 9.2427e-07
3984.0, 1.024e-06
3986.0, 9.958e-07
3988.0, 1.0059e-06
3990.0, 9.8777e-07
3992.0, 1.0482e-06
3994.0, 9.8975e-07
3996.0, 9.8061e-07
3998.0, 1.0546e-06
4000.0, 9.51e-07
4002.0, 1.0023e-06
4004.0, 9.8428e-07
4006.0, 1.0191e-06
4008.0, 1.0197e-06
4010.0, 9.1725e-07
4012.0, 1.0313e-06
4014.0, 1.0193e-06
4016.0, 9.6585e-07
4018.0, 9.9747e-07
4020.0, 9.9351e-07
4022.0, 9.2353e-07
4024.0, 9.6568e-07
4026.0, 9.5804e-07
4028.0, 9.7554e-07
4030.0, 1.0474e-06
4032.0, 9.6981e-07
4034.0, 8.9443e-07
4036.0, 9.8669e-07
4038.0, 9.9145e-07
4040.0, 9.4087e-07
4042.0, 9.2626e-07
4044.0, 9.8731e-07
4046.0, 9.4089e-07
4048.0, 1.0429e-06
4050.0, 9.4344e-07
4052.0, 9.5372e-07
4054.0, 1.0101e-06
4056.1, 9.9443e-07
4058.1, 1.0678e-06
4060.1, 9.5142e-07
4062.1, 1.0526e-06
4064.1, 9.9651e-07
4066.1, 9.8519e-07
4068.1, 1.0145e-06
4070.1, 1.026e-06
4072.1, 9.86e-07
4074.1, 1.0178e-06
4076.1, 1.0027e-06
4078.1, 9.9095e-07
4080.1, 9.7428e-07
4082.1, 1.0285e-06
4084.1, 9.5922e-07
4086.1, 4.7104e-07
4088.1, -3.476e-08
4090.1, -3.552e-08
4092.1, -3.132e-08
4094.1, -3.424e-08
4096.1, -3.188e-08
4098.1, -3.331e-08
4100.1, -3.441e-08
4102.1, -3.512e-08
4104.1, -3.377e-08
4106.1, -3.223e-08
4108.1, -3.163e-08
4110.1, -3.199e-08
4112.1, -3.137e-08
4114.1, -2.972e-08
4116.1, -3.095e-08
4118.1, -3.071e-08
4120.1, -3.271e-08
4122.1, -2.965e-08
4124.1, -2.956e-08
4126.1, -3.412e-08
4128.1, -2.77e-08
4130.1, -3.321e-08
4132.1, -3.056e-08
4134.1, -3.379e-08
4136.1, -3.562e-08
4138.1, -3.719e-08
4140.1, -3.491e-08
4142.1, -3.233e-08
4144.1, -3.404e-08
4146.1, -3.4e-08
4148.1, -3.518e-08
4150.1, -3.781e-08
4152.1, -3.69e-08
4154.1, -3.665e-08
4156.2, -3.608e-08
4158.2, -3.522e-08
4160.2, -3.281e-08
4162.2, -3.308e-08
4164.2, -3.1e-08
4166.2, -3.239e-08
4168.2, -3.267e-08
4170.2, -3.448e-08
4172.2, -3.647e-08
4174.2, -3.283e-08
4176.2, -3.79e-08
4178.2, -3.797e-08
4180.2, -3.372e-08
4182.2, -3.511e-08
4184.2, -3.428e-08
4186.2, -3.581e-08
4188.2, -3.581e-08
4190.2, -3.58e-08
4192.2, -3.444e-08
4194.2, -3.125e-08
4196.2, -3.279e-08
4198.2, -3.468e-08
4200.2, -3.335e-08
4202.2, -3.336e-08
4204.2, -3.325e-08
4206.2, -3.194e-08
4208.2, -3.414e-08
4210.2, -3.006e-08
4212.2, -3.147e-08
4214.2, -3.538e-08
4216.2, -3.057e-08
4218.2, -2.983e-08
4220.2, -3.284e-08
4222.2, -3.091e-08
4224.2, -3.109e-08
4226.2, -3.455e-08
4228.2, -3.276e-08
4230.2, -3.182e-08
4232.2, -3.184e-08
4234.2, -3.261e-08
4236.2, -3.371e-08
4238.2, -3.197e-08
4240.2, -3.105e-08
4242.2, -3.316e-08
4244.2, -3.177e-08
4246.2, -3.462e-08
4248.2, -3.112e-08
4250.2, -3.192e-08
4252.2, -3.315e-08
4254.2, -3.058e-08
4256.3, -3.382e-08
4258.3, -2.919e-08
4260.3, -3.118e-08
4262.3, -3.244e-08
4264.3, -3.496e-08
4266.3, -3.464e-08
4268.3, -3.097e-08
4270.3, -3.397e-08
4272.3, -3.172e-08
4274.3, -3.332e-08
4276.3, -3.145e-08
4278.3, -3.641e-08
4280.3, -3.563e-08
4282.3, -3.3e-08
4284.3, -3.096e-08
4286.3, -3.118e-08
4288.3, -3.306e-08
4290.3, -3.268e-08
4292.3, -3.536e-08
4294.3, -3.376e-08
4296.3, -3.051e-08
4298.3, -3.182e-08
4300.3, -3.706e-08
4302.3, -3.713e-08
4304.3, -3.395e-08
4306.3, -3.663e-08
4308.3, -3.413e-08
4310.3, -3.29e-08
4312.3, -3.569e-08
4314.3, -3.351e-08
4316.3, -3.342e-08
4318.3, -3.119e-08
4320.3, -3.121e-08
4322.3, -3.701e-08
4324.3, -3.452e-08
4326.3, -3.482e-08
4328.3, -3.517e-08
4330.3, -3.148e-08
4332.3, -3.041e-08
4334.3, -3.178e-08
4336.3, -3.379e-08
4338.3, -3.256e-08
4340.3, -3.208e-08
4342.3, -3.394e-08
4344.3, -3.317e-08
4346.3, -3.72e-08
4348.3, -3.532e-08
4350.3, -3.525e-08
4352.3, -3.361e-08
4354.3, -3.417e-08
4356.4, -3.629e-08
4358.4, -3.594e-08
4360.4, -3.441e-08
4362.4, -3.383e-08
4364.4, -3.194e-08
4366.4, -3.197e-08
4368.4, -3.7e-08
4370.4, -3.592e-08
4372.4, -3.074e-08
4374.4, -3.581e-08
4376.4, -3.439e-08
4378.4, -2.962e-08
4380.4, -3.489e-08
4382.4, -3.152e-08
4384.4, -3.24e-08
4386.4, -3.193e-08
4388.4, -3.155e-08
4390.4, -3.531e-08
4392.4, -3.538e-08
4394.4, -3.263e-08
4396.4, -3.541e-08
4398.4, -3.331e-08
4400.4, -3.444e-08
4402.4, -3.635e-08
4404.4, -3.294e-08
4406.4, -2.988e-08
4408.4, -3.172e-08
4410.4, -3.279e-08
4412.4, -3.198e-08
4414.4, -2.813e-08
4416.4, -3.023e-08
4418.4, -3.206e-08
4420.4, -2.969e-08
4422.4, -3.453e-08
4424.4, -3.228e-08
4426.4, -3.443e-08
4428.4, -3.578e-08
4430.4, -3.309e-08
4432.4, -3.213e-08
4434.4, -3.129e-08
4436.4, -3.277e-08
4438.4, -2.944e-08
4440.4, -3.219e-08
4442.4, -3.264e-08
4444.4, -3.457e-08
4446.4, -3.289e-08
4448.4, -3.447e-08
4450.4, -3.296e-08
4452.4, -3.358e-08
4454.4, -3.403e-08
4456.5, -3.491e-08
4458.5, -3.554e-08
4460.5, -3.501e-08
4462.5, -3.43e-08
4464.5, -3.557e-08
4466.5, -3.538e-08
4468.5, -3.539e-08
4470.5, -3.706e-08
4472.5, -3.558e-08
4474.5, -3.417e-08
4476.5, -3.079e-08
4478.5, -3.418e-08
4480.5, -3.336e-08
4482.5, -3.174e-08
4484.5, -3.322e-08
4486.5, -3.666e-08
4488.5, -3.319e-08
4490.5, -3.476e-08
4492.5, -3.295e-08
4494.5, -3.268e-08
4496.5, -3.107e-08
4498.5, -3.301e-08
4500.5, -3.448e-08
4502.5, -3.127e-08
4504.5, -3.478e-08
4506.5, -3.174e-08
4508.5, -3.451e-08
4510.5, -3.297e-08
4512.5, -3.513e-08
4514.5, -3.37e-08
4516.5, -3.435e-08
4518.5, -3.349e-08
4520.5, -3.383e-08
4522.5, -3.157e-08
4524.5, -3.01e-08
4526.5, -3.175e-08
4528.5, -3.33e-08
4530.5, -3.208e-08
4532.5, -3.339e-08
4534.5, -2.954e-08
4536.5, -3.334e-08
4538.5, -3.507e-08
4540.5, -3.202e-08
4542.5, -3.28e-08
4544.5, -3.28e-08
4546.5, -3.298e-08
4548.5, -3.115e-08
4550.5, -3.387e-08
4552.5, -3.34e-08
4554.5, -3.34e-08
4556.6, -3.525e-08
4558.6, -3.602e-08
4560.6, -3.784e-08
4562.6, -3.474e-08
4564.6, -3.492e-08
4566.6, -3.181e-08
4568.6, -3.219e-08
4570.6, -2.977e-08
4572.6, -3.232e-08
4574.6, -2.8e-08
4576.6, -3.477e-08
4578.6, -3.306e-08
4580.6, -3.634e-08
4582.6, -3.609e-08
4584.6, -3.743e-08
4586.6, -3.689e-08
4588.6, -3.251e-08
4590.6, -3.286e-08
4592.6, -3.383e-08
4594.6, -3.561e-08
4596.6, -3.583e-08
4598.6, -3.695e-08
4600.6, -3.354e-08
4602.6, -3.481e-08
4604.6, -3.858e-08
4606.6, -3.567e-08
4608.6, -3.706e-08
4610.6, -3.605e-08
4612.6, -3.563e-08
4614.6, -3.689e-08
4616.6, -3.234e-08
4618.6, -3.317e-08
4620.6, -3.32e-08
4622.6, -3.407e-08
4624.6, -3.265e-08
4626.6, -3.283e-08
4628.6, -3.482e-08
4630.6, -3.208e-08
4632.6, -3.137e-08
4634.6, -3.541e-08
4636.6, -3.528e-08
4638.6, -3.218e-08
4640.6, -3.462e-08
4642.6, -3.163e-08
4644.6, -3.261e-08
4646.6, -3.419e-08
4648.6, -3.504e-08
4650.6, -3.313e-08
4652.6, -3.916e-08
4654.6, -3.65e-08
4656.7, -3.66e-08
4658.7, -3.734e-08
4660.7, -3.623e-08
4662.7, -3.708e-08
4664.7, -3.854e-08
4666.7, -3.735e-08
4668.7, -3.535e-08
4670.7, -3.855e-08
4672.7, -3.931e-08
4674.7, -3.769e-08
4676.7, -3.624e-08
4678.7, -3.919e-08
4680.7, -3.431e-08
4682.7, -3.604e-08
4684.7, -3.255e-08
4686.7, -3.158e-08
4688.7, -3.309e-08
4690.7, -3.056e-08
4692.7, -3.475e-08
4694.7, -3.718e-08
4696.7, -3.613e-08
4698.7, -3.332e-08
4700.7, -3.462e-08
4702.7, -3.45e-08
4704.7, -3.383e-08
4706.7, -3.853e-08
4708.7, -3.389e-08
4710.7, -3.282e-08
4712.7, -3.172e-08
4714.7, -3.396e-08
4716.7, -3.478e-08
4718.7, -3.643e-08
4720.7, -3.524e-08
4722.7, -3.817e-08
4724.7, -3.664e-08
4726.7, -3.56e-08
4728.7, -3.671e-08
4730.7, -3.56e-08
4732.7, -3.721e-08
4734.7, -3.466e-08
4736.7, -3.142e-08
4738.7, -3.194e-08
4740.7, -3.051e-08
4742.7, -3.087e-08
4744.7, -3.102e-08
4746.7, -3.639e-08
4748.7, -3.626e-08
4750.7, -3.363e-08
4752.7, -3.548e-08
4754.7, -3.469e-08
4756.8, -3.225e-08
4758.8, -2.956e-08
4760.8, -3.232e-08
4762.8, -3.059e-08
4764.8, -2.94e-08
4766.8, -3.407e-08
4768.8, -3.14e-08
4770.8, -3.208e-08
4772.8, -2.855e-08
4774.8, -3.001e-08
4776.8, -3.001e-08
4778.8, -3.141e-08
4780.8, -2.98e-08
4782.8, -3.021e-08
4784.8, -3.454e-08
4786.8, -3.576e-08
4788.8, -3.503e-08
4790.8, -3.429e-08
4792.8, -3.666e-08
4794.8, -3.295e-08
4796.8, -3.403e-08
4798.8, -3.599e-08
4800.8, -3.348e-08
4802.8, -3.444e-08
4804.8, -3.534e-08
4806.8, -3.427e-08
4808.8, -3.263e-08
4810.8, -3.357e-08
4812.8, -3.214e-08
4814.8, -3.164e-08
4816.8, -3.586e-08
4818.8, -3.664e-08
4820.8, -3.291e-08
4822.8, -3.594e-08
4824.8, -3.396e-08
4826.8, -3.443e-08
4828.8, -3.131e-08
4830.8, -3.189e-08
4832.8, -3.17e-08
4834.8, -3.388e-08
4836.8, -3.205e-08
4838.8, -3.094e-08
4840.8, -2.995e-08
4842.8, -2.742e-08
4844.8, -3.074e-08
4846.8, -3.123e-08
4848.8, -3.369e-08
4850.8, -3.288e-08
4852.8, -2.781e-08
4854.8, -3.51e-08
4856.9, -2.933e-08
4858.9, -3.378e-08
4860.9, -2.958e-08
4862.9, -3.446e-08
4864.9, -3.338e-08
4866.9, -3.321e-08
4868.9, -3.469e-08
4870.9, -3.262e-08
4872.9, -3.037e-08
4874.9, -3.17e-08
4876.9, -2.968e-08
4878.9, -3.209e-08
4880.9, -3.17e-08
4882.9, -2.825e-08
4884.9, -3.072e-08
4886.9, -3.063e-08
4888.9, -3.191e-08
4890.9, -3.159e-08
4892.9, -3.378e-08
4894.9, -3.524e-08
4896.9, -3.781e-08
4898.9, -3.234e-08
4900.9, -3.301e-08
4902.9, -3.318e-08
4904.9, -3.396e-08
4906.9, -3.477e-08
4908.9, -3.655e-08
4910.9, -3.044e-08
4912.9, -3.677e-08
4914.9, -3.317e-08
4916.9, -3.352e-08
4918.9, -3.036e-08
4920.9, -3.31e-08
4922.9, -3.244e-08
4924.9, -3.144e-08
4926.9, -3.213e-08
4928.9, -3.243e-08
4930.9, -3.129e-08
4932.9, -3.092e-08
4934.9, -3.229e-08
4936.9, -2.997e-08
4938.9, -2.804e-08
4940.9, -2.649e-08
4942.9, -2.697e-08
4944.9, -2.739e-08
4946.9, -3.073e-08
4948.9, -2.769e-08
4950.9, -2.8e-08
4952.9, -2.665e-08
4954.9, -3.103e-08
4957.0, -3.025e-08
4959.0, -3.067e-08
4961.0, -3.035e-08
4963.0, -2.671e-08
4965.0, -2.776e-08
4967.0, -2.679e-08
4969.0, -2.962e-08
4971.0, -2.726e-08
4973.0, -2.897e-08
4975.0, -2.722e-08
4977.0, -2.684e-08
4979.0, -2.815e-08
4981.0, -2.911e-08
4983.0, -3.2e-08
4985.0, -3.018e-08
4987.0, -3.293e-08
4989.0, -3.098e-08
4991.0, -3.038e-08
4993.0, -2.977e-08
4995.0, -2.856e-08
4997.0, -3.117e-08
4999.0, -3.025e-08
5001.0, -2.913e-08
5003.0, -2.814e-08
5005.0, -2.972e-08
5007.0, -3.212e-08
5009.0, -3.155e-08
5011.0, -3.1e-08
5013.0, -2.864e-08
5015.0, -2.832e-08
5017.0, -2.95e-08
5019.0, -2.95e-08
5021.0, -3.02e-08
5023.0, -3.285e-08
5025.0, -2.957e-08
5027.0, -3.111e-08
5029.0, -3.302e-08
5031.0, -3.031e-08
5033.0, -3.265e-08
5035.0, -3.284e-08
5037.0, -3.338e-08
5039.0, -3.017e-08
5041.0, -3.152e-08
5043.0, -3.008e-08
5045.0, -3.127e-08
5047.0, -2.914e-08
5049.0, -3.086e-08
5051.0, -2.834e-08
5053.0, -2.997e-08
5055.0, -2.925e-08
5057.1, -3.249e-08
5059.1, -3.327e-08
5061.1, -3.376e-08
5063.1, -3.288e-08
5065.1, -3.274e-08
5067.1, -3.181e-08
5069.1, -2.986e-08
5071.1, -3.068e-08
5073.1, -3.249e-08
5075.1, -3.096e-08
5077.1, -3.344e-08
5079.1, -3.173e-08
5081.1, -3.273e-08
5083.1, -3.137e-08
5085.1, -3.11e-08
5087.1, -3.023e-08
5089.1, -3.222e-08
5091.1, -2.863e-08
5093.1, -3.39e-08
5095.1, -3.283e-08
5097.1, -3.029e-08
5099.1, -3.267e-08
5101.1, -2.901e-08
5103.1, -3.198e-08
5105.1, -2.843e-08
5107.1, -3.4e-08
5109.1, -3.033e-08
5111.1, -3.118e-08
5113.1, -3.064e-08
5115.1, -3.291e-08
5117.1, -3.052e-08
5119.1, -3.218e-08
5121.1, -3.272e-08
5123.1, -3.197e-08
5125.1, -3.192e-08
5127.1, -2.996e-08
5129.1, -3.127e-08
5131.1, -2.945e-08
5133.1, -2.974e-08
5135.1, -3.145e-08
5137.1, -3.148e-08
5139.1, -3.017e-08
5141.1, -3.427e-08
5143.1, -3.446e-08
5145.1, -3.365e-08
5147.1, -3.211e-08
5149.1, -3.131e-08
5151.1, -3.5e-08
5153.1, -3.146e-08
5155.1, -3.224e-08
5157.2, -3.051e-08
5159.2, -3.059e-08
5161.2, -3.069e-08
5163.2, -3.043e-08
5165.2, -3.013e-08
5167.2, 9.9836e-07
5169.2, 9.0137e-07
5171.2, 9.1835e-07
5173.2, 8.5652e-07
5175.2, 8.7627e-07
5177.2, 9.1026e-07
5179.2, 9.2789e-07
5181.2, 8.6576e-07
5183.2, 8.3537e-07
5185.2, 8.1949e-07
5187.2, 8.9629e-07
5189.2, 8.271e-07
5191.2, 8.7783e-07
5193.2, 9.2843e-07
5195.2, 8.329e-07
5197.2, 8.1192e-07
5199.2, 9.6239e-07
5201.2, 9.4331e-07
5203.2, 8.5291e-07
5205.2, 9.1435e-07
5207.2, 9.11e-07
5209.2, 9.1181e-07
5211.2, 9.6075e-07
5213.2, 9.975e-07
5215.2, 8.9055e-07
5217.2, 9.2058e-07
5219.2, 9.0265e-07
5221.2, 9.3643e-07
5223.2, 8.5272e-07
5225.2, 8.8016e-07
5227.2, 8.2397e-07
5229.2, 8.4347e-07
5231.2, 8.4759e-07
5233.2, 8.8738e-07
5235.2, 8.6931e-07
5237.2, 9.2662e-07
5239.2, 8.7269e-07
5241.2, 9.7626e-07
5243.2, 9.1264e-07
5245.2, 9.101e-07
5247.2, 8.3619e-07
5249.2, 8.9151e-07
5251.2, 8.8295e-07
5253.2, 9.2295e-07
5255.2, 9.8622e-07
5257.3, 9.5584e-07
5259.3, 9.7543e-07
5261.3, 1.0082e-06
5263.3, 9.3712e-07
5265.3, 9.9798e-07
5267.3, 9.7808e-07
5269.3, 8.9422e-07
5271.3, 9.4323e-07
5273.3, 9.0168e-07
5275.3, 9.3348e-07
5277.3, 9.5461e-07
5279.3, 8.8914e-07
5281.3, 8.9718e-07
5283.3, 9.5801e-07
5285.3, 9.0708e-07
5287.3, 8.9299e-07
5289.3, 9.1947e-07
5291.3, 9.0465e-07
5293.3, 9.6804e-07
5295.3, 9.7146e-07
5297.3, 9.3843e-07
5299.3, 8.5739e-07
5301.3, 9.1613e-07
5303.3, 8.8899e-07
5305.3, 9.3222e-07
5307.3, 9.5144e-07
5309.3, 9.3157e-07
5311.3, 9.5822e-07
5313.3, 9.0027e-07
5315.3, 8.9935e-07
5317.3, 9.545e-07
5319.3, 9.2527e-07
5321.3, 8.8602e-07
5323.3, 8.9877e-07
5325.3, 9.5429e-07
5327.3, 8.7052e-07
5329.3, 8.7363e-07
5331.3, 9.7446e-07
5333.3, 1.0557e-06
5335.3, 9.5224e-07
5337.3, 9.318e-07
5339.3, 1.0083e-06
5341.3, 9.5058e-07
5343.3, 9.4043e-07
5345.3, 9.4745e-07
5347.3, 1.0619e-06
5349.3, 9.4731e-07
5351.3, 1.0154e-06
5353.3, 9.6247e-07
5355.3, 1.0078e-06
5357.4, 8.74e-07
5359.4, 9.3676e-07
5361.4, 8.3009e-07
5363.4, 9.2713e-07
5365.4, 9.7844e-07
5367.4, 9.0986e-07
5369.4, 9.5301e-07
5371.4, 9.164e-07
5373.4, 1.0119e-06
5375.4, 9.3362e-07
5377.4, 9.4699e-07
5379.4, 9.2491e-07
5381.4, 9.8175e-07
5383.4, 8.8901e-07
5385.4, 9.1373e-07
5387.4, 1.028e-06
5389.4, 9.1328e-07
5391.4, 9.1118e-07
5393.4, 9.0526e-07
5395.4, 9.0338e-07
5397.4, 8.7853e-07
5399.4, 9.031e-07
5401.4, 9.7932e-07
5403.4, 1.0207e-06
5405.4, 9.914e-07
5407.4, 9.1047e-07
5409.4, 9.2476e-07
5411.4, 8.8826e-07
5413.4, 9.8309e-07
5415.4, 8.8282e-07
5417.4, 1.0149e-06
5419.4, 8.9067e-07
5421.4, 1.0615e-06
5423.4, 9.7556e-07
5425.4, 9.7953e-07
5427.4, 9.7962e-07
5429.4, 9.7112e-07
5431.4, 9.2841e-07
5433.4, 1.0473e-06
5435.4, 1.005e-06
5437.4, 1.0235e-06
5439.4, 9.6612e-07
5441.4, 9.1849e-07
5443.4, 9.4855e-07
5445.4, 9.6392e-07
5447.4, 9.3411e-07
5449.4, 1.0188e-06
5451.4, 9.116e-07
5453.4, 9.6117e-07
5455.4, 9.9004e-07
5457.5, 9.8464e-07
5459.5, 9.7332e-07
5461.5, 9.496e-07
5463.5, 9.2912e-07
5465.5, 9.9251e-07
5467.5, 9.4282e-07
5469.5, 9.7283e-07
5471.5, 1.0088e-06
5473.5, 9.1629e-07
5475.5, 9.6143e-07
5477.5, 1.002e-06
5479.5, 9.4385e-07
5481.5, 1.0417e-06
5483.5, 9.7469e-07
5485.5, 9.8459e-07
5487.5, 8.7169e-07
5489.5, 1.0269e-06
5491.5, 9.5256e-07
5493.5, 9.5776e-07
5495.5, 1.0073e-06
5497.5, 9.0311e-07
5499.5, 9.638e-07
5501.5, 9.4476e-07
5503.5, 9.3172e-07
5505.5, 9.6007e-07
5507.5, 9.5065e-07
5509.5, 1.0439e-06
5511.5, 1.0188e-06
5513.5, 9.1117e-07
5515.5, 1.0171e-06
5517.5, 9.9526e-07
5519.5, 9.1009e-07
5521.5, 9.7758e-07
5523.5, 9.586e-07
5525.5, 1.0674e-06
5527.5, 1.0013e-06
5529.5, 9.9148e-07
5531.5, 9.962e-07
5533.5, 9.525e-07
5535.5, 9.4998e-07
5537.5, 9.8198e-07
5539.5, 8.9432e-07
5541.5, 1.015e-06
5543.5, 1.036e-06
5545.5, 1.0539e-06
5547.5, 9.8626e-07
5549.5, 9.8615e-07
5551.5, 1.0057e-06
5553.5, 9.8876e-07
5555.5, 9.8576e-07
5557.6, 9.4692e-07
5559.6, 9.8017e-07
5561.6, 1.0379e-06
5563.6, 9.9836e-07
5565.6, 1.0101e-06
5567.6, 9.6949e-07
5569.6, 9.7154e-07
5571.6, 1.0486e-06
5573.6, 9.8297e-07
5575.6, 9.195e-07
5577.6, 9.8956e-07
5579.6, 9.2072e-07
5581.6, 9.5944e-07
5583.6, 9.79e-07
5585.6, 9.3303e-07
5587.6, 9.2478e-07
5589.6, 9.7212e-07
5591.6, 9.7189e-07
5593.6, 1.0068e-06
5595.6, 1.0242e-06
5597.6, 9.2934e-07
5599.6, 9.8041e-07
5601.6, 9.6472e-07
5603.6, 9.3722e-07
5605.6, 9.8829e-07
5607.6, 1.0951e-06
5609.6, 1.0066e-06
5611.6, 9.3587e-07
5613.6, 9.7523e-07
5615.6, 1.015e-06
5617.6, 9.5287e-07
5619.6, 9.5938e-07
5621.6, 9.0313e-07
5623.6, 9.5623e-07
5625.6, 9.5395e-07
5627.6, 8.5466e-07
5629.6, 1.0477e-06
5631.6, 1.0696e-06
5633.6, 9.6586e-07
5635.6, 9.6929e-07
5637.6, 1.0678e-06
5639.6, 9.4649e-07
5641.6, 1.065e-06
5643.6, 9.0391e-07
5645.6, 1.0111e-06
5647.6, 1.0064e-06
5649.6, 9.5813e-07
5651.6, 1.0212e-06
5653.6, 9.9374e-07
5655.6, 1.0063e-06
5657.7, 9.9794e-07
5659.7, 1.0047e-06
5661.7, 9.9603e-07
5663.7, 9.2771e-07
5665.7, 1.0321e-06
5667.7, 1.0001e-06
5669.7, 9.5572e-07
5671.7, 9.7099e-07
5673.7, 1.0104e-06
5675.7, 9.3584e-07
5677.7, 9.9651e-07
5679.7, 9.6211e-07
5681.7, 1.0536e-06
5683.7, 1.0511e-06
5685.7, 1.0053e-06
5687.7, 9.6816e-07
5689.7, 9.8123e-07
5691.7, 9.5588e-07
5693.7, 9.7378e-07
5695.7, 1.0233e-06
5697.7, 1.0547e-06
5699.7, 9.5267e-07
5701.7, 9.9715e-07
5703.7, 9.769e-07
5705.7, 9.7156e-07
5707.7, 1.0581e-06
5709.7, 1.014e-06
5711.7, 1.0121e-06
5713.7, 1.0058e-06
5715.7, 9.7764e-07
5717.7, 9.8538e-07
5719.7, 9.7777e-07
5721.7, 1.0221e-06
5723.7, 9.5629e-07
5725.7, 1.035e-06
5727.7, 9.8286e-07
5729.7, 9.064e-07
5731.7, 9.9466e-07
5733.7, 9.8546e-07
5735.7, 9.8545e-07
5737.7, 9.4947e-07
5739.7, 1.0042e-06
5741.7, 9.6635e-07
5743.7, 9.2782e-07
5745.7, 9.1272e-07
5747.7, 9.6593e-07
5749.7, 9.8349e-07
5751.7, 9.9146e-07
5753.7, 9.8161e-07
5755.7, 1.019e-06
5757.8, 9.0271e-07
5759.8, 9.9042e-07
5761.8, 9.382e-07
5763.8, 9.8789e-07
5765.8, 9.7168e-07
5767.8, 9.8539e-07
5769.8, 9.9821e-07
5771.8, 1.0474e-06
5773.8, 9.968e-07
5775.8, 9.8848e-07
5777.8, 1.0117e-06
5779.8, 9.8754e-07
5781.8, 9.7504e-07
5783.8, 9.594e-07
5785.8, 9.7729e-07
5787.8, 1.0164e-06
5789.8, 9.8296e-07
5791.8, 9.3428e-07
5793.8, 1.0099e-06
5795.8, 9.934e-07
5797.8, 9.9762e-07
5799.8, 9.5917e-07
5801.8, 9.2776e-07
5803.8, 1.0279e-06
5805.8, 9.7269e-07
5807.8, 9.5754e-07
5809.8, 9.8861e-07
5811.8, 1.005e-06
5813.8, 1.0374e-06
5815.8, 1.0078e-06
5817.8, 1.0059e-06
5819.8, 9.7787e-07
5821.8, 1.0063e-06
5823.8, 9.729e-07
5825.8, 1.0111e-06
5827.8, 9.7772e-07
5829.8, 9.8984e-07
5831.8, 9.4056e-07
5833.8, 9.6788e-07
5835.8, 9.8652e-07
5837.8, 1.0292e-06
5839.8, 1.0274e-06
5841.8, 9.4237e-07
5843.8, 9.0104e-07
5845.8, 9.2406e-07
5847.8, 1.0245e-06
5849.8, 9.8771e-07
5851.8, 1.0647e-06
5853.8, 9.7545e-07
5855.8, 1.0064e-06
5857.9, 9.7887e-07
5859.9, 1.0609e-06
5861.9, 9.9175e-07
5863.9, 1.0017e-06
5865.9, 1.0804e-06
5867.9, 1.0006e-06
5869.9, 9.3771e-07
5871.9, 9.6432e-07
5873.9, 1.0078e-06
5875.9, 9.3499e-07
5877.9, 9.7677e-07
5879.9, 9.9578e-07
5881.9, 9.5378e-07
5883.9, 1.0229e-06
5885.9, 1.042e-06
5887.9, 1.018e-06
5889.9, 9.6791e-07
5891.9, 9.3393e-07
5893.9, 9.5588e-07
5895.9, 9.6068e-07
5897.9, 9.7635e-07
5899.9, 1.029e-06
5901.9, 9.9943e-07
5903.9, 1.0789e-06
5905.9, 9.7259e-07
5907.9, 9.8843e-07
5909.9, 8.9945e-07
5911.9, 9.864e-07
5913.9, 9.9856e-07
5915.9, 9.3953e-07
5917.9, 9.7127e-07
5919.9, 9.2634e-07
5921.9, 1.0823e-06
5923.9, 1.0002e-06
5925.9, 9.8013e-07
5927.9, 1.0804e-06
5929.9, 9.6223e-07
5931.9, 9.9823e-07
5933.9, 9.7338e-07
5935.9, 9.7686e-07
5937.9, 9.8465e-07
5939.9, 9.9475e-07
5941.9, 1.0055e-06
5943.9, 1.0482e-06
5945.9, 1.0724e-06
5947.9, 9.7573e-07
5949.9, 1.0315e-06
5951.9, 1.0113e-06
5953.9, 9.7909e-07
5955.9, 1.0468e-06
5958.0, 9.8438e-07
5960.0, 9.5363e-07
5962.0, 9.9597e-07
5964.0, 1.0131e-06
5966.0, 1.0629e-06
5968.0, 1.0785e-06
5970.0, 9.609e-07
5972.0, 9.8336e-07
5974.0, 9.8074e-07
5976.0, 9.6442e-07
5978.0, 1.0073e-06
5980.0, 9.6718e-07
5982.0, 1.0065e-06
5984.0, 9.9927e-07
5986.0, 9.6573e-07
5988.0, 9.9148e-07
5990.0, 9.1952e-07
5992.0, 9.6082e-07
5994.0, 9.6442e-07
5996.0, 8.8645e-07
5998.0, 9.1945e-07
6000.0, 1.0334e-06
6002.0, 1.0037e-06
6004.0, 9.8764e-07
6006.0, 1.0098e-06
6008.0, 9.0042e-07
6010.0, 1.0106e-06
6012.0, 1.0464e-06
6014.0, 9.7774e-07
6016.0, 9.8791e-07
6018.0, 1.0387e-06
6020.0, 1.0001e-06
6022.0, 1.031e-06
6024.0, 1.0288e-06
6026.0, 1.0355e-06
6028.0, 9.6158e-07
6030.0, 9.2432e-07
6032.0, 1.0323e-06
6034.0, 9.9174e-07
6036.0, 1.0388e-06
6038.0, 1.0049e-06
6040.0, 9.5869e-07
6042.0, 9.9076e-07
6044.0, 1.0581e-06
6046.0, 1.055e-06
6048.0, 9.7155e-07
6050.0, 9.9846e-07
6052.0, 9.1476e-07
6054.0, 1.0274e-06
6056.0, 1.0477e-06
6058.1, 9.7707e-07
6060.1, 1.0052e-06
6062.1, 9.8219e-07
6064.1, 9.9543e-07
6066.1, 1.0549e-06
6068.1, 9.8251e-07
6070.1, 9.541e-07
6072.1, 1.0657e-06
6074.1, 1.0312e-06
6076.1, 1.0093e-06
6078.1, 1.0174e-06
6080.1, 8.7482e-07
6082.1, 9.3204e-07
6084.1, 9.449e-07
6086.1, 1.0001e-06
6088.1, 9.7176e-07
6090.1, 9.5884e-07
6092.1, 9.665e-07
6094.1, 9.528e-07
6096.1, 9.5251e-07
6098.1, 9.809e-07
6100.1, 9.5978e-07
6102.1, 1.0469e-06
6104.1, 9.4015e-07
6106.1, 9.541e-07
6108.1, 1.0888e-06
6110.1, 9.7e-07
6112.1, 9.352e-07
6114.1, 1.0144e-06
6116.1, 1.0217e-06
6118.1, 1.0207e-06
6120.1, 1.0175e-06
6122.1, 1.0491e-06
6124.1, 1.0054e-06
6126.1, 1.009e-06
6128.1, 9.9025e-07
6130.1, 9.9555e-07
6132.1, 1.0141e-06
6134.1, 9.9085e-07
6136.1, 1e-06
6138.1, 9.8158e-07
6140.1, 1.0278e-06
6142.1, 1.057e-06
6144.1, 1.0078e-06
6146.1, 9.7575e-07
6148.1, 9.9217e-07
6150.1, 1.0445e-06
6152.1, 9.851e-07
6154.1, 1.0158e-06
6156.1, 1.009e-06
6158.2, 9.666e-07
6160.2, 1.0119e-06
6162.2, 9.8229e-07
6164.2, 9.343e-07
6166.2, 1.0311e-06
6168.2, -2.676e-08
6170.2, -3.125e-08
6172.2, -3.054e-08
6174.2, -2.959e-08
6176.2, -2.917e-08
6178.2, -2.711e-08
6180.2, -2.934e-08
6182.2, -2.983e-08
6184.2, -2.984e-08
6186.2, -3.021e-08
6188.2, -2.963e-08
6190.2, -3.427e-08
6192.2, -3.105e-08
6194.2, -3.44e-08
6196.2, -3.261e-08
6198.2, -3.111e-08
6200.2, -3.218e-08
6202.2, -3.202e-08
6204.2, -3.036e-08
6206.2, -3.175e-08
6208.2, -3.664e-08
6210.2, -3.262e-08
6212.2, -3.057e-08
6214.2, -3.367e-08
6216.2, -3.437e-08
6218.2, -3.252e-08
6220.2, -3.385e-08
6222.2, -3.3e-08
6224.2, -3.183e-08
6226.2, -3.312e-08
6228.2, -3.347e-08
6230.2, -3.388e-08
6232.2, -3.458e-08
6234.2, -3.176e-08
6236.2, -3.605e-08
6238.2, -3.643e-08
6240.2, -3.331e-08
6242.2, -3.361e-08
6244.2, -3.375e-08
6246.2, -3.482e-08
6248.2, -3.198e-08
6250.2, -3.596e-08
6252.2, -3.517e-08
6254.2, -3.476e-08
6256.2, -3.348e-08
6258.3, -3.091e-08
6260.3, -3.53e-08
6262.3, -3.49e-08
6264.3, -3.664e-08
6266.3, -3.449e-08
6268.3, -3.661e-08
6270.3, -3.642e-08
6272.3, -3.652e-08
6274.3, -3.44e-08
6276.3, -3.269e-08
6278.3, -3.661e-08
6280.3, -3.327e-08
6282.3, -3.612e-08
6284.3, -3.597e-08
6286.3, -3.09e-08
6288.3, -3.176e-08
6290.3, -3.165e-08
6292.3, -3.202e-08
6294.3, -3.439e-08
6296.3, -3.09e-08
6298.3, -3.212e-08
6300.3, -2.957e-08
6302.3, -3.944e-08
6304.3, -3.55e-08
6306.3, -3.45e-08
6308.3, -3.139e-08
6310.3, -3.407e-08
6312.3, -3.61e-08
6314.3, -3.472e-08
6316.3, -3.258e-08
6318.3, -3.413e-08
6320.3, -3.188e-08
6322.3, -3.184e-08
6324.3, -3.228e-08
6326.3, -3.121e-08
6328.3, -3.356e-08
6330.3, -3.268e-08
6332.3, -3.746e-08
6334.3, -3.455e-08
6336.3, -3.485e-08
6338.3, -3.224e-08
6340.3, -3.337e-08
6342.3, -2.764e-08
6344.3, -3.202e-08
6346.3, -3.103e-08
6348.3, -3.325e-08
6350.3, -3.062e-08
6352.3, -2.988e-08
6354.3, -3.083e-08
6356.3, -3.204e-08
6358.4, -2.929e-08
6360.4, -3.083e-08
6362.4, -2.802e-08
6364.4, -3.002e-08
6366.4, -2.702e-08
6368.4, -3.246e-08
6370.4, -3.064e-08
6372.4, -3.334e-08
6374.4, -3.358e-08
6376.4, -3.147e-08
6378.4, -3.091e-08
6380.4, -3.12e-08
6382.4, -3.261e-08
6384.4, -3.341e-08
6386.4, -3.167e-08
6388.4, -3.029e-08
6390.4, -2.938e-08
6392.4, -2.63e-08
6394.4, -3.185e-08
6396.4, -3.029e-08
6398.4, -3.272e-08
6400.4, -3.868e-08
6402.4, -3.834e-08
6404.4, -3.123e-08
6406.4, -3.138e-08
6408.4, -3.086e-08
6410.4, -2.864e-08
6412.4, -3.109e-08
6414.4, -2.962e-08
6416.4, -3.02e-08
6418.4, -2.881e-08
6420.4, -3.018e-08
6422.4, -3.085e-08
6424.4, -2.91e-08
6426.4, -2.849e-08
6428.4, -2.589e-08
6430.4, -3.196e-08
6432.4, -3.019e-08
6434.4, -2.686e-08
6436.4, -2.899e-08
6438.4, -3.153e-08
6440.4, -3.209e-08
6442.4, -3.303e-08
6444.4, -2.813e-08
6446.4, -2.956e-08
6448.4, -3.108e-08
6450.4, -3.049e-08
6452.4, -2.958e-08
6454.4, -3.111e-08
6456.4, -2.82e-08
6458.5, -3.005e-08
6460.5, -2.912e-08
6462.5, -2.599e-08
6464.5, -3.083e-08
6466.5, -3.189e-08
6468.5, -3.285e-08
6470.5, -2.934e-08
6472.5, -3.056e-08
6474.5, -3.173e-08
6476.5, -3.053e-08
6478.5, -3.308e-08
6480.5, -3.069e-08
6482.5, -3.247e-08
6484.5, -2.986e-08
6486.5, -3.38e-08
6488.5, -2.979e-08
6490.5, -3.071e-08
6492.5, -3.158e-08
6494.5, -2.606e-08
6496.5, -3.008e-08
6498.5, -2.939e-08
6500.5, -3.26e-08
6502.5, -3.176e-08
6504.5, -3.087e-08
6506.5, -3.147e-08
6508.5, -3.23e-08
6510.5, -3.143e-08
6512.5, -3.17e-08
6514.5, -3.392e-08
6516.5, -3.048e-08
6518.5, -3.158e-08
6520.5, -3.16e-08
6522.5, -3.272e-08
6524.5, -2.716e-08
6526.5, -2.79e-08
6528.5, -3.322e-08
6530.5, -3.132e-08
6532.5, -2.796e-08
6534.5, -3.154e-08
6536.5, -3.214e-08
6538.5, -3.284e-08
6540.5, -3.283e-08
6542.5, -3.248e-08
6544.5, -3.509e-08
6546.5, -3.539e-08
6548.5, -3.239e-08
6550.5, -3.14e-08
6552.5, -3.201e-08
6554.5, -3.349e-08
6556.5, -3.384e-08
6558.6, -3.37e-08
6560.6, -3.183e-08
6562.6, -3.14e-08
6564.6, -3.198e-08
6566.6, -3.351e-08
6568.6, -3.284e-08
6570.6, -3.266e-08
6572.6, -3.536e-08
6574.6, -3.442e-08
6576.6, -3.276e-08
6578.6, -3.397e-08
6580.6, -3.437e-08
6582.6, -3.49e-08
6584.6, -3.27e-08
6586.6, -3.26e-08
6588.6, -3.27e-08
6590.6, -3.204e-08
6592.6, -2.984e-08
6594.6, -3.235e-08
6596.6, -2.969e-08
6598.6, -3.145e-08
6600.6, -3.052e-08
6602.6, -3.058e-08
6604.6, -2.979e-08
6606.6, -2.869e-08
6608.6, -3.141e-08
6610.6, -3.3e-08
6612.6, -3.18e-08
6614.6, -3.281e-08
6616.6, -3.519e-08
6618.6, -3.376e-08
6620.6, -3.397e-08
6622.6, -3.4e-08
6624.6, -3.203e-08
6626.6, -3.205e-08
6628.6, -3.386e-08
6630.6, -3.183e-08
6632.6, -3.096e-08
6634.6, -3.042e-08
6636.6, -3.312e-08
6638.6, -3.316e-08
6640.6, -3.337e-08
6642.6, -3.478e-08
6644.6, -3.168e-08
6646.6, -3.126e-08
6648.6, -3.954e-08
6650.6, -3.311e-08
6652.6, -3.408e-08
6654.6, -3.008e-08
6656.6, -3.373e-08
6658.7, -3.134e-08
6660.7, -3.343e-08
6662.7, -3.428e-08
6664.7, -2.974e-08
6666.7, -3.214e-08
6668.7, -3.159e-08
6670.7, -2.89e-08
6672.7, -2.943e-08
6674.7, -3.196e-08
6676.7, -2.975e-08
6678.7, -2.512e-08
6680.7, -3e-08
6682.7, -2.879e-08
6684.7, -3.117e-08
6686.7, -2.976e-08
6688.7, -3.366e-08
6690.7, -3.086e-08
6692.7, -3.154e-08
6694.7, -2.738e-08
6696.7, -3.037e-08
6698.7, -3.005e-08
6700.7, -3.255e-08
6702.7, -3.542e-08
6704.7, -3.089e-08
6706.7, -2.969e-08
6708.7, -3.236e-08
6710.7, -3.047e-08
6712.7, -2.825e-08
6714.7, -3.047e-08
6716.7, -2.751e-08
6718.7, -2.858e-08
6720.7, -2.853e-08
6722.7, -3.114e-08
6724.7, -3.066e-08
6726.7, -3.107e-08
6728.7, -3.341e-08
6730.7, -3.366e-08
6732.7, -3.412e-08
6734.7, -3.704e-08
6736.7, -3.628e-08
6738.7, -3.462e-08
6740.7, -3.658e-08
6742.7, -3.642e-08
6744.7, -3.59e-08
6746.7, -3.304e-08
6748.7, -3.348e-08
6750.7, -3.437e-08
6752.7, -3.453e-08
6754.7, -3.28e-08
6756.7, -3.186e-08
6758.8, -3.437e-08
6760.8, -3.473e-08
6762.8, -3.316e-08
6764.8, -3.306e-08
6766.8, -3.363e-08
6768.8, -3.588e-08
6770.8, -3.509e-08
6772.8, -3.576e-08
6774.8, -3.692e-08
6776.8, -3.385e-08
6778.8, -3.636e-08
6780.8, -3.502e-08
6782.8, -3.155e-08
6784.8, -3.474e-08
6786.8, -2.912e-08
6788.8, -3.119e-08
6790.8, -3.349e-08
6792.8, -3.599e-08
6794.8, -3.354e-08
6796.8, -3.064e-08
6798.8, -2.738e-08
6800.8, -2.863e-08
6802.8, -3.073e-08
6804.8, -2.934e-08
6806.8, -2.92e-08
6808.8, -3.025e-08
6810.8, -2.965e-08
6812.8, -3.514e-08
6814.8, -3.036e-08
6816.8, -2.929e-08
6818.8, -3.215e-08
6820.8, -3.19e-08
6822.8, -3.232e-08
6824.8, -2.95e-08
6826.8, -2.821e-08
6828.8, -3.015e-08
6830.8, -2.894e-08
6832.8, -3.287e-08
6834.8, -3.489e-08
6836.8, -3.193e-08
6838.8, -3.202e-08
6840.8, -3.28e-08
6842.8, -3.537e-08
6844.8, -3.043e-08
6846.8, -3.126e-08
6848.8, -3.313e-08
6850.8, -3.065e-08
6852.8, -3.133e-08
6854.8, -3.105e-08
6856.8, -2.716e-08
6858.9, -2.982e-08
6860.9, -3.184e-08
6862.9, -3.371e-08
6864.9, -2.978e-08
6866.9, -3.443e-08
6868.9, -3.36e-08
6870.9, -3.126e-08
6872.9, -3.247e-08
6874.9, -2.911e-08
6876.9, -3.178e-08
6878.9, -2.84e-08
6880.9, -2.924e-08
6882.9, -3.115e-08
6884.9, -3.528e-08
6886.9, -3.143e-08
6888.9, -2.939e-08
6890.9, -3.339e-08
6892.9, -3.394e-08
6894.9, -3.491e-08
6896.9, -3.275e-08
6898.9, -3.236e-08
6900.9, -3.689e-08
6902.9, -3.446e-08
6904.9, -3.166e-08
6906.9, -3.431e-08
6908.9, -3.189e-08
6910.9, -3.402e-08
6912.9, -3.252e-08
6914.9, -3.377e-08
6916.9, -3.291e-08
6918.9, -3.517e-08
6920.9, -3.49e-08
6922.9, -3.692e-08
6924.9, -3.648e-08
6926.9, -3.042e-08
6928.9, -3.011e-08
6930.9, -3.498e-08
6932.9, -3.386e-08
6934.9, -3.394e-08
6936.9, -3.029e-08
6938.9, -3.442e-08
6940.9, -3.49e-08
6942.9, -3.69e-08
6944.9, -3.463e-08
6946.9, -3.567e-08
6948.9, -3.29e-08
6950.9, -3.477e-08
6952.9, -3.251e-08
6954.9, -3.364e-08
6956.9, -3.281e-08
6959.0, -3.362e-08
6961.0, -3.373e-08
6963.0, -2.904e-08
6965.0, -3.128e-08
6967.0, -3.387e-08
6969.0, -3.142e-08
6971.0, -3.555e-08
6973.0, -3.082e-08
6975.0, -3.174e-08
6977.0, -3.334e-08
6979.0, -3.076e-08
6981.0, -3.059e-08
6983.0, -3.114e-08
6985.0, -2.95e-08
6987.0, -3.029e-08
6989.0, -3.164e-08
6991.0, -3.184e-08
6993.0, -3.218e-08
6995.0, -2.755e-08
6997.0, -2.83e-08
6999.0, -2.695e-08
7001.0, -3.025e-08
7003.0, -3.073e-08
7005.0, -2.729e-08
7007.0, -3.1e-08
7009.0, -2.775e-08
7011.0, -3.092e-08
7013.0, -3.481e-08
7015.0, -3.195e-08
7017.0, -2.934e-08
7019.0, -2.995e-08
7021.0, -3.064e-08
7023.0, -2.896e-08
7025.0, -2.918e-08
7027.0, -3.166e-08
7029.0, -3.415e-08
7031.0, -3.319e-08
7033.0, -3.078e-08
7035.0, -3.568e-08
7037.0, -3.198e-08
7039.0, -3.411e-08
7041.0, -3.573e-08
7043.0, -3.152e-08
7045.0, -3.354e-08
7047.0, -3.175e-08
7049.0, -3.157e-08
7051.0, -3.071e-08
7053.0, -3.213e-08
7055.0, -3.355e-08
7057.0, -3.128e-08
7059.1, -3.394e-08
7061.1, -3.327e-08
7063.1, -2.963e-08
7065.1, -2.726e-08
7067.1, -3.394e-08
7069.1, -3.146e-08
7071.1, -3.238e-08
7073.1, -3.269e-08
7075.1, -3.039e-08
7077.1, -3.413e-08
7079.1, -3.246e-08
7081.1, -3.553e-08
7083.1, -3.151e-08
7085.1, -2.832e-08
7087.1, -3.288e-08
7089.1, -3.015e-08
7091.1, -2.878e-08
7093.1, -3.334e-08
7095.1, -2.801e-08
7097.1, -3.09e-08
7099.1, -2.888e-08
7101.1, -2.98e-08
7103.1, -2.758e-08
7105.1, -2.979e-08
7107.1, -3.138e-08
7109.1, -3.1e-08
7111.1, -2.961e-08
7113.1, -3.201e-08
7115.1, -2.971e-08
7117.1, -3.11e-08
7119.1, -3.155e-08
7121.1, -3.618e-08
7123.1, -3.288e-08
7125.1, -3.428e-08
7127.1, -3.067e-08
7129.1, -2.949e-08
7131.1, -3.197e-08
7133.1, -2.925e-08
7135.1, -3.088e-08
7137.1, -3.004e-08
7139.1, -3.092e-08
7141.1, -2.811e-08
7143.1, -3.358e-08
7145.1, -3.239e-08
7147.1, -3.284e-08
7149.1, -3.19e-08
7151.1, -2.991e-08
7153.1, -3.356e-08
7155.1, -2.967e-08
7157.1, -3.169e-08
7159.2, -3.174e-08
7161.2, -3.083e-08
7163.2, -3.347e-08
7165.2, -3.163e-08
7167.2, -3.12e-08
7169.2, -2.77e-08
7171.2, -2.928e-08
7173.2, -2.847e-08
7175.2, -3.011e-08
7177.2, -2.868e-08
7179.2, -2.946e-08
7181.2, -3.174e-08
7183.2, -3.166e-08
7185.2, -2.869e-08
7187.2, -3.313e-08
7189.2, -2.701e-08
7191.2, -3.104e-08
7193.2, -3.258e-08
7195.2, -3.305e-08
7197.2, -3.603e-08
7199.2, -2.947e-08
7201.2, -2.964e-08
7203.2, -3.022e-08
7205.2, -2.778e-08
7207.2, -3.207e-08
7209.2, -2.619e-08
7211.2, -2.884e-08
7213.2, -2.917e-08
7215.2, -2.899e-08
7217.2, -3.132e-08
7219.2, -2.89e-08
7221.2, -2.921e-08
7223.2, -2.942e-08
7225.2, -2.739e-08
7227.2, -3.093e-08
7229.2, -2.783e-08
7231.2, -2.605e-08
7233.2, -2.813e-08
7235.2, -2.967e-08
7237.2, -2.77e-08
7239.2, -2.654e-08
7241.2, 9.5687e-07
7243.2, 8.3216e-07
7245.2, 8.5111e-07
7247.2, 8.8087e-07
7249.2, 9.0997e-07
7251.2, 9.2346e-07
7253.2, 9.8223e-07
7255.2, 9.0935e-07
7257.2, 8.7e-07
7259.3, 9.0271e-07
7261.3, 9.8713e-07
7263.3, 8.9043e-07
7265.3, 9.045e-07
7267.3, 9.9685e-07
7269.3, 9.2499e-07
7271.3, 8.9966e-07
7273.3, 8.6681e-07
7275.3, 8.5814e-07
7277.3, 9.8167e-07
7279.3, 9.5289e-07
7281.3, 9.0819e-07
7283.3, 9.4754e-07
7285.3, 9.0224e-07
7287.3, 8.9432e-07
7289.3, 8.6473e-07
7291.3, 9.8347e-07
7293.3, 8.6536e-07
7295.3, 8.6794e-07
7297.3, 8.9992e-07
7299.3, 8.5356e-07
7301.3, 8.4923e-07
7303.3, 9.1836e-07
7305.3, 8.8568e-07
7307.3, 9.732e-07
7309.3, 8.6187e-07
7311.3, 8.9424e-07
7313.3, 9.3251e-07
7315.3, 9.389e-07
7317.3, 9.9279e-07
7319.3, 9.091e-07
7321.3, 9.6191e-07
7323.3, 9.1533e-07
7325.3, 9.9914e-07
7327.3, 9.0652e-07
7329.3, 8.6851e-07
7331.3, 9.2505e-07
7333.3, 8.5116e-07
7335.3, 9.6122e-07
7337.3, 9.1124e-07
7339.3, 8.7404e-07
7341.3, 9.2269e-07
7343.3, 9.5975e-07
7345.3, 9.1443e-07
7347.3, 8.6641e-07
7349.3, 9.5657e-07
7351.3, 8.8923e-07
7353.3, 8.6397e-07
7355.3, 9.4538e-07
7357.3, 9.4655e-07
7359.4, 9.0691e-07
7361.4, 8.8391e-07
7363.4, 8.9665e-07
7365.4, 9.5543e-07
7367.4, 9.426e-07
7369.4, 9.081e-07
7371.4, 8.821e-07
7373.4, 9.5527e-07
7375.4, 9.8199e-07
7377.4, 9.3192e-07
7379.4, 8.8306e-07
7381.4, 9.556e-07
7383.4, 9.3207e-07
7385.4, 8.9725e-07
7387.4, 9.3861e-07
7389.4, 9.4442e-07
7391.4, 9.8372e-07
7393.4, 1.0229e-06
7395.4, 9.6194e-07
7397.4, 9.2827e-07
7399.4, 9.3509e-07
7401.4, 9.7206e-07
7403.4, 1.0081e-06
7405.4, 9.6774e-07
7407.4, 9.6391e-07
7409.4, 9.4936e-07
7411.4, 9.6476e-07
7413.4, 9.0896e-07
7415.4, 9.4332e-07
7417.4, 9.5051e-07
7419.4, 9.8235e-07
7421.4, 9.155e-07
7423.4, 9.3105e-07
7425.4, 9.6475e-07
7427.4, 1.0101e-06
7429.4, 8.8371e-07
7431.4, 8.7955e-07
7433.4, 9.071e-07
7435.4, 9.8156e-07
7437.4, 9.4047e-07
7439.4, 1.0049e-06
7441.4, 9.1828e-07
7443.4, 9.6621e-07
7445.4, 8.8407e-07
7447.4, 9.0585e-07
7449.4, 9.2145e-07
7451.4, 9.1457e-07
7453.4, 9.2304e-07
7455.4, 9.5889e-07
7457.4, 9.2827e-07
7459.5, 9.472e-07
7461.5, 9.3753e-07
7463.5, 9.6035e-07
7465.5, 9.1971e-07
7467.5, 1.0161e-06
7469.5, 1.0314e-06
7471.5, 9.5024e-07
7473.5, 9.632e-07
7475.5, 9.726e-07
7477.5, 9.7355e-07
7479.5, 9.8519e-07
7481.5, 9.7152e-07
7483.5, 9.3951e-07
7485.5, 9.6311e-07
7487.5, 1.009e-06
7489.5, 9.8068e-07
7491.5, 9.3629e-07
7493.5, 9.7047e-07
7495.5, 9.3616e-07
7497.5, 9.107e-07
7499.5, 9.932e-07
7501.5, 9.974e-07
7503.5, 1.0374e-06
7505.5, 9.7995e-07
7507.5, 1.0153e-06
7509.5, 8.9181e-07
7511.5, 9.2118e-07
7513.5, 9.761e-07
7515.5, 1.0633e-06
7517.5, 1.0484e-06
7519.5, 9.6017e-07
7521.5, 9.9258e-07
7523.5, 1.009e-06
7525.5, 9.8423e-07
7527.5, 9.2806e-07
7529.5, 1.0307e-06
7531.5, 1.012e-06
7533.5, 9.1067e-07
7535.5, 1.0331e-06
7537.5, 1.0138e-06
7539.5, 9.7184e-07
7541.5, 9.7388e-07
7543.5, 9.2637e-07
7545.5, 9.7334e-07
7547.5, 9.704e-07
7549.5, 9.4906e-07
7551.5, 1.0543e-06
7553.5, 9.8547e-07
7555.5, 1.0418e-06
7557.5, 9.3272e-07
7559.6, 1.0266e-06
7561.6, 1.0716e-06
7563.6, 9.3987e-07
7565.6, 9.8838e-07
7567.6, 9.5568e-07
7569.6, 1.0452e-06
7571.6, 9.464e-07
7573.6, 9.7916e-07
7575.6, 9.5857e-07
7577.6, 9.6916e-07
7579.6, 1.0119e-06
7581.6, 9.4371e-07
7583.6, 9.4904e-07
7585.6, 9.522e-07
7587.6, 9.6035e-07
7589.6, 9.7682e-07
7591.6, 1.0022e-06
7593.6, 9.9654e-07
7595.6, 8.8792e-07
7597.6, 1.0369e-06
7599.6, 9.4793e-07
7601.6, 1.0196e-06
7603.6, 1.0599e-06
7605.6, 9.8177e-07
7607.6, 9.3346e-07
7609.6, 1.0011e-06
7611.6, 1.0294e-06
7613.6, 9.5374e-07
7615.6, 9.9387e-07
7617.6, 9.1769e-07
7619.6, 9.5189e-07
7621.6, 9.9269e-07
7623.6, 9.7574e-07
7625.6, 1.0233e-06
7627.6, 9.4322e-07
7629.6, 1.0039e-06
7631.6, 9.6516e-07
7633.6, 9.9876e-07
7635.6, 1.0071e-06
7637.6, 9.7678e-07
7639.6, 9.4677e-07
7641.6, 9.704e-07
7643.6, 1.0246e-06
7645.6, 1.0564e-06
7647.6, 9.1823e-07
7649.6, 1.0006e-06
7651.6, 1.0786e-06
7653.6, 1.0352e-06
7655.6, 9.6785e-07
7657.6, 9.7263e-07
7659.7, 9.1578e-07
7661.7, 9.3819e-07
7663.7, 9.9964e-07
7665.7, 9.7451e-07
7667.7, 9.7826e-07
7669.7, 1.0536e-06
7671.7, 1.0348e-06
7673.7, 9.7106e-07
7675.7, 9.711e-07
7677.7, 8.9581e-07
7679.7, 9.8265e-07
7681.7, 9.9011e-07
7683.7, 9.5221e-07
7685.7, 9.6118e-07
7687.7, 1.0174e-06
7689.7, 9.2265e-07
7691.7, 9.4332e-07
7693.7, 9.5718e-07
7695.7, 9.0011e-07
7697.7, 1.0212e-06
7699.7, 9.8482e-07
7701.7, 9.6598e-07
7703.7, 9.7243e-07
7705.7, 9.285e-07
7707.7, 9.7396e-07
7709.7, 9.7963e-07
7711.7, 9.6888e-07
7713.7, 1.0146e-06
7715.7, 1.0452e-06
7717.7, 9.7534e-07
7719.7, 9.9954e-07
7721.7, 1.0796e-06
7723.7, 1.0061e-06
7725.7, 9.5706e-07
7727.7, 1.0239e-06
7729.7, 9.9124e-07
7731.7, 1.0664e-06
7733.7, 9.8762e-07
7735.7, 1.0462e-06
7737.7, 9.6242e-07
7739.7, 9.8886e-07
7741.7, 9.7473e-07
7743.7, 9.0918e-07
7745.7, 9.7454e-07
7747.7, 9.7827e-07
7749.7, 9.9218e-07
7751.7, 1.0288e-06
7753.7, 9.437e-07
7755.7, 1.0027e-06
7757.7, 9.6983e-07
7759.8, 1.0337e-06
7761.8, 9.8024e-07
7763.8, 1.0219e-06
7765.8, 1.0582e-06
7767.8, 9.8376e-07
7769.8, 1.0594e-06
7771.8, 9.8291e-07
7773.8, 1.0766e-06
7775.8, 1.0567e-06
7777.8, 9.927e-07
7779.8, 1.0644e-06
7781.8, 1.0115e-06
7783.8, 9.701e-07
7785.8, 1.0085e-06
7787.8, 1.0277e-06
7789.8, 1.0239e-06
7791.8, 1.0166e-06
7793.8, 1.0063e-06
7795.8, 1.0067e-06
7797.8, 1.0353e-06
7799.8, 9.3062e-07
7801.8, 9.3343e-07
7803.8, 9.9736e-07
7805.8, 9.9855e-07
7807.8, 9.8725e-07
7809.8, 9.2538e-07
7811.8, 9.5519e-07
7813.8, 9.5452e-07
7815.8, 9.9606e-07
7817.8, 1.016e-06
7819.8, 8.9736e-07
7821.8, 9.8278e-07
7823.8, 9.8561e-07
7825.8, 9.9272e-07
7827.8, 9.927e-07
7829.8, 1.0436e-06
7831.8, 9.3559e-07
7833.8, 1.0687e-06
7835.8, 9.4595e-07
7837.8, 9.6558e-07
7839.8, 9.4161e-07
7841.8, 1.0072e-06
7843.8, 9.3501e-07
7845.8, 9.6657e-07
7847.8, 9.6417e-07
7849.8, 9.2352e-07
7851.8, 9.8674e-07
7853.8, 9.6184e-07
7855.8, 1.0242e-06
7857.8, 9.2858e-07
7859.9, 1.0331e-06
7861.9, 1.0219e-06
7863.9, 9.8254e-07
7865.9, 9.8291e-07
7867.9, 9.4007e-07
7869.9, 9.4737e-07
7871.9, 9.721e-07
7873.9, 9.4321e-07
7875.9, 1.0541e-06
7877.9, 9.8781e-07
7879.9, 9.6454e-07
7881.9, 1.0333e-06
7883.9, 1.0339e-06
7885.9, 1.0663e-06
7887.9, 1.0832e-06
7889.9, 1.0168e-06
7891.9, 1.0192e-06
7893.9, 1.0384e-06
7895.9, 9.8657e-07
7897.9, 9.7017e-07
7899.9, 9.8912e-07
7901.9, 1.0447e-06
7903.9, 9.0737e-07
7905.9, 9.5348e-07
7907.9, 1.0133e-06
7909.9, 1.0118e-06
7911.9, 9.6099e-07
7913.9, 1.0778e-06
7915.9, 1.0217e-06
7917.9, 1.0697e-06
7919.9, 9.8336e-07
7921.9, 9.5419e-07
7923.9, 1.038e-06
7925.9, 9.7377e-07
7927.9, 9.7953e-07
7929.9, 9.5835e-07
7931.9, 1.0789e-06
7933.9, 1.0136e-06
7935.9, 1.0068e-06
7937.9, 1.0043e-06
7939.9, 1.0003e-06
7941.9, 9.7591e-07
7943.9, 1.0158e-06
7945.9, 1.0004e-06
7947.9, 9.9972e-07
7949.9, 9.9956e-07
7951.9, 9.7144e-07
7953.9, 9.7824e-07
7955.9, 1.044e-06
7957.9, 1e-06
7960.0, 9.8987e-07
7962.0, 9.6333e-07
7964.0, 9.512e-07
7966.0, 9.5281e-07
7968.0, 9.8103e-07
7970.0, 9.3492e-07
7972.0, 1.0248e-06
7974.0, 1.0362e-06
7976.0, 9.8512e-07
7978.0, 1.0051e-06
7980.0, 1.0083e-06
7982.0, 1.0177e-06
7984.0, 9.6133e-07
7986.0, 9.4546e-07
7988.0, 9.6791e-07
7990.0, 1.0733e-06
7992.0, 9.9023e-07
7994.0, 1.0211e-06
7996.0, 1.0141e-06
7998.0, 1.0296e-06
8000.0, 1.0081e-06
8002.0, 1.0413e-06
8004.0, 1.0329e-06
8006.0, 9.5516e-07
8008.0, 1.0223e-06
8010.0, 9.9325e-07
8012.0, 1.0326e-06
8014.0, 9.6169e-07
8016.0, 1.0196e-06
8018.0, 9.6653e-07
8020.0, 1.0046e-06
8022.0, 1.0436e-06
8024.0, 9.1439e-07
8026.0, 1.0131e-06
8028.0, 1.0542e-06
8030.0, 1.0176e-06
8032.0, 1.0008e-06
8034.0, 9.9904e-07
8036.0, 9.58e-07
8038.0, 1.0179e-06
8040.0, 1.034e-06
8042.0, 1.1025e-06
8044.0, 1.036e-06
8046.0, 9.8492e-07
8048.0, 1.0079e-06
8050.0, 1.0223e-06
8052.0, 1.0141e-06
8054.0, 9.6e-07
8056.0, 9.3004e-07
8058.0, 1.0097e-06
8060.1, 9.1232e-07
8062.1, 9.9936e-07
8064.1, 9.7722e-07
8066.1, 1.007e-06
8068.1, 1.0115e-06
8070.1, 9.8691e-07
8072.1, 9.9324e-07
8074.1, 9.5375e-07
8076.1, 9.9675e-07
8078.1, 1.0255e-06
8080.1, 9.7753e-07
8082.1, 9.2609e-07
8084.1, 9.9952e-07
8086.1, 1.0321e-06
8088.1, 1.0054e-06
8090.1, 1.0674e-06
8092.1, 1.0042e-06
8094.1, 9.9212e-07
8096.1, 1.0514e-06
8098.1, 1.0502e-06
8100.1, 1.0076e-06
8102.1, 1.088e-06
8104.1, 1.0847e-06
8106.1, 1.0001e-06
8108.1, 9.7535e-07
8110.1, 1.0533e-06
8112.1, 9.8053e-07
8114.1, 9.9155e-07
8116.1, 1.0257e-06
8118.1, 1.0207e-06
8120.1, 1.0363e-06
8122.1, 1.0239e-06
8124.1, 9.8635e-07
8126.1, 1.0302e-06
8128.1, 1.0377e-06
8130.1, 1.0066e-06
8132.1, 9.4824e-07
8134.1, 1.0323e-06
8136.1, 9.7945e-07
8138.1, 1.0679e-06
8140.1, 1.0554e-06
8142.1, 1.1072e-06
8144.1, 9.359e-07
8146.1, 1.0408e-06
8148.1, 9.9132e-07
8150.1, 9.8781e-07
8152.1, 1.039e-06
8154.1, 9.4576e-07
8156.1, 1.0386e-06
8158.1, 1.0954e-06
8160.2, 9.8387e-07
8162.2, 1.0282e-06
8164.2, 9.9385e-07
8166.2, 9.9181e-07
8168.2, 1.0267e-06
8170.2, 9.7365e-07
8172.2, 1.0434e-06
8174.2, 9.7418e-07
8176.2, 9.8971e-07
8178.2, 9.1939e-07
8180.2, 1.0201e-06
8182.2, 9.8174e-07
8184.2, 9.9204e-07
8186.2, 1.0158e-06
8188.2, 1.0454e-06
8190.2, 1.0302e-06
8192.2, 1.0201e-06
8194.2, 1.0167e-06
8196.2, 1.0195e-06
8198.2, 9.8529e-07
8200.2, 9.98e-07
8202.2, 1.0262e-06
8204.2, 1.05e-06
8206.2, 1.012e-06
8208.2, 9.5541e-07
8210.2, 1.029e-06
8212.2, 9.8525e-07
8214.2, 1.0004e-06
8216.2, 1.0321e-06
8218.2, 9.9021e-07
8220.2, 1.0343e-06
8222.2, 9.9834e-07
8224.2, 1.0244e-06
8226.2, 1.0455e-06
8228.2, 9.5661e-07
8230.2, 9.8876e-07
8232.2, 9.7361e-07
8234.2, 1.0165e-06
8236.2, 9.9874e-07
8238.2, 1.0594e-06
8240.2, 9.8736e-07
8242.2, -2.637e-08
8244.2, -3.111e-08
8246.2, -2.929e-08
8248.2, -2.71e-08
8250.2, -2.814e-08
8252.2, -3.264e-08
8254.2, -3.159e-08
8256.2, -3.309e-08
8258.2, -3.397e-08
8260.3, -3.788e-08
8262.3, -3.692e-08
8264.3, -3.323e-08
8266.3, -3.422e-08
8268.3, -3.252e-08
8270.3, -3.436e-08
8272.3, -3.655e-08
8274.3, -3.336e-08
8276.3, -3.224e-08
8278.3, -3.23e-08
8280.3, -3.224e-08
8282.3, -3.432e-08
8284.3, -3.335e-08
8286.3, -3e-08
8288.3, -3.226e-08
8290.3, -3.692e-08
8292.3, -3.617e-08
8294.3, -3.431e-08
8296.3, -3.642e-08
8298.3, -3.346e-08
8300.3, -3.477e-08
8302.3, -3.084e-08
8304.3, -3.351e-08
8306.3, -3.404e-08
8308.3, -3.289e-08
8310.3, -3.561e-08
8312.3, -3.472e-08
8314.3, -3.217e-08
8316.3, -3.266e-08
8318.3, -3.413e-08
8320.3, -3.842e-08
8322.3, -3.669e-08
8324.3, -3.575e-08
8326.3, -3.602e-08
8328.3, -3.757e-08
8330.3, -3.323e-08
8332.3, -3.781e-08
8334.3, -3.352e-08
8336.3, -3.508e-08
8338.3, -3.567e-08
8340.3, -3.504e-08
8342.3, -3.496e-08
8344.3, -3.959e-08
8346.3, -3.574e-08
8348.3, -3.885e-08
8350.3, -3.669e-08
8352.3, -3.51e-08
8354.3, -3.226e-08
8356.3, -3.166e-08
8358.3, -3.541e-08
8360.4, -3.352e-08
8362.4, -3.333e-08
8364.4, -3.68e-08
8366.4, -3.32e-08
8368.4, -3.279e-08
8370.4, -3.612e-08
8372.4, -3.338e-08
8374.4, -3.5e-08
8376.4, -3.323e-08
8378.4, -3.19e-08
8380.4, -3.407e-08
8382.4, -3.556e-08
8384.4, -3.184e-08
8386.4, -3.43e-08
8388.4, -3.53e-08
8390.4, -3.067e-08
8392.4, -3.259e-08
8394.4, -3.089e-08
8396.4, -3.391e-08
8398.4, -3.238e-08
8400.4, -3.546e-08
8402.4, -3.355e-08
8404.4, -3.737e-08
8406.4, -3.994e-08
8408.4, -3.615e-08
8410.4, -3.466e-08
8412.4, -3.61e-08
8414.4, -3.588e-08
8416.4, -3.855e-08
8418.4, -3.773e-08
8420.4, -3.524e-08
8422.4, -3.595e-08
8424.4, -3.612e-08
8426.4, -3.87e-08
8428.4, -3.698e-08
8430.4, -3.535e-08
8432.4, -3.396e-08
8434.4, -3.723e-08
8436.4, -3.428e-08
8438.4, -3.178e-08
8440.4, -3.296e-08
8442.4, -3.303e-08
8444.4, -3.572e-08
8446.4, -3.168e-08
8448.4, -3.27e-08
8450.4, -3.109e-08
8452.4, -3.436e-08
8454.4, -3.185e-08
8456.4, -3.389e-08
8458.4, -3.287e-08
8460.5, -3.141e-08
8462.5, -3.259e-08
8464.5, -3.211e-08
8466.5, -2.912e-08
8468.5, -2.927e-08
8470.5, -3.171e-08
8472.5, -3.255e-08
8474.5, -3.196e-08
8476.5, -3.212e-08
8478.5, -3.229e-08
8480.5, -3.343e-08
8482.5, -3.789e-08
8484.5, -3.726e-08
8486.5, -3.396e-08
8488.5, -3.394e-08
8490.5, -3.519e-08
8492.5, -3.842e-08
8494.5, -3.751e-08
8496.5, -3.235e-08
8498.5, -3.414e-08
8500.5, -3.853e-08
8502.5, -3.562e-08
8504.5, -3.761e-08
8506.5, -3.9e-08
8508.5, -3.753e-08
8510.5, -3.483e-08
8512.5, -3.621e-08
8514.5, -3.347e-08
8516.5, -3.192e-08
8518.5, -3.569e-08
8520.5, -3.727e-08
8522.5, -3.774e-08
8524.5, -3.671e-08
8526.5, -3.785e-08
8528.5, -3.583e-08
8530.5, -3.845e-08
8532.5, -3.648e-08
8534.5, -3.503e-08
8536.5, -3.176e-08
8538.5, -3.233e-08
8540.5, -3.782e-08
8542.5, -3.261e-08
8544.5, -3.703e-08
8546.5, -3.787e-08
8548.5, -3.77e-08
8550.5, -3.711e-08
8552.5, -3.52e-08
8554.5, -3.54e-08
8556.5, -3.332e-08
8558.5, -3.396e-08
8560.6, -3.65e-08
8562.6, -3.607e-08
8564.6, -3.389e-08
8566.6, -3.707e-08
8568.6, -3.382e-08
8570.6, -3.306e-08
8572.6, -2.955e-08
8574.6, -3.308e-08
8576.6, -3.193e-08
8578.6, -3.209e-08
8580.6, -3.166e-08
8582.6, -3.485e-08
8584.6, -3.253e-08
8586.6, -3.365e-08
8588.6, -3.23e-08
8590.6, -3.242e-08
8592.6, -3.27e-08
8594.6, -3.176e-08
8596.6, -3.439e-08
8598.6, -3.501e-08
8600.6, -3.525e-08
8602.6, -3.176e-08
8604.6, -3.109e-08
8606.6, -3.215e-08
8608.6, -3.626e-08
8610.6, -3.367e-08
8612.6, -3.24e-08
8614.6, -3.238e-08
8616.6, -3.007e-08
8618.6, -2.958e-08
8620.6, -3.062e-08
8622.6, -3.593e-08
8624.6, -3.602e-08
8626.6, -3.512e-08
8628.6, -3.407e-08
8630.6, -3.537e-08
8632.6, -3.363e-08
8634.6, -3.387e-08
8636.6, -3.368e-08
8638.6, -3.355e-08
8640.6, -3.36e-08
8642.6, -3.166e-08
8644.6, -3.1e-08
8646.6, -3.524e-08
8648.6, -2.817e-08
8650.6, -3.085e-08
8652.6, -3.362e-08
8654.6, -3.08e-08
8656.6, -2.96e-08
8658.6, -3.13e-08
8660.7, -3.546e-08
8662.7, -3.541e-08
8664.7, -3.529e-08
8666.7, -3.621e-08
8668.7, -3.375e-08
8670.7, -3.597e-08
8672.7, -3.568e-08
8674.7, -3.276e-08
8676.7, -3.232e-08
8678.7, -3.37e-08
8680.7, -3.619e-08
8682.7, -3.492e-08
8684.7, -3.593e-08
8686.7, -3.285e-08
8688.7, -3.881e-08
8690.7, -3.471e-08
8692.7, -3.875e-08
8694.7, -3.749e-08
8696.7, -3.412e-08
8698.7, -3.226e-08
8700.7, -3.555e-08
8702.7, -3.558e-08
8704.7, -3.804e-08
8706.7, -3.711e-08
8708.7, -3.463e-08
8710.7, -3.58e-08
8712.7, -3.917e-08
8714.7, -3.806e-08
8716.7, -3.338e-08
8718.7, -3.573e-08
8720.7, -3.57e-08
8722.7, -3.559e-08
8724.7, -3.604e-08
8726.7, -3.436e-08
8728.7, -3.295e-08
8730.7, -3.219e-08
8732.7, -3.134e-08
8734.7, -3.566e-08
8736.7, -3.031e-08
8738.7, -3.073e-08
8740.7, -3.328e-08
8742.7, -3.288e-08
8744.7, -3.676e-08
8746.7, -3.535e-08
8748.7, -3.306e-08
8750.7, -4.007e-08
8752.7, -3.302e-08
8754.7, -3.519e-08
8756.7, -3.674e-08
8758.7, -3.363e-08
8760.8, -3.538e-08
8762.8, -3.578e-08
8764.8, -3.335e-08
8766.8, -3.818e-08
8768.8, -3.666e-08
8770.8, -3.309e-08
8772.8, -3.37e-08
8774.8, -3.551e-08
8776.8, -3.632e-08
8778.8, -3.317e-08
8780.8, -3.678e-08
8782.8, -3.335e-08
8784.8, -3.446e-08
8786.8, -3.707e-08
8788.8, -3.173e-08
8790.8, -3.571e-08
8792.8, -3.419e-08
8794.8, -3.56e-08
8796.8, -3.198e-08
8798.8, -3.344e-08
8800.8, -3.561e-08
8802.8, -3.668e-08
8804.8, -3.482e-08
8806.8, -3.135e-08
8808.8, -3.237e-08
8810.8, -3.563e-08
8812.8, -3.516e-08
8814.8, -3.648e-08
8816.8, -3.592e-08
8818.8, -3.449e-08
8820.8, -3.449e-08
8822.8, -3.356e-08
8824.8, -3.539e-08
8826.8, -3.41e-08
8828.8, -3.329e-08
8830.8, -3.378e-08
8832.8, -3.353e-08
8834.8, -3.364e-08
8836.8, -3.909e-08
8838.8, -3.593e-08
8840.8, -3.429e-08
8842.8, -3.649e-08
8844.8, -3.349e-08
8846.8, -3.707e-08
8848.8, -3.07e-08
8850.8, -3.21e-08
8852.8, -3.285e-08
8854.8, -3.261e-08
8856.8, -3.451e-08
8858.8, -3.552e-08
8860.9, -3.5e-08
8862.9, -3.855e-08
8864.9, -3.588e-08
8866.9, -3.169e-08
8868.9, -3.169e-08
8870.9, -3.344e-08
8872.9, -3.527e-08
8874.9, -3.472e-08
8876.9, -3.405e-08
8878.9, -3.126e-08
8880.9, -3.584e-08
8882.9, -3.595e-08
8884.9, -3.663e-08
8886.9, -3.707e-08
8888.9, -3.744e-08
8890.9, -3.601e-08
8892.9, -3.567e-08
8894.9, -3.576e-08
8896.9, -3.472e-08
8898.9, -3.51e-08
8900.9, -3.686e-08
8902.9, -3.728e-08
8904.9, -4.005e-08
8906.9, -3.28e-08
8908.9, -3.353e-08
8910.9, -3.259e-08
8912.9, -3.345e-08
8914.9, -3.026e-08
8916.9, -3.019e-08
8918.9, -3.122e-08
8920.9, -3.381e-08
8922.9, -3.153e-08
8924.9, -3.284e-08
8926.9, -3.328e-08
8928.9, -3.26e-08
8930.9, -3.253e-08
8932.9, -3.128e-08
8934.9, -3.216e-08
8936.9, -3.566e-08
8938.9, -3.304e-08
8940.9, -3.096e-08
8942.9, -3.385e-08
8944.9, -3.446e-08
8946.9, -3.376e-08
8948.9, -2.89e-08
8950.9, -3.145e-08
8952.9, -3.027e-08
8954.9, -3.224e-08
8956.9, -3.505e-08
8958.9, -3.248e-08
8961.0, -3.185e-08
8963.0, -3.439e-08
8965.0, -3.114e-08
8967.0, -3.237e-08
8969.0, -2.848e-08
8971.0, -3.359e-08
8973.0, -3.094e-08
8975.0, -3.636e-08
8977.0, -3.051e-08
8979.0, -2.95e-08
8981.0, -3.146e-08
8983.0, -3.08e-08
8985.0, -3.261e-08
8987.0, -3.142e-08
8989.0, -2.996e-08
8991.0, -2.813e-08
8993.0, -2.902e-08
8995.0, -3.102e-08
8997.0, -3.02e-08
8999.0, -3.092e-08
9001.0, -2.785e-08
9003.0, -2.972e-08
9005.0, -3.082e-08
9007.0, -3.104e-08
9009.0, -2.943e-08
9011.0, -3.016e-08
9013.0, -2.899e-08
9015.0, -3.054e-08
9017.0, -3.105e-08
9019.0, -3.09e-08
9021.0, -3.454e-08
9023.0, -3.37e-08
9025.0, -3.11e-08
9027.0, -2.999e-08
9029.0, -2.545e-08
9031.0, -3.249e-08
9033.0, -3.07e-08
9035.0, -3.188e-08
9037.0, -3.104e-08
9039.0, -3.201e-08
9041.0, -3.173e-08
9043.0, -3.477e-08
9045.0, -3.325e-08
9047.0, -3.831e-08
9049.0, -3.472e-08
9051.0, -3.374e-08
9053.0, -3.163e-08
9055.0, -2.75e-08
9057.0, -3.066e-08
9059.0, -2.948e-08
9061.1, -3.032e-08
9063.1, -3.23e-08
9065.1, -3.03e-08
9067.1, -3.048e-08
9069.1, -3.3e-08
9071.1, -2.866e-08
9073.1, -2.758e-08
9075.1, -3.085e-08
9077.1, -3.148e-08
9079.1, -3.1e-08
9081.1, -2.8e-08
9083.1, -3.19e-08
9085.1, -3.004e-08
9087.1, -3.021e-08
9089.1, -2.848e-08
9091.1, -2.875e-08
9093.1, -2.725e-08
9095.1, -2.693e-08
9097.1, -2.731e-08
9099.1, -3.146e-08
9101.1, -3.05e-08
9103.1, -2.927e-08
9105.1, -3.089e-08
9107.1, -3.557e-08
9109.1, -2.645e-08
9111.1, -3.02e-08
9113.1, -3.149e-08
9115.1, -3.3e-08
9117.1, -3.094e-08
9119.1, -2.826e-08
9121.1, -2.874e-08
9123.1, -3.198e-08
9125.1, -2.917e-08
9127.1, -2.785e-08
9129.1, -2.973e-08
9131.1, -3.054e-08
9133.1, -3.148e-08
9135.1, -3.029e-08
9137.1, -2.694e-08
9139.1, -2.963e-08
9141.1, -2.963e-08
9143.1, -2.998e-08
9145.1, -2.978e-08
9147.1, -3.368e-08
9149.1, -2.756e-08
9151.1, -3.26e-08
9153.1, -3.063e-08
9155.1, -3.167e-08
9157.1, -3.113e-08
9159.1, -3.245e-08
9161.2, -2.909e-08
9163.2, -3.049e-08
9165.2, -2.942e-08
9167.2, -2.983e-08
9169.2, -2.678e-08
9171.2, -2.737e-08
9173.2, -2.88e-08
9175.2, -2.688e-08
9177.2, -3.039e-08
9179.2, -2.932e-08
9181.2, -2.869e-08
9183.2, -3.199e-08
9185.2, -2.941e-08
9187.2, -2.658e-08
9189.2, -3.035e-08
9191.2, -2.864e-08
9193.2, -3.108e-08
9195.2, -3.082e-08
9197.2, -2.908e-08
9199.2, -2.85e-08
9201.2, -3.097e-08
9203.2, -2.997e-08
9205.2, -3.264e-08
9207.2, -2.929e-08
9209.2, -2.919e-08
9211.2, -3.437e-08
9213.2, -3.195e-08
9215.2, -3.192e-08
9217.2, -3.039e-08
9219.2, -2.94e-08
9221.2, -3.123e-08
9223.2, -2.923e-08
9225.2, -3.321e-08
9227.2, -2.813e-08
9229.2, -2.714e-08
9231.2, -2.942e-08
9233.2, -3.09e-08
9235.2, -2.926e-08
9237.2, -3.037e-08
9239.2, -3.015e-08
9241.2, -3.339e-08
9243.2, -2.856e-08
9245.2, -2.856e-08
9247.2, -3.218e-08
9249.2, -2.812e-08
9251.2, -2.993e-08
9253.2, -2.66e-08
9255.2, -3.081e-08
9257.2, -3.087e-08
9259.2, -3.026e-08
9261.3, -3.072e-08
9263.3, -3.072e-08
9265.3, -3.17e-08
9267.3, -3.29e-08
9269.3, 8.8761e-07
9271.3, 9.5902e-07
9273.3, 8.523e-07
9275.3, 9.5957e-07
9277.3, 9.0999e-07
9279.3, 8.6743e-07
9281.3, 8.1811e-07
9283.3, 8.6986e-07
9285.3, 9.0575e-07
9287.3, 8.9615e-07
9289.3, 8.7454e-07
9291.3, 9.0192e-07
9293.3, 9.3236e-07
9295.3, 8.4743e-07
9297.3, 8.8313e-07
9299.3, 8.6937e-07
9301.3, 8.8456e-07
9303.3, 9.7623e-07
9305.3, 9.7856e-07
9307.3, 9.9368e-07
9309.3, 9.143e-07
9311.3, 9.159e-07
9313.3, 9.5819e-07
9315.3, 8.891e-07
9317.3, 9.3639e-07
9319.3, 9.5947e-07
9321.3, 9.5898e-07
9323.3, 9.7769e-07
9325.3, 8.9375e-07
9327.3, 9.194e-07
9329.3, 9.2926e-07
9331.3, 8.9046e-07
9333.3, 9.7759e-07
9335.3, 9.1354e-07
9337.3, 9.1991e-07
9339.3, 9.2752e-07
9341.3, 1.0008e-06
9343.3, 9.4355e-07
9345.3, 9.3622e-07
9347.3, 9.6104e-07
9349.3, 9.8761e-07
9351.3, 9.3276e-07
9353.3, 1.0027e-06
9355.3, 9.0173e-07
9357.3, 9.2546e-07
9359.3, 1.0485e-06
9361.4, 9.9592e-07
9363.4, 9.3832e-07
9365.4, 9.5096e-07
9367.4, 9.1943e-07
9369.4, 9.9128e-07
9371.4, 9.9565e-07
9373.4, 9.6791e-07
9375.4, 9.7641e-07
9377.4, 9.3362e-07
9379.4, 9.5022e-07
9381.4, 9.4204e-07
9383.4, 9.1308e-07
9385.4, 9.3362e-07
9387.4, 9.9561e-07
9389.4, 8.8866e-07
9391.4, 9.7139e-07
9393.4, 9.896e-07
9395.4, 9.8729e-07
9397.4, 9.1255e-07
9399.4, 9.5862e-07
9401.4, 9.4857e-07
9403.4, 1.0195e-06
9405.4, 9.7609e-07
9407.4, 9.1922e-07
9409.4, 9.2747e-07
9411.4, 9.1147e-07
9413.4, 1.0334e-06
9415.4, 9.7549e-07
9417.4, 9.4786e-07
9419.4, 9.7567e-07
9421.4, 9.6224e-07
9423.4, 9.694e-07
9425.4, 1.0313e-06
9427.4, 1.0263e-06
9429.4, 9.915e-07
9431.4, 1.0096e-06
9433.4, 9.6115e-07
9435.4, 9.5313e-07
9437.4, 1.0099e-06
9439.4, 9.8098e-07
9441.4, 1.0127e-06
9443.4, 9.7894e-07
9445.4, 9.475e-07
9447.4, 9.9363e-07
9449.4, 9.3984e-07
9451.4, 9.751e-07
9453.4, 9.3283e-07
9455.4, 9.0433e-07
9457.4, 9.6681e-07
9459.4, 9.4423e-07
9461.5, 8.7603e-07
9463.5, 9.2496e-07
9465.5, 9.0943e-07
9467.5, 9.6013e-07
9469.5, 1.0299e-06
9471.5, 1.036e-06
9473.5, 9.1786e-07
9475.5, 1.072e-06
9477.5, 9.4467e-07
9479.5, 1.0011e-06
9481.5, 9.4506e-07
9483.5, 9.7286e-07
9485.5, 9.2348e-07
9487.5, 1.0202e-06
9489.5, 9.2146e-07
9491.5, 9.2586e-07
9493.5, 9.4956e-07
9495.5, 9.851e-07
9497.5, 9.7983e-07
9499.5, 1.0219e-06
9501.5, 1.0253e-06
9503.5, 9.9783e-07
9505.5, 1.0016e-06
9507.5, 1.0132e-06
9509.5, 9.9167e-07
9511.5, 9.6438e-07
9513.5, 1.0549e-06
9515.5, 1.0597e-06
9517.5, 9.8701e-07
9519.5, 9.3561e-07
9521.5, 1.0134e-06
9523.5, 9.2377e-07
9525.5, 1.0125e-06
9527.5, 9.8516e-07
9529.5, 9.1341e-07
9531.5, 9.9673e-07
9533.5, 1.065e-06
9535.5, 9.2832e-07
9537.5, 9.7646e-07
9539.5, 9.4719e-07
9541.5, 9.7484e-07
9543.5, 9.7574e-07
9545.5, 1.0341e-06
9547.5, 9.3098e-07
9549.5, 9.596e-07
9551.5, 9.4403e-07
9553.5, 9.8987e-07
9555.5, 9.6533e-07
9557.5, 9.5175e-07
9559.5, 1.045e-06
9561.6, 1.0835e-06
9563.6, 9.7005e-07
9565.6, 9.8215e-07
9567.6, 9.6228e-07
9569.6, 1.0239e-06
9571.6, 9.6284e-07
9573.6, 9.8177e-07
9575.6, 9.5323e-07
9577.6, 9.4653e-07
9579.6, 9.1847e-07
9581.6, 9.8113e-07
9583.6, 1.0173e-06
9585.6, 1.0034e-06
9587.6, 1.0033e-06
9589.6, 1.0845e-06
9591.6, 9.5866e-07
9593.6, 9.2078e-07
9595.6, 9.3768e-07
9597.6, 1.0105e-06
9599.6, 1.0532e-06
9601.6, 1.0728e-06
9603.6, 1.0081e-06
9605.6, 9.5698e-07
9607.6, 9.7585e-07
9609.6, 1.0365e-06
9611.6, 9.6039e-07
9613.6, 1.0632e-06
9615.6, 1.0181e-06
9617.6, 1.0092e-06
9619.6, 1.0304e-06
9621.6, 9.7009e-07
9623.6, 1.0028e-06
9625.6, 1.0226e-06
9627.6, 1.0178e-06
9629.6, 9.9909e-07
9631.6, 9.8692e-07
9633.6, 9.3997e-07
9635.6, 1.052e-06
9637.6, 1.0124e-06
9639.6, 9.7551e-07
9641.6, 9.8678e-07
9643.6, 1.0007e-06
9645.6, 1.0593e-06
9647.6, 9.9663e-07
9649.6, 9.7784e-07
9651.6, 1.0439e-06
9653.6, 9.662e-07
9655.6, 1.0036e-06
9657.6, 9.8382e-07
9659.6, 1.0558e-06
9661.7, 1.002e-06
9663.7, 9.6564e-07
9665.7, 9.8769e-07
9667.7, 9.2787e-07
9669.7, 9.8527e-07
9671.7, 1.0838e-06
9673.7, 1.0885e-06
9675.7, 1.0431e-06
9677.7, 1.0385e-06
9679.7, 9.8639e-07
9681.7, 1.0889e-06
9683.7, 9.9834e-07
9685.7, 1.0532e-06
9687.7, 9.6903e-07
9689.7, 1.0011e-06
9691.7, 1.0053e-06
9693.7, 1.0093e-06
9695.7, 9.8617e-07
9697.7, 9.5018e-07
9699.7, 1.1377e-06
9701.7, 1.043e-06
9703.7, 9.9652e-07
9705.7, 9.945e-07
9707.7, 9.9626e-07
9709.7, 1.0666e-06
9711.7, 9.6153e-07
9713.7, 1.0028e-06
9715.7, 1.005e-06
9717.7, 9.4429e-07
9719.7, 9.8169e-07
9721.7, 1.0015e-06
9723.7, 9.523e-07
9725.7, 1.0028e-06
9727.7, 9.8663e-07
9729.7, 1.0587e-06
9731.7, 9.9499e-07
9733.7, 1.0108e-06
9735.7, 1.0655e-06
9737.7, 9.5499e-07
9739.7, 9.3918e-07
9741.7, 9.5803e-07
9743.7, 1.052e-06
9745.7, 1.0357e-06
9747.7, 1.0394e-06
9749.7, 1.0045e-06
9751.7, 9.7973e-07
9753.7, 9.4852e-07
9755.7, 1.0174e-06
9757.7, 1.0046e-06
9759.7, 1.0281e-06
9761.8, 1.0167e-06
9763.8, 1.008e-06
9765.8, 1.0153e-06
9767.8, 9.4818e-07
9769.8, 9.7597e-07
9771.8, 1.0189e-06
9773.8, 9.2102e-07
9775.8, 1.0374e-06
9777.8, 9.938e-07
9779.8, 1.0798e-06
9781.8, 1.0098e-06
9783.8, 1.0284e-06
9785.8, 1.0199e-06
9787.8, 1.0147e-06
9789.8, 9.5589e-07
9791.8, 1.006e-06
9793.8, 9.9349e-07
9795.8, 1.0213e-06
9797.8, 1.096e-06
9799.8, 1.0243e-06
9801.8, 1.0184e-06
9803.8, 1.0291e-06
9805.8, 9.473e-07
9807.8, 9.646e-07
9809.8, 1.0152e-06
9811.8, 9.4331e-07
9813.8, 9.5447e-07
9815.8, 9.7712e-07
9817.8, 9.9384e-07
9819.8, 1.0238e-06
9821.8, 9.3723e-07
9823.8, 1.0705e-06
9825.8, 9.647e-07
9827.8, 1.0003e-06
9829.8, 1.0718e-06
9831.8, 1.073e-06
9833.8, 1.0588e-06
9835.8, 1.0808e-06
9837.8, 9.7802e-07
9839.8, 9.8601e-07
9841.8, 1.0364e-06
9843.8, 1.0461e-06
9845.8, 1.0548e-06
9847.8, 9.7905e-07
9849.8, 1.0513e-06
9851.8, 1.0257e-06
9853.8, 1.0478e-06
9855.8, 1.0203e-06
9857.8, 1.0105e-06
9859.8, 1.0524e-06
9861.9, 1.0201e-06
9863.9, 1.0432e-06
9865.9, 9.9967e-07
9867.9, 9.89e-07
9869.9, 1.0495e-06
9871.9, 1.007e-06
9873.9, 9.9388e-07
9875.9, 9.7961e-07
9877.9, 1.0238e-06
9879.9, 1.0233e-06
9881.9, 1.0303e-06
9883.9, 9.4557e-07
9885.9, 9.3435e-07
9887.9, 1.0635e-06
9889.9, 9.8956e-07
9891.9, 1.0978e-06
9893.9, 1.001e-06
9895.9, 1.1158e-06
9897.9, 1.0296e-06
9899.9, 1.0314e-06
9901.9, 1.0116e-06
9903.9, 1.0306e-06
9905.9, 1.0284e-06
9907.9, 9.9261e-07
9909.9, 1.054e-06
9911.9, 1.0659e-06
9913.9, 1.064e-06
9915.9, 9.592e-07
9917.9, 9.7938e-07
9919.9, 1.0494e-06
9921.9, 1.0362e-06
9923.9, 9.6556e-07
9925.9, 1.0445e-06
9927.9, 1.0598e-06
9929.9, 1.017e-06
9931.9, 1.0006e-06
9933.9, 1.0472e-06
9935.9, 1.0193e-06
9937.9, 1.0112e-06
9939.9, 1.0218e-06
9941.9, 9.8451e-07
9943.9, 1.0845e-06
9945.9, 9.3627e-07
9947.9, 1.0102e-06
9949.9, 1.0478e-06
9951.9, 9.9308e-07
9953.9, 9.8169e-07
9955.9, 9.7374e-07
9957.9, 9.9556e-07
9959.9, 1.0131e-06
9962.0, 1.0407e-06
9964.0, 1.0172e-06
9966.0, 9.7244e-07
9968.0, 1.0487e-06
9970.0, 9.8978e-07
9972.0, 1.0876e-06
9974.0, 1.0518e-06
9976.0, 1.0172e-06
9978.0, 1.0094e-06
9980.0, 1.0045e-06
9982.0, 9.7908e-07
9984.0, 9.8843e-07
9986.0, 9.879e-07
9988.0, 9.9038e-07
9990.0, 9.3672e-07
9992.0, 1.0756e-06
9994.0, 1.029e-06
9996.0, 1.0248e-06
9998.0, 1.0382e-06
10000.0, 1.1025e-06
10002.0, 9.8941e-07
10004.0, 1.0153e-06
10006.0, 1.036e-06
10008.0, 9.4574e-07
10010.0, 9.8105e-07
10012.0, 9.7887e-07
10014.0, 9.7761e-07
10016.0, 1.0347e-06
10018.0, 1.0587e-06
10020.0, 1.0029e-06
10022.0, 1.0609e-06
10024.0, 1.0381e-06
10026.0, 1.0119e-06
10028.0, 9.316e-07
10030.0, 9.6132e-07
10032.0, 1.0207e-06
10034.0, 9.8148e-07
10036.0, 1.0639e-06
10038.0, 8.9254e-07
10040.0, 1.0242e-06
10042.0, 1.0098e-06
10044.0, 1.0708e-06
10046.0, 9.8909e-07
10048.0, 9.9812e-07
10050.0, 1.0853e-06
10052.0, 9.8966e-07
10054.0, 9.985e-07
10056.0, 1.0653e-06
10058.0, 1.0062e-06
10060.0, 1.001e-06
10062.0, 1.0144e-06
10064.0, 1.0127e-06
10066.0, 1.0577e-06
10068.0, 1.0106e-06
10070.0, 1.0164e-06
10072.0, 1.0166e-06
10074.0, 1.0744e-06
10076.0, 1.0279e-06
10078.0, 1.0889e-06
10080.0, 1.087e-06
10082.0, 9.6372e-07
10084.0, 9.9545e-07
10086.0, 9.9808e-07
10088.0, 1.0488e-06
10090.0, 1.0867e-06
10092.0, 1.0256e-06
10094.0, 1.075e-06
10096.0, 1.0409e-06
10098.0, 1.065e-06
10100.0, 1.0592e-06
10102.0, 1.0817e-06
10104.0, 1.118e-06
10106.0, 1.0582e-06
10108.0, 1.0207e-06
10110.0, 1.0159e-06
10112.0, 1.0244e-06
10114.0, 1.0385e-06
10116.0, 1.0102e-06
10118.0, 1.0362e-06
10120.0, 1.0254e-06
10122.0, 9.9154e-07
10124.0, 1.0197e-06
10126.0, 9.9888e-07
10128.0, 9.5998e-07
10130.0, 1.0286e-06
10132.0, 1.0177e-06
10134.0, 1.1063e-06
10136.0, 1.0255e-06
10138.0, 9.7833e-07
10140.0, 9.7458e-07
10142.0, 9.8429e-07
10144.0, 1.0091e-06
10146.0, 1.016e-06
10148.0, 1.0623e-06
10150.0, 1.0087e-06
10152.0, 9.8556e-07
10154.0, 1.0349e-06
10156.0, 9.613e-07
10158.0, 9.8013e-07
10160.0, 9.8311e-07
10162.0, 1.022e-06
10164.0, 9.8354e-07
10166.0, 9.9165e-07
10168.0, 1.0072e-06
10170.0, 1.057e-06
10172.0, 9.4337e-07
10174.0, 9.5658e-07
10176.0, 9.8056e-07
10178.0, 9.4514e-07
10180.0, 9.8656e-07
10182.0, 1e-06
10184.0, 1.0777e-06
10186.0, 1.0649e-06
10188.0, 1.0344e-06
10190.0, 1.0405e-06
10192.0, 1.0276e-06
10194.0, 9.7956e-07
10196.0, 1.042e-06
10198.0, 9.4929e-07
10200.0, 1.03e-06
10202.0, 1.1019e-06
10204.0, 1.0316e-06
10206.0, 9.5292e-07
10208.0, 1.0674e-06
10210.0, 9.9077e-07
10212.0, 1.0154e-06
10214.0, 1.0024e-06
10216.0, 1.0504e-06
10218.0, 1.0216e-06
10220.0, 1.036e-06
10222.0, 1.0828e-06
10224.0, 1.0063e-06
10226.0, 1.0205e-06
10228.0, 9.5094e-07
10230.0, 1.0935e-06
10232.0, 1.0319e-06
10234.0, 9.6299e-07
10236.0, 9.9887e-07
10238.0, 1.0688e-06
10240.0, 9.8736e-07
10242.0, 1.053e-06
10244.0, 1.0019e-06
10246.0, 1.0238e-06
10248.0, 9.9395e-07
10250.0, 1.0072e-06
10252.0, 9.4994e-07
10254.0, 1.0497e-06
10256.0, 1.0591e-06
10258.0, 1.0182e-06
10260.0, 1.0101e-06
10262.0, 1.0028e-06
10264.0, 1.0814e-06
10266.0, 1.0022e-06
10268.0, 1.0504e-06
10270.0, -2.502e-08
10272.0, -2.97e-08
10274.0, -2.956e-08
10276.0, -3.206e-08
10278.0, -3.275e-08
10280.0, -3.166e-08
10282.0, -2.923e-08
10284.0, -2.906e-08
10286.0, -3.037e-08
10288.0, -2.937e-08
10290.0, -3.038e-08
10292.0, -3.013e-08
10294.0, -3.268e-08
10296.0, -3.225e-08
10298.0, -3.205e-08
10300.0, -3.431e-08
10302.0, -3.347e-08
10304.0, -3.003e-08
10306.0, -3.204e-08
10308.0, -3.192e-08
10310.0, -3.332e-08
10312.0, -3.532e-08
10314.0, -3.33e-08
10316.0, -3.019e-08
10318.0, -3.002e-08
10320.0, -3.373e-08
10322.0, -3.496e-08
10324.0, -3.471e-08
10326.0, -3.51e-08
10328.0, -3.18e-08
10330.0, -3.308e-08
10332.0, -3.6e-08
10334.0, -3.2e-08
10336.0, -3.034e-08
10338.0, -3.521e-08
10340.0, -3.21e-08
10342.0, -3.081e-08
10344.0, -3.454e-08
10346.0, -3.252e-08
10348.0, -3.269e-08
10350.0, -3.127e-08
10352.0, -3.378e-08
10354.0, -3.605e-08
10356.0, -3.468e-08
10358.0, -3.124e-08
10360.0, -3.138e-08
10362.0, -3.205e-08
10364.0, -3.564e-08
10366.0, -3.604e-08
10368.0, -3.335e-08
10370.0, -3.781e-08
10372.0, -3.406e-08
10374.0, -3.465e-08
10376.0, -3.634e-08
10378.0, -3.65e-08
10380.0, -3.61e-08
10382.0, -3.415e-08
10384.0, -3.617e-08
10386.0, -3.521e-08
10388.0, -3.604e-08
10390.0, -3.909e-08
10392.0, -3.583e-08
10394.0, -3.461e-08
10396.0, -3.71e-08
10398.0, -3.102e-08
10400.0, -3.525e-08
10402.0, -3.231e-08
10404.0, -3.429e-08
10406.0, -3.505e-08
10408.0, -3.687e-08
10410.0, -3.324e-08
10412.0, -3.674e-08
10414.0, -3.263e-08
10416.0, -3.24e-08
10418.0, -3.196e-08
10420.0, -3.262e-08
10422.0, -3.071e-08
10424.0, -3.443e-08
10426.0, -3.112e-08
10428.0, -3.339e-08
10430.0, -3.602e-08
10432.0, -3.5e-08
10434.0, -2.996e-08
10436.0, -3.146e-08
10438.0, -3.277e-08
10440.0, -3.568e-08
10442.0, -3.152e-08
10444.0, -3.394e-08
10446.0, -3.363e-08
10448.0, -3.447e-08
10450.0, -3.53e-08
10452.0, -3.4e-08
10454.0, -3.428e-08
10456.0, -3.715e-08
10458.0, -3.701e-08
10460.0, -3.608e-08
10462.0, -3.684e-08
10464.0, -3.864e-08
10466.0, -3.275e-08
10468.0, -3.956e-08
10470.0, -3.567e-08
10472.0, -3.726e-08
10474.0, -3.516e-08
10476.0, -3.53e-08
10478.0, -3.739e-08
10480.0, -3.5e-08
10482.0, -3.682e-08
10484.0, -3.725e-08
10486.0, -3.731e-08
10488.0, -3.653e-08
10490.0, -3.406e-08
10492.0, -3.323e-08
10494.0, -3.232e-08
10496.0, -3.367e-08
10498.0, -3.598e-08
10500.0, -3.294e-08
10502.0, -3.252e-08
10504.0, -3.727e-08
10506.0, -3.488e-08
10508.0, -3.844e-08
10510.0, -3.533e-08
10513.0, -3.547e-08
10515.0, -3.61e-08
10517.0, -3.799e-08
10519.0, -3.374e-08
10521.0, -3.242e-08
10523.0, -3.654e-08
10525.0, -3.749e-08
10527.0, -3.747e-08
10529.0, -3.605e-08
10531.0, -3.745e-08
10533.0, -3.849e-08
10535.0, -3.954e-08
10537.0, -3.521e-08
10539.0, -3.599e-08
10541.0, -3.765e-08
10543.0, -3.695e-08
10545.0, -3.512e-08
10547.0, -3.521e-08
10549.0, -3.458e-08
10551.0, -3.852e-08
10553.0, -3.362e-08
10555.0, -3.542e-08
10557.0, -3.829e-08
10559.0, -3.882e-08
10561.0, -3.64e-08
10563.0, -4.012e-08
10565.0, -3.632e-08
10567.0, -3.811e-08
10569.0, -3.645e-08
10571.0, -4.027e-08
10573.0, -3.694e-08
10575.0, -3.556e-08
10577.0, -3.541e-08
10579.0, -3.577e-08
10581.0, -3.354e-08
10583.0, -3.515e-08
10585.0, -3.222e-08
10587.0, -3.45e-08
10589.0, -3.473e-08
10591.0, -3.638e-08
10593.0, -3.904e-08
10595.0, -3.305e-08
10597.0, -3.449e-08
10599.0, -3.482e-08
10601.0, -3.536e-08
10603.0, -3.827e-08
10605.0, -3.803e-08
10607.0, -3.705e-08
10609.0, -3.696e-08
10611.0, -3.828e-08
10613.0, -3.79e-08
10615.0, -3.591e-08
10617.0, -3.43e-08
10619.0, -3.345e-08
10621.0, -3.47e-08
10623.0, -3.384e-08
10625.0, -3.593e-08
10627.0, -3.66e-08
10629.0, -4.046e-08
10631.0, -3.677e-08
10633.0, -3.752e-08
10635.0, -3.747e-08
10637.0, -3.932e-08
10639.0, -3.759e-08
10641.0, -3.45e-08
10643.0, -3.792e-08
10645.0, -3.318e-08
10647.0, -3.276e-08
10649.0, -3.412e-08
10651.0, -3.226e-08
10653.0, -3.359e-08
10655.0, -3.848e-08
10657.0, -3.636e-08
10659.0, -3.36e-08
10661.0, -3.52e-08
10663.0, -3.34e-08
10665.0, -3.352e-08
10667.0, -3.536e-08
10669.0, -3.317e-08
10671.0, -3.603e-08
10673.0, -3.659e-08
10675.0, -3.616e-08
10677.0, -3.39e-08
10679.0, -3.331e-08
10681.0, -3.202e-08
10683.0, -3.129e-08
10685.0, -3.359e-08
10687.0, -3.313e-08
10689.0, -3.347e-08
10691.0, -3.263e-08
10693.0, -3.102e-08
10695.0, -3.279e-08
10697.0, -2.885e-08
10699.0, -3.114e-08
10701.0, -3.007e-08
10703.0, -3.012e-08
10705.0, -3.294e-08
10707.0, -3.258e-08
10709.0, -3.512e-08
10711.0, -3.387e-08
10713.0, -3.347e-08
10715.0, -3.66e-08
10717.0, -3.425e-08
10719.0, -3.266e-08
10721.0, -3.363e-08
10723.0, -3.262e-08
10725.0, -3.195e-08
10727.0, -3.169e-08
10729.0, -2.968e-08
10731.0, -3.173e-08
10733.0, -3.249e-08
10735.0, -3.071e-08
10737.0, -3.289e-08
10739.0, -3.513e-08
10741.0, -3.65e-08
10743.0, -3.752e-08
10745.0, -3.399e-08
10747.0, -3.683e-08
10749.0, -3.964e-08
10751.0, -3.743e-08
10753.0, -3.754e-08
10755.0, -3.71e-08
10757.0, -3.796e-08
10759.0, -3.806e-08
10761.0, -3.633e-08
10763.0, -3.886e-08
10765.0, -3.592e-08
10767.0, -3.771e-08
10769.0, -3.761e-08
10771.0, -3.632e-08
10773.0, -3.761e-08
10775.0, -3.404e-08
10777.0, -3.292e-08
10779.0, -3.425e-08
10781.0, -3.669e-08
10783.0, -3.278e-08
10785.0, -3.396e-08
10787.0, -3.406e-08
10789.0, -3.675e-08
10791.0, -3.287e-08
10793.0, -3.301e-08
10795.0, -3.532e-08
10797.0, -3.536e-08
10799.0, -3.503e-08
10801.0, -3.354e-08
10803.0, -3.073e-08
10805.0, -3.457e-08
10807.0, -3.175e-08
10809.0, -3.408e-08
10811.0, -2.994e-08
10813.0, -3.062e-08
10815.0, -3.055e-08
10817.0, -3.193e-08
10819.0, -3.026e-08
10821.0, -3.038e-08
10823.0, -3.31e-08
10825.0, -3.344e-08
10827.0, -3.462e-08
10829.0, -3.526e-08
10831.0, -3.445e-08
10833.0, -3.248e-08
10835.0, -3.357e-08
10837.0, -3.371e-08
10839.0, -3.528e-08
10841.0, -3.559e-08
10843.0, -3.728e-08
10845.0, -3.787e-08
10847.0, -3.724e-08
10849.0, -3.447e-08
10851.0, -3.812e-08
10853.0, -3.88e-08
10855.0, -3.507e-08
10857.0, -3.862e-08
10859.0, -3.76e-08
10861.0, -3.704e-08
10863.0, -3.265e-08
10865.0, -3.505e-08
10867.0, -3.332e-08
10869.0, -3.023e-08
10871.0, -3.239e-08
10873.0, -3.474e-08
10875.0, -2.893e-08
10877.0, -3.744e-08
10879.0, -3.448e-08
10881.0, -4.105e-08
10883.0, -3.549e-08
10885.0, -3.35e-08
10887.0, -3.633e-08
10889.0, -3.461e-08
10891.0, -3.434e-08
10893.0, -3.551e-08
10895.0, -3.565e-08
10897.0, -3.703e-08
10899.0, -3.892e-08
10901.0, -3.807e-08
10903.0, -3.629e-08
10905.0, -3.929e-08
10907.0, -4.084e-08
10909.0, -3.684e-08
10911.0, -4.118e-08
10913.0, -3.813e-08
10915.0, -3.846e-08
10917.0, -3.847e-08
10919.0, -3.834e-08
10921.0, -3.897e-08
10923.0, -3.621e-08
10925.0, -3.678e-08
10927.0, -3.592e-08
10929.0, -3.618e-08
10931.0, -3.889e-08
10933.0, -3.665e-08
10935.0, -3.614e-08
10937.0, -3.793e-08
10939.0, -3.597e-08
10941.0, -3.42e-08
10943.0, -3.66e-08
10945.0, -3.572e-08
10947.0, -3.317e-08
10949.0, -3.537e-08
10951.0, -3.542e-08
10953.0, -3.487e-08
10955.0, -3.376e-08
10957.0, -3.348e-08
10959.0, -3.214e-08
10961.0, -3.492e-08
10963.0, -3.09e-08
10965.0, -3.145e-08
10967.0, -3.549e-08
10969.0, -3.351e-08
10971.0, -3.357e-08
10973.0, -3.273e-08
10975.0, -3.509e-08
10977.0, -3.518e-08
10979.0, -3.501e-08
10981.0, -3.371e-08
10983.0, -3.61e-08
10985.0, -3.824e-08
10987.0, -3.666e-08
10989.0, -3.6e-08
10991.0, -3.408e-08
10993.0, -3.316e-08
10995.0, -3.513e-08
10997.0, -3.993e-08
10999.0, -3.678e-08
11001.0, -3.443e-08
11003.0, -3.777e-08
11005.0, -3.4e-08
11007.0, -3.651e-08
11009.0, -3.569e-08
