Time sep (ms?), Current (A)
0.0, -3.728e-08
2.002, -3.681e-08
4.004, -3.633e-08
6.006, -3.459e-08
8.008, -3.536e-08
10.01, -3.657e-08
12.012, -3.861e-08
14.014, -3.437e-08
16.016, -3.6e-08
18.018, -3.388e-08
20.02, -3.279e-08
22.022, -3.017e-08
24.024, -3.405e-08
26.026, -2.804e-08
28.028, -3.518e-08
30.03, -3.117e-08
32.032, -3.41e-08
34.034, -3.418e-08
36.036, -3.094e-08
38.038, -3.587e-08
40.04, -3.556e-08
42.042, -3.274e-08
44.044, -3.104e-08
46.046, -3.122e-08
48.048, -3.123e-08
50.05, -3.38e-08
52.052, -3.635e-08
54.054, -3.384e-08
56.056, -3.625e-08
58.058, -3.385e-08
60.06, -3.555e-08
62.062, -3.351e-08
64.064, -3.653e-08
66.066, -3.341e-08
68.068, -2.949e-08
70.07, -3.051e-08
72.072, -3.375e-08
74.074, -3.292e-08
76.076, -3.182e-08
78.078, -3.229e-08
80.08, -3.128e-08
82.082, -3.384e-08
84.084, -3.106e-08
86.086, -2.888e-08
88.088, -2.815e-08
90.09, -2.948e-08
92.092, -2.669e-08
94.094, -2.716e-08
96.096, -2.785e-08
98.098, -3.084e-08
100.1, -3.414e-08
102.1, -3.107e-08
104.1, -3.149e-08
106.11, -3.121e-08
108.11, -2.946e-08
110.11, -3.045e-08
112.11, -2.97e-08
114.11, -2.985e-08
116.12, -3.272e-08
118.12, -3.068e-08
120.12, -3.451e-08
122.12, -3.061e-08
124.12, -3.41e-08
126.13, -2.874e-08
128.13, -2.815e-08
130.13, -3.326e-08
132.13, -3.076e-08
134.13, -3.389e-08
136.14, -3.356e-08
138.14, -3.402e-08
140.14, -3.554e-08
142.14, -3.565e-08
144.14, -3.353e-08
146.15, -3.355e-08
148.15, -3.475e-08
150.15, -3.338e-08
152.15, -3.294e-08
154.15, -3.789e-08
156.16, -3.577e-08
158.16, -3.443e-08
160.16, -3.306e-08
162.16, -3.435e-08
164.16, -3.304e-08
166.17, -3.301e-08
168.17, -3.323e-08
170.17, -3.382e-08
172.17, -3.233e-08
174.17, -3.036e-08
176.18, -2.899e-08
178.18, -3.011e-08
180.18, -3.372e-08
182.18, -2.993e-08
184.18, -3.036e-08
186.19, -3.126e-08
188.19, -3.086e-08
190.19, -3.115e-08
192.19, -3.429e-08
194.19, -3.15e-08
196.2, -2.9e-08
198.2, -2.826e-08
200.2, -3.541e-08
202.2, -2.934e-08
204.2, -3.15e-08
206.21, -3.32e-08
208.21, -3.218e-08
210.21, -3.207e-08
212.21, -3.127e-08
214.21, -3.468e-08
216.22, -2.995e-08
218.22, -3.086e-08
220.22, -3.179e-08
222.22, -3.283e-08
224.22, -3.014e-08
226.23, -3.414e-08
228.23, -2.983e-08
230.23, -2.551e-08
232.23, -3.098e-08
234.23, -3.459e-08
236.24, -3.232e-08
238.24, -2.954e-08
240.24, -3.441e-08
242.24, -3.07e-08
244.24, -3.533e-08
246.25, -2.871e-08
248.25, -3.165e-08
250.25, -3.461e-08
252.25, -3.261e-08
254.25, -3.225e-08
256.26, -3e-08
258.26, -3.358e-08
260.26, -2.8e-08
262.26, -3.112e-08
264.26, -2.845e-08
266.27, -2.834e-08
268.27, -2.551e-08
270.27, -2.833e-08
272.27, -3.025e-08
274.27, -3.017e-08
276.28, -3.053e-08
278.28, -3.455e-08
280.28, -3.587e-08
282.28, -3.483e-08
284.28, -3.29e-08
286.29, -3.172e-08
288.29, -3.16e-08
290.29, -3.166e-08
292.29, -3.021e-08
294.29, -2.929e-08
296.3, -3.18e-08
298.3, -3.399e-08
300.3, -3.096e-08
302.3, -3.206e-08
304.3, -3.164e-08
306.31, -3.016e-08
308.31, -3.194e-08
310.31, -2.956e-08
312.31, -2.677e-08
314.31, -3.221e-08
316.32, -2.63e-08
318.32, -2.834e-08
320.32, -3.002e-08
322.32, -3.324e-08
324.32, -2.698e-08
326.33, -2.751e-08
328.33, -2.812e-08
330.33, -2.909e-08
332.33, -2.804e-08
334.33, -2.89e-08
336.34, -2.753e-08
338.34, -2.701e-08
340.34, -2.566e-08
342.34, -2.804e-08
344.34, -2.825e-08
346.35, -2.896e-08
348.35, -3.118e-08
350.35, -3.437e-08
352.35, -3.098e-08
354.35, -2.939e-08
356.36, -2.823e-08
358.36, -2.762e-08
360.36, -3.161e-08
362.36, -2.823e-08
364.36, -3.219e-08
366.37, -3.281e-08
368.37, -2.984e-08
370.37, -3.168e-08
372.37, -3.315e-08
374.37, -2.892e-08
376.38, -3.016e-08
378.38, -3.106e-08
380.38, -3.188e-08
382.38, -2.832e-08
384.38, -3.122e-08
386.39, -3.112e-08
388.39, -2.704e-08
390.39, -3.037e-08
392.39, -3.413e-08
394.39, -3.003e-08
396.4, -2.958e-08
398.4, -3.262e-08
400.4, -2.936e-08
402.4, -3.124e-08
404.4, -3.064e-08
406.41, -2.997e-08
408.41, -3.042e-08
410.41, -3.316e-08
412.41, -2.954e-08
414.41, -2.951e-08
416.42, -2.868e-08
418.42, -2.745e-08
420.42, -2.968e-08
422.42, -3.249e-08
424.42, -3.318e-08
426.43, -3.114e-08
428.43, -3.256e-08
430.43, -3.067e-08
432.43, -3.229e-08
434.43, -3.147e-08
436.44, -2.862e-08
438.44, -2.863e-08
440.44, -2.834e-08
442.44, -2.696e-08
444.44, -2.551e-08
446.45, -2.476e-08
448.45, -2.819e-08
450.45, -2.866e-08
452.45, -2.948e-08
454.45, -2.767e-08
456.46, -2.44e-08
458.46, -2.958e-08
460.46, -3.066e-08
462.46, -3.234e-08
464.46, -2.898e-08
466.47, -3.136e-08
468.47, -2.855e-08
470.47, -2.66e-08
472.47, -2.605e-08
474.47, -2.897e-08
476.48, -3.081e-08
478.48, -3.385e-08
480.48, -3.295e-08
482.48, -3.241e-08
484.48, -3.231e-08
486.49, -3.179e-08
488.49, -2.922e-08
490.49, -3.274e-08
492.49, -3.15e-08
494.49, -3.142e-08
496.5, -3.359e-08
498.5, -3.136e-08
500.5, -3.354e-08
502.5, -2.952e-08
504.5, -3.33e-08
506.51, -2.655e-08
508.51, -2.902e-08
510.51, -2.911e-08
512.51, -2.656e-08
514.51, -2.894e-08
516.52, -2.917e-08
518.52, -2.972e-08
520.52, -3.001e-08
522.52, -2.9e-08
524.52, -2.924e-08
526.53, -3.166e-08
528.53, -2.806e-08
530.53, -2.789e-08
532.53, -2.47e-08
534.53, -2.611e-08
536.54, -2.427e-08
538.54, -2.909e-08
540.54, -3e-08
542.54, -3.01e-08
544.54, -2.807e-08
546.55, -2.717e-08
548.55, -2.6e-08
550.55, -3.002e-08
552.55, -2.907e-08
554.55, -2.235e-08
556.56, -2.387e-08
558.56, -2.674e-08
560.56, -2.905e-08
562.56, -2.965e-08
564.56, -3.005e-08
566.57, -2.381e-08
568.57, -2.896e-08
570.57, -3.193e-08
572.57, -3.103e-08
574.57, -3.177e-08
576.58, -2.561e-08
578.58, -3.114e-08
580.58, -2.944e-08
582.58, -2.822e-08
584.58, -2.733e-08
586.59, -2.652e-08
588.59, -2.599e-08
590.59, -2.812e-08
592.59, -2.672e-08
594.59, -2.984e-08
596.6, -2.836e-08
598.6, -2.761e-08
600.6, -2.831e-08
602.6, -3.085e-08
604.6, -2.7e-08
606.61, -2.784e-08
608.61, -2.482e-08
610.61, -2.751e-08
612.61, -2.46e-08
614.61, -2.311e-08
616.62, -2.582e-08
618.62, -2.788e-08
620.62, -2.691e-08
622.62, -2.376e-08
624.62, -2.718e-08
626.63, -2.57e-08
628.63, -3.115e-08
630.63, -3.071e-08
632.63, -2.584e-08
634.63, -2.904e-08
636.64, -2.698e-08
638.64, -2.958e-08
640.64, -2.848e-08
642.64, -3.018e-08
644.64, -2.66e-08
646.65, -2.86e-08
648.65, -2.77e-08
650.65, -2.823e-08
652.65, -3.184e-08
654.65, -2.724e-08
656.66, -2.666e-08
658.66, -2.945e-08
660.66, -3.006e-08
662.66, -3.035e-08
664.66, -3.06e-08
666.67, -2.782e-08
668.67, -2.534e-08
670.67, -2.67e-08
672.67, -2.589e-08
674.67, -2.491e-08
676.68, -2.779e-08
678.68, -2.302e-08
680.68, -2.591e-08
682.68, -2.377e-08
684.68, -2.652e-08
686.69, -2.568e-08
688.69, -2.561e-08
690.69, -2.474e-08
692.69, -2.645e-08
694.69, -2.368e-08
696.7, -2.609e-08
698.7, -2.874e-08
700.7, -2.507e-08
702.7, -2.784e-08
704.7, -3.068e-08
706.71, -2.622e-08
708.71, -2.718e-08
710.71, -2.507e-08
712.71, -3.053e-08
714.71, -3.291e-08
716.72, -2.977e-08
718.72, -3.109e-08
720.72, -2.864e-08
722.72, -3.207e-08
724.72, -3.044e-08
726.73, -3.177e-08
728.73, -3.015e-08
730.73, -3.051e-08
732.73, -2.968e-08
734.73, -3.025e-08
736.74, -2.6e-08
738.74, -2.815e-08
740.74, -2.65e-08
742.74, -2.623e-08
744.74, -2.721e-08
746.75, -3.021e-08
748.75, -3.098e-08
750.75, -3.122e-08
752.75, -2.856e-08
754.75, -3.053e-08
756.76, -2.957e-08
758.76, -2.975e-08
760.76, -2.905e-08
762.76, -2.958e-08
764.76, -3.346e-08
766.77, -3.109e-08
768.77, -3.05e-08
770.77, -3.038e-08
772.77, -3.15e-08
774.77, -3.35e-08
776.78, -3.2e-08
778.78, -2.987e-08
780.78, -3.342e-08
782.78, -3.277e-08
784.78, -3.089e-08
786.79, -3.218e-08
788.79, -3.329e-08
790.79, -3.666e-08
792.79, -3.268e-08
794.79, -3.221e-08
796.8, -3.058e-08
798.8, -3e-08
800.8, -2.761e-08
802.8, -2.731e-08
804.8, -2.732e-08
806.81, -2.924e-08
808.81, -3.056e-08
810.81, -2.949e-08
812.81, -2.908e-08
814.81, -3.413e-08
816.82, -2.885e-08
818.82, -3.19e-08
820.82, -3.389e-08
822.82, -3.091e-08
824.82, -3.165e-08
826.83, -2.95e-08
828.83, -3.082e-08
830.83, -3.222e-08
832.83, -3.251e-08
834.83, -3.386e-08
836.84, -3.314e-08
838.84, -3.163e-08
840.84, -2.976e-08
842.84, -3.102e-08
844.84, -3.058e-08
846.85, -2.923e-08
848.85, -3.132e-08
850.85, -3.041e-08
852.85, -3.134e-08
854.85, -2.818e-08
856.86, -2.639e-08
858.86, -2.821e-08
860.86, -3.372e-08
862.86, -2.819e-08
864.86, -2.819e-08
866.87, -2.943e-08
868.87, -2.744e-08
870.87, -3.067e-08
872.87, -3.21e-08
874.87, -3.067e-08
876.88, -2.895e-08
878.88, -3.071e-08
880.88, -2.59e-08
882.88, -2.732e-08
884.88, -3.017e-08
886.89, -3.044e-08
888.89, -3.058e-08
890.89, -3.144e-08
892.89, -3.243e-08
894.89, -3.248e-08
896.9, -3.303e-08
898.9, -3.299e-08
900.9, -3.207e-08
902.9, -3.512e-08
904.9, -3.426e-08
906.91, -3.324e-08
908.91, -3.346e-08
910.91, -3.064e-08
912.91, -3.613e-08
914.91, -3.405e-08
916.92, -3.246e-08
918.92, -3.508e-08
920.92, -3.565e-08
922.92, -3.352e-08
924.92, -3.614e-08
926.93, -3.345e-08
928.93, -3.368e-08
930.93, -3.462e-08
932.93, -3.226e-08
934.93, -3.344e-08
936.94, -3.494e-08
938.94, -3.37e-08
940.94, -3.204e-08
942.94, -3.56e-08
944.94, -3.73e-08
946.95, -3.774e-08
948.95, -3.799e-08
950.95, -3.911e-08
952.95, -3.632e-08
954.95, -3.286e-08
956.96, -3.626e-08
958.96, -3.627e-08
960.96, -3.476e-08
962.96, -3.915e-08
964.96, -3.315e-08
966.97, -3.468e-08
968.97, -3.287e-08
970.97, -3.392e-08
972.97, -3.567e-08
974.97, -3.596e-08
976.98, -3.463e-08
978.98, -3.635e-08
980.98, -3.792e-08
982.98, -3.409e-08
984.98, -3.869e-08
986.99, -3.395e-08
988.99, -3.343e-08
990.99, -3.336e-08
992.99, -3.441e-08
994.99, -3.219e-08
997.0, -3.427e-08
999.0, -3.539e-08
1001.0, -3.311e-08
1003.0, -3.357e-08
1005.0, -2.812e-08
1007.0, -2.779e-08
1009.0, -2.886e-08
1011.0, -3.205e-08
1013.0, -3.086e-08
1015.0, -3.598e-08
1017.0, -3.318e-08
1019.0, -3.166e-08
1021.0, -3.389e-08
1023.0, -3.254e-08
1025.0, -3.158e-08
1027.0, -3.283e-08
1029.0, -3.335e-08
1031.0, -3.641e-08
1033.0, 3.9054e-07
1035.0, 6.2054e-07
1037.0, 5.9147e-07
1039.0, 5.7202e-07
1041.0, 5.2744e-07
1043.0, 5.7914e-07
1045.0, 6.4937e-07
1047.0, 7.231e-07
1049.0, 5.9526e-07
1051.0, 6.6401e-07
1053.1, 6.0116e-07
1055.1, 6.2429e-07
1057.1, 6.0105e-07
1059.1, 7.2191e-07
1061.1, 6.9808e-07
1063.1, 5.8393e-07
1065.1, 7.6297e-07
1067.1, 6.3023e-07
1069.1, 6.3312e-07
1071.1, 6.3194e-07
1073.1, 6.2533e-07
1075.1, 6.2961e-07
1077.1, 6.2806e-07
1079.1, 6e-07
1081.1, 6.1078e-07
1083.1, 7.3517e-07
1085.1, 6.2822e-07
1087.1, 6.0113e-07
1089.1, 6.1591e-07
1091.1, 6.316e-07
1093.1, 6.4058e-07
1095.1, 6.0667e-07
1097.1, 5.8762e-07
1099.1, 5.2528e-07
1101.1, 6.2917e-07
1103.1, 7.6555e-07
1105.1, 6.1104e-07
1107.1, 6.3958e-07
1109.1, 5.7982e-07
1111.1, 6.3476e-07
1113.1, 6.415e-07
1115.1, 6.1076e-07
1117.1, 6.2634e-07
1119.1, 6.6311e-07
1121.1, 6.4438e-07
1123.1, 7.7626e-07
1125.1, 6.9325e-07
1127.1, 6.7269e-07
1129.1, 7.1845e-07
1131.1, 7.209e-07
1133.1, 6.9033e-07
1135.1, 5.8389e-07
1137.1, 6.8946e-07
1139.1, 6.3735e-07
1141.1, 7.0725e-07
1143.1, 6.3574e-07
1145.1, 6.8308e-07
1147.1, 6.1302e-07
1149.1, 7.8875e-07
1151.1, 7.0244e-07
1153.2, 7.3429e-07
1155.2, 7.2063e-07
1157.2, 7.7423e-07
1159.2, 6.9702e-07
1161.2, 7.0903e-07
1163.2, 6.9134e-07
1165.2, 7.8649e-07
1167.2, 6.3643e-07
1169.2, 6.8566e-07
1171.2, 6.6908e-07
1173.2, 6.7027e-07
1175.2, 6.7756e-07
1177.2, 7.3999e-07
1179.2, 7.5036e-07
1181.2, 7.051e-07
1183.2, 6.408e-07
1185.2, 6.4985e-07
1187.2, 7.2795e-07
1189.2, 6.5363e-07
1191.2, 7.1593e-07
1193.2, 6.9394e-07
1195.2, 6.5046e-07
1197.2, 5.9153e-07
1199.2, 6.573e-07
1201.2, 6.4924e-07
1203.2, 7.175e-07
1205.2, 7.5415e-07
1207.2, 6.7465e-07
1209.2, 6.3588e-07
1211.2, 6.8193e-07
1213.2, 6.7574e-07
1215.2, 7.0656e-07
1217.2, 6.999e-07
1219.2, 7.5948e-07
1221.2, 6.9597e-07
1223.2, 7.2645e-07
1225.2, 7.1508e-07
1227.2, 8.0277e-07
1229.2, 7.378e-07
1231.2, 6.4179e-07
1233.2, 7.2326e-07
1235.2, 7.0086e-07
1237.2, 6.6853e-07
1239.2, 7.1917e-07
1241.2, 6.7522e-07
1243.2, 7.0379e-07
1245.2, 7.8503e-07
1247.2, 7.6118e-07
1249.2, 7.2281e-07
1251.2, 7.04e-07
1253.3, 7.5788e-07
1255.3, 6.33e-07
1257.3, 7.2788e-07
1259.3, 7.2735e-07
1261.3, 7.0097e-07
1263.3, 6.4987e-07
1265.3, 7.1612e-07
1267.3, 6.6381e-07
1269.3, 6.9826e-07
1271.3, 7.2955e-07
1273.3, 7.1665e-07
1275.3, 6.8629e-07
1277.3, 7.2309e-07
1279.3, 7.7791e-07
1281.3, 6.995e-07
1283.3, 7.4304e-07
1285.3, 7.1283e-07
1287.3, 5.9314e-07
1289.3, 7.0138e-07
1291.3, 7.7188e-07
1293.3, 7.1274e-07
1295.3, 7.4941e-07
1297.3, 7.5161e-07
1299.3, 6.7449e-07
1301.3, 7.9378e-07
1303.3, 7.5156e-07
1305.3, 6.4544e-07
1307.3, 6.7517e-07
1309.3, 7.2645e-07
1311.3, 6.8424e-07
1313.3, 8.0655e-07
1315.3, 5.9609e-07
1317.3, 7.1153e-07
1319.3, 6.4123e-07
1321.3, 7.4188e-07
1323.3, 7.3511e-07
1325.3, 6.852e-07
1327.3, 7.8954e-07
1329.3, 7.4058e-07
1331.3, 6.4211e-07
1333.3, 7.1643e-07
1335.3, 7.2307e-07
1337.3, 6.6718e-07
1339.3, 7.6163e-07
1341.3, 7.3394e-07
1343.3, 6.7213e-07
1345.3, 7.1281e-07
1347.3, 7.2865e-07
1349.3, 6.2189e-07
1351.3, 6.9453e-07
1353.4, 7.11e-07
1355.4, 7.275e-07
1357.4, 7.9279e-07
1359.4, 6.9611e-07
1361.4, 7.0125e-07
1363.4, 7.4942e-07
1365.4, 6.6023e-07
1367.4, 7.7028e-07
1369.4, 7.2535e-07
1371.4, 6.7931e-07
1373.4, 6.8602e-07
1375.4, 7.9602e-07
1377.4, 7.6474e-07
1379.4, 7.4231e-07
1381.4, 7.4325e-07
1383.4, 6.9897e-07
1385.4, 7.0558e-07
1387.4, 7.5221e-07
1389.4, 7.1283e-07
1391.4, 7.0178e-07
1393.4, 7.6988e-07
1395.4, 7.5631e-07
1397.4, 6.8595e-07
1399.4, 6.8068e-07
1401.4, 6.9125e-07
1403.4, 7.127e-07
1405.4, 6.9864e-07
1407.4, 6.9736e-07
1409.4, 6.6441e-07
1411.4, 7.5409e-07
1413.4, 7.0854e-07
1415.4, 7.5747e-07
1417.4, 8.1535e-07
1419.4, 7.3013e-07
1421.4, 7.4889e-07
1423.4, 6.7919e-07
1425.4, 7.0921e-07
1427.4, 7.6131e-07
1429.4, 6.845e-07
1431.4, 7.2632e-07
1433.4, 6.7737e-07
1435.4, 6.987e-07
1437.4, 7.9753e-07
1439.4, 7.013e-07
1441.4, 7.3842e-07
1443.4, 7.3319e-07
1445.4, 7.2476e-07
1447.4, 7.4859e-07
1449.4, 7.3769e-07
1451.4, 6.9699e-07
1453.5, 7.5579e-07
1455.5, 6.6379e-07
1457.5, 8.3584e-07
1459.5, 7.6536e-07
1461.5, 7.1833e-07
1463.5, 7.4334e-07
1465.5, 8.4662e-07
1467.5, 7.0212e-07
1469.5, 7.6943e-07
1471.5, 7.5224e-07
1473.5, 7.2411e-07
1475.5, 7.5526e-07
1477.5, 7.9301e-07
1479.5, 8.0233e-07
1481.5, 7.624e-07
1483.5, 7.5569e-07
1485.5, 7.3925e-07
1487.5, 7.8156e-07
1489.5, 8.2784e-07
1491.5, 6.9724e-07
1493.5, 7.6806e-07
1495.5, 7.7326e-07
1497.5, 7.2155e-07
1499.5, 7.7733e-07
1501.5, 6.8727e-07
1503.5, 6.9535e-07
1505.5, 6.992e-07
1507.5, 7.4362e-07
1509.5, 7.7726e-07
1511.5, 7.1986e-07
1513.5, 8.0621e-07
1515.5, 7.244e-07
1517.5, 7.6774e-07
1519.5, 7.4248e-07
1521.5, 7.3397e-07
1523.5, 7.0376e-07
1525.5, 7.1869e-07
1527.5, 7.8525e-07
1529.5, 7.1146e-07
1531.5, 7.3264e-07
1533.5, 7.0597e-07
1535.5, 7.5128e-07
1537.5, 7.4147e-07
1539.5, 8.8295e-07
1541.5, 6.8202e-07
1543.5, 7.3048e-07
1545.5, 7.0858e-07
1547.5, 7.8231e-07
1549.5, 6.901e-07
1551.5, 7.1877e-07
1553.6, 7.5212e-07
1555.6, 8.8596e-07
1557.6, 6.8298e-07
1559.6, 8.1766e-07
1561.6, 7.9234e-07
1563.6, 7.2398e-07
1565.6, 6.4634e-07
1567.6, 8.6552e-07
1569.6, 6.9514e-07
1571.6, 8.0246e-07
1573.6, 8.5999e-07
1575.6, 8.1828e-07
1577.6, 7.9866e-07
1579.6, 7.5659e-07
1581.6, 7.314e-07
1583.6, 6.5869e-07
1585.6, 7.1823e-07
1587.6, 7.7169e-07
1589.6, 7.8436e-07
1591.6, 7.8438e-07
1593.6, 6.9295e-07
1595.6, 7.3945e-07
1597.6, 7.649e-07
1599.6, 7.6629e-07
1601.6, 7.7254e-07
1603.6, 7.599e-07
1605.6, 7.3878e-07
1607.6, 7.6916e-07
1609.6, 7.9145e-07
1611.6, 7.556e-07
1613.6, 6.6449e-07
1615.6, 7.6179e-07
1617.6, 6.8078e-07
1619.6, 7.3728e-07
1621.6, 7.2001e-07
1623.6, 7.6255e-07
1625.6, 7.3034e-07
1627.6, 7.672e-07
1629.6, 7.2185e-07
1631.6, 7.0625e-07
1633.6, 7.4983e-07
1635.6, 7.5551e-07
1637.6, 7.6145e-07
1639.6, 7.5431e-07
1641.6, 7.3948e-07
1643.6, 7.4316e-07
1645.6, 7.6015e-07
1647.6, 8.0441e-07
1649.6, 6.7779e-07
1651.6, 8.2321e-07
1653.7, 7.6837e-07
1655.7, 6.894e-07
1657.7, 7.3064e-07
1659.7, 7.1933e-07
1661.7, 7.5137e-07
1663.7, 6.7148e-07
1665.7, 6.9882e-07
1667.7, 7.1786e-07
1669.7, 7.8622e-07
1671.7, 7.1639e-07
1673.7, 8.2656e-07
1675.7, 7.7569e-07
1677.7, 7.6521e-07
1679.7, 7.2517e-07
1681.7, 7.9676e-07
1683.7, 7.3129e-07
1685.7, 7.8964e-07
1687.7, 7.5857e-07
1689.7, 7.5109e-07
1691.7, 7.4671e-07
1693.7, 7.2739e-07
1695.7, 7.9309e-07
1697.7, 7.2912e-07
1699.7, 7.6064e-07
1701.7, 6.4242e-07
1703.7, 8.4451e-07
1705.7, 7.6024e-07
1707.7, 6.9331e-07
1709.7, 7.4567e-07
1711.7, 7.2803e-07
1713.7, 7.2847e-07
1715.7, 7.9024e-07
1717.7, 7.0311e-07
1719.7, 7.5787e-07
1721.7, 7.8877e-07
1723.7, 7.6978e-07
1725.7, 8.2516e-07
1727.7, 8.1585e-07
1729.7, 7.7262e-07
1731.7, 7.1495e-07
1733.7, 7.9616e-07
1735.7, 8.3359e-07
1737.7, 7.6271e-07
1739.7, 7.861e-07
1741.7, 6.297e-07
1743.7, 7.5985e-07
1745.7, 7.8747e-07
1747.7, 7.5413e-07
1749.7, 7.4405e-07
1751.7, 6.9812e-07
1753.8, 7.1645e-07
1755.8, 7.8343e-07
1757.8, 7.2787e-07
1759.8, 8.6457e-07
1761.8, 6.9138e-07
1763.8, 7.3769e-07
1765.8, 7.3524e-07
1767.8, 8.4256e-07
1769.8, 7.5062e-07
1771.8, 7.0758e-07
1773.8, 7.3025e-07
1775.8, 7.7787e-07
1777.8, 7.9111e-07
1779.8, 7.9225e-07
1781.8, 7.4773e-07
1783.8, 6.6731e-07
1785.8, 7.5418e-07
1787.8, 7.6629e-07
1789.8, 7.0881e-07
1791.8, 6.8326e-07
1793.8, 6.9671e-07
1795.8, 7.6287e-07
1797.8, 7.7445e-07
1799.8, 6.9066e-07
1801.8, 7.508e-07
1803.8, 8.0666e-07
1805.8, 7.457e-07
1807.8, 7.6832e-07
1809.8, 7.7998e-07
1811.8, 6.8541e-07
1813.8, 7.5037e-07
1815.8, 7.9116e-07
1817.8, 7.2608e-07
1819.8, 7.7981e-07
1821.8, 7.8167e-07
1823.8, 6.7844e-07
1825.8, 7.0193e-07
1827.8, 7.085e-07
1829.8, 7.8338e-07
1831.8, 7.3465e-07
1833.8, 6.5105e-07
1835.8, 7.9833e-07
1837.8, 8.0751e-07
1839.8, 7.644e-07
1841.8, 7.4948e-07
1843.8, 7.4226e-07
1845.8, 7.4271e-07
1847.8, 8.192e-07
1849.8, 7.4477e-07
1851.8, 7.512e-07
1853.9, 7.122e-07
1855.9, 6.9296e-07
1857.9, 7.3755e-07
1859.9, 7.6197e-07
1861.9, 7.2518e-07
1863.9, 6.8998e-07
1865.9, 7.8442e-07
1867.9, 7.5797e-07
1869.9, 8.2088e-07
1871.9, 7.5252e-07
1873.9, 7.3537e-07
1875.9, 6.9413e-07
1877.9, 7.2995e-07
1879.9, 8.1262e-07
1881.9, 7.7467e-07
1883.9, 7.2243e-07
1885.9, 7.6232e-07
1887.9, 7.2168e-07
1889.9, 7.6782e-07
1891.9, 7.7482e-07
1893.9, 7.6593e-07
1895.9, 7.0554e-07
1897.9, 8.4812e-07
1899.9, 8.6364e-07
1901.9, 7.8242e-07
1903.9, 7.3704e-07
1905.9, 7.4582e-07
1907.9, 7.7532e-07
1909.9, 7.2256e-07
1911.9, 8.6617e-07
1913.9, 7.7256e-07
1915.9, 7.5144e-07
1917.9, 8.2799e-07
1919.9, 7.0875e-07
1921.9, 7.7322e-07
1923.9, 7.932e-07
1925.9, 7.8139e-07
1927.9, 6.8595e-07
1929.9, 7.0598e-07
1931.9, 7.1778e-07
1933.9, 7.9926e-07
1935.9, 7.6863e-07
1937.9, 7.9781e-07
1939.9, 7.45e-07
1941.9, 7.0074e-07
1943.9, 7.6838e-07
1945.9, 7.2617e-07
1947.9, 7.2618e-07
1949.9, 6.7707e-07
1951.9, 7.473e-07
1954.0, 7.3397e-07
1956.0, 7.3667e-07
1958.0, 7.0602e-07
1960.0, 8.2412e-07
1962.0, 6.3827e-07
1964.0, 9.0464e-07
1966.0, 7.7197e-07
1968.0, 7.8607e-07
1970.0, 7.5413e-07
1972.0, 7.9678e-07
1974.0, 6.8439e-07
1976.0, 7.7587e-07
1978.0, 7.3278e-07
1980.0, 7.0077e-07
1982.0, 7.5329e-07
1984.0, 7.4544e-07
1986.0, 8.2654e-07
1988.0, 8.3548e-07
1990.0, 7.4198e-07
1992.0, 7.5974e-07
1994.0, 7.8013e-07
1996.0, 8.2232e-07
1998.0, 7.6631e-07
2000.0, 7.489e-07
2002.0, 7.3675e-07
2004.0, 7.5054e-07
2006.0, 7.8776e-07
2008.0, 6.9669e-07
2010.0, 7.6148e-07
2012.0, 6.566e-07
2014.0, 7.3092e-07
2016.0, 7.7254e-07
2018.0, 8.402e-07
2020.0, 7.4082e-07
2022.0, 7.7633e-07
2024.0, 7.4522e-07
2026.0, 8.2189e-07
2028.0, 7.7086e-07
2030.0, 7.3049e-07
2032.0, 8.378e-07
2034.0, 3.3278e-07
2036.0, -3.209e-08
2038.0, -3.214e-08
2040.0, -3.237e-08
2042.0, -3.349e-08
2044.0, -3.29e-08
2046.0, -3.319e-08
2048.0, -3.485e-08
2050.0, -3.269e-08
2052.0, -3.229e-08
2054.1, -3.454e-08
2056.1, -3.478e-08
2058.1, -3.377e-08
2060.1, -2.907e-08
2062.1, -2.975e-08
2064.1, -3.359e-08
2066.1, -3.184e-08
2068.1, -3.167e-08
2070.1, -3.324e-08
2072.1, -3.144e-08
2074.1, -3.392e-08
2076.1, -3.32e-08
2078.1, -3.116e-08
2080.1, -3.213e-08
2082.1, -2.928e-08
2084.1, -3.097e-08
2086.1, -2.948e-08
2088.1, -3.278e-08
2090.1, -3.19e-08
2092.1, -3.348e-08
2094.1, -3.518e-08
2096.1, -2.911e-08
2098.1, -3.347e-08
2100.1, -3.08e-08
2102.1, -2.991e-08
2104.1, -3.105e-08
2106.1, -3.226e-08
2108.1, -3.425e-08
2110.1, -3.299e-08
2112.1, -3.381e-08
2114.1, -3.409e-08
2116.1, -3.433e-08
2118.1, -3.123e-08
2120.1, -3.186e-08
2122.1, -3.359e-08
2124.1, -3.244e-08
2126.1, -3.119e-08
2128.1, -3.024e-08
2130.1, -3.197e-08
2132.1, -3.272e-08
2134.1, -3.28e-08
2136.1, -3.334e-08
2138.1, -2.994e-08
2140.1, -3.35e-08
2142.1, -3.336e-08
2144.1, -3.182e-08
2146.1, -3.088e-08
2148.1, -3.281e-08
2150.1, -3.418e-08
2152.1, -3.364e-08
2154.2, -3.16e-08
2156.2, -3.047e-08
2158.2, -3.085e-08
2160.2, -3.322e-08
2162.2, -3.384e-08
2164.2, -3.23e-08
2166.2, -3.184e-08
2168.2, -3.216e-08
2170.2, -2.888e-08
2172.2, -3.003e-08
2174.2, -3.077e-08
2176.2, -3.067e-08
2178.2, -2.785e-08
2180.2, -3.057e-08
2182.2, -3.093e-08
2184.2, -2.684e-08
2186.2, -2.822e-08
2188.2, -3.13e-08
2190.2, -3.057e-08
2192.2, -3.057e-08
2194.2, -2.921e-08
2196.2, -3.465e-08
2198.2, -3.174e-08
2200.2, -3.394e-08
2202.2, -3.378e-08
2204.2, -3.385e-08
2206.2, -3.212e-08
2208.2, -3.435e-08
2210.2, -3.558e-08
2212.2, -3.359e-08
2214.2, -3.151e-08
2216.2, -3.569e-08
2218.2, -3.089e-08
2220.2, -3.325e-08
2222.2, -3.641e-08
2224.2, -3.531e-08
2226.2, -3.646e-08
2228.2, -3.427e-08
2230.2, -3.234e-08
2232.2, -3.824e-08
2234.2, -3.493e-08
2236.2, -3.513e-08
2238.2, -3.414e-08
2240.2, -3.313e-08
2242.2, -3.64e-08
2244.2, -2.991e-08
2246.2, -3.285e-08
2248.2, -3.139e-08
2250.2, -3.466e-08
2252.2, -3.025e-08
2254.3, -3.038e-08
2256.3, -3.247e-08
2258.3, -3.179e-08
2260.3, -3.334e-08
2262.3, -3.221e-08
2264.3, -3.376e-08
2266.3, -3.37e-08
2268.3, -3.621e-08
2270.3, -3.548e-08
2272.3, -3.947e-08
2274.3, -3.284e-08
2276.3, -3.341e-08
2278.3, -3.499e-08
2280.3, -3.593e-08
2282.3, -3.502e-08
2284.3, -3.473e-08
2286.3, -3.197e-08
2288.3, -3.157e-08
2290.3, -3.469e-08
2292.3, -3.316e-08
2294.3, -3.565e-08
2296.3, -3.097e-08
2298.3, -3.209e-08
2300.3, -3.201e-08
2302.3, -3.291e-08
2304.3, -3.392e-08
2306.3, -3.321e-08
2308.3, -3.479e-08
2310.3, -2.699e-08
2312.3, -3.216e-08
2314.3, -3.184e-08
2316.3, -3.147e-08
2318.3, -3.325e-08
2320.3, -3.094e-08
2322.3, -3.131e-08
2324.3, -3.095e-08
2326.3, -3.101e-08
2328.3, -2.994e-08
2330.3, -2.881e-08
2332.3, -2.937e-08
2334.3, -3.053e-08
2336.3, -2.899e-08
2338.3, -2.777e-08
2340.3, -3.063e-08
2342.3, -3.261e-08
2344.3, -3.103e-08
2346.3, -2.751e-08
2348.3, -3.019e-08
2350.3, -3.138e-08
2352.3, -3.339e-08
2354.4, -3.537e-08
2356.4, -2.837e-08
2358.4, -2.913e-08
2360.4, -3.16e-08
2362.4, -3.051e-08
2364.4, -2.88e-08
2366.4, -2.819e-08
2368.4, -3.301e-08
2370.4, -3.041e-08
2372.4, -3.193e-08
2374.4, -3.34e-08
2376.4, -3.217e-08
2378.4, -3.259e-08
2380.4, -3.126e-08
2382.4, -3.263e-08
2384.4, -3.17e-08
2386.4, -3.413e-08
2388.4, -3.156e-08
2390.4, -3.452e-08
2392.4, -3.31e-08
2394.4, -3.076e-08
2396.4, -3.024e-08
2398.4, -3.282e-08
2400.4, -3.232e-08
2402.4, -3.396e-08
2404.4, -2.949e-08
2406.4, -3.19e-08
2408.4, -3.291e-08
2410.4, -3.307e-08
2412.4, -3.156e-08
2414.4, -3.288e-08
2416.4, -3.173e-08
2418.4, -2.945e-08
2420.4, -3.199e-08
2422.4, -3.412e-08
2424.4, -3.256e-08
2426.4, -3.434e-08
2428.4, -3.273e-08
2430.4, -3.399e-08
2432.4, -3.186e-08
2434.4, -3.548e-08
2436.4, -3.466e-08
2438.4, -3.647e-08
2440.4, -3.152e-08
2442.4, -3.474e-08
2444.4, -3.214e-08
2446.4, -3.065e-08
2448.4, -3.282e-08
2450.4, -3.47e-08
2452.4, -3.519e-08
2454.5, -3.511e-08
2456.5, -3.396e-08
2458.5, -3.054e-08
2460.5, -2.677e-08
2462.5, -3.14e-08
2464.5, -3.013e-08
2466.5, -2.936e-08
2468.5, -3.218e-08
2470.5, -2.65e-08
2472.5, -3.01e-08
2474.5, -2.708e-08
2476.5, -3.029e-08
2478.5, -2.957e-08
2480.5, -2.81e-08
2482.5, -3.192e-08
2484.5, -3.081e-08
2486.5, -3.049e-08
2488.5, -3.212e-08
2490.5, -3.233e-08
2492.5, -3.289e-08
2494.5, -3.161e-08
2496.5, -3.125e-08
2498.5, -2.947e-08
2500.5, -3.083e-08
2502.5, -3.37e-08
2504.5, -3.225e-08
2506.5, -3.109e-08
2508.5, -3.088e-08
2510.5, -3.186e-08
2512.5, -3.538e-08
2514.5, -3.526e-08
2516.5, -3.329e-08
2518.5, -3.491e-08
2520.5, -3.493e-08
2522.5, -3.449e-08
2524.5, -3.551e-08
2526.5, -3.389e-08
2528.5, -3.056e-08
2530.5, -3.403e-08
2532.5, -3.514e-08
2534.5, -3.881e-08
2536.5, -3.714e-08
2538.5, -3.432e-08
2540.5, -3.439e-08
2542.5, -3.406e-08
2544.5, -3.279e-08
2546.5, -3.114e-08
2548.5, -3.114e-08
2550.5, -3.246e-08
2552.5, -3.442e-08
2554.6, -3.432e-08
2556.6, -3.455e-08
2558.6, -3.561e-08
2560.6, -3.292e-08
2562.6, -3.668e-08
2564.6, -3.411e-08
2566.6, -3.385e-08
2568.6, -3.28e-08
2570.6, -3.425e-08
2572.6, -3.417e-08
2574.6, -3.384e-08
2576.6, -3.568e-08
2578.6, -3.573e-08
2580.6, -3.493e-08
2582.6, -3.382e-08
2584.6, -3.321e-08
2586.6, -2.979e-08
2588.6, -3.343e-08
2590.6, -3.456e-08
2592.6, -3.375e-08
2594.6, -3.093e-08
2596.6, -3.1e-08
2598.6, -2.782e-08
2600.6, -3.241e-08
2602.6, -3.116e-08
2604.6, -3.17e-08
2606.6, -3.064e-08
2608.6, -3.13e-08
2610.6, -2.959e-08
2612.6, -3.201e-08
2614.6, -3.372e-08
2616.6, -3.47e-08
2618.6, -3.21e-08
2620.6, -3.035e-08
2622.6, -3.559e-08
2624.6, -3.241e-08
2626.6, -3.249e-08
2628.6, -3.482e-08
2630.6, -3.199e-08
2632.6, -3.262e-08
2634.6, -3.658e-08
2636.6, -3.741e-08
2638.6, -3.549e-08
2640.6, -3.537e-08
2642.6, -3.665e-08
2644.6, -3.343e-08
2646.6, -3.171e-08
2648.6, -3.362e-08
2650.6, -3.529e-08
2652.6, -3.593e-08
2654.7, -3.497e-08
2656.7, -3.406e-08
2658.7, -3.491e-08
2660.7, -3.504e-08
2662.7, -3.467e-08
2664.7, -3.532e-08
2666.7, -3.679e-08
2668.7, -3.329e-08
2670.7, -3.451e-08
2672.7, -3.336e-08
2674.7, -3.472e-08
2676.7, -3.004e-08
2678.7, -3.181e-08
2680.7, -3.41e-08
2682.7, -2.829e-08
2684.7, -3.054e-08
2686.7, -3.147e-08
2688.7, -2.888e-08
2690.7, -2.928e-08
2692.7, -3.414e-08
2694.7, -3.342e-08
2696.7, -3.146e-08
2698.7, -3.16e-08
2700.7, -3.25e-08
2702.7, -3.814e-08
2704.7, -3.666e-08
2706.7, -3.101e-08
2708.7, -3.397e-08
2710.7, -3.525e-08
2712.7, -4.005e-08
2714.7, -3.248e-08
2716.7, -3.525e-08
2718.7, -3.826e-08
2720.7, -3.601e-08
2722.7, -3.528e-08
2724.7, -3.694e-08
2726.7, -3.615e-08
2728.7, -3.666e-08
2730.7, -3.826e-08
2732.7, -3.636e-08
2734.7, -3.82e-08
2736.7, -3.803e-08
2738.7, -3.278e-08
2740.7, -3.252e-08
2742.7, -3.482e-08
2744.7, -3.3e-08
2746.7, -3.604e-08
2748.7, -3.443e-08
2750.7, -3.363e-08
2752.7, -3.482e-08
2754.8, -3.657e-08
2756.8, -3.64e-08
2758.8, -3.353e-08
2760.8, -3.555e-08
2762.8, -3.288e-08
2764.8, -3.769e-08
2766.8, -3.585e-08
2768.8, -3.715e-08
2770.8, -3.708e-08
2772.8, -3.632e-08
2774.8, -3.566e-08
2776.8, -3.329e-08
2778.8, -3.36e-08
2780.8, -3.712e-08
2782.8, -3.277e-08
2784.8, -3.439e-08
2786.8, -3.36e-08
2788.8, -3.687e-08
2790.8, -3.551e-08
2792.8, -3.564e-08
2794.8, -3.195e-08
2796.8, -3.153e-08
2798.8, -2.998e-08
2800.8, -3.294e-08
2802.8, -3.503e-08
2804.8, -3.514e-08
2806.8, -3.422e-08
2808.8, -3.689e-08
2810.8, -3.236e-08
2812.8, -3.322e-08
2814.8, -3.345e-08
2816.8, -3.699e-08
2818.8, -3.753e-08
2820.8, -3.58e-08
2822.8, -3.558e-08
2824.8, -3.755e-08
2826.8, -3.956e-08
2828.8, -3.479e-08
2830.8, -3.921e-08
2832.8, -3.847e-08
2834.8, -3.69e-08
2836.8, -3.901e-08
2838.8, -3.891e-08
2840.8, -3.774e-08
2842.8, -3.712e-08
2844.8, -3.867e-08
2846.8, -3.764e-08
2848.8, -3.479e-08
2850.8, -3.48e-08
2852.8, -3.548e-08
2854.9, -3.65e-08
2856.9, -3.82e-08
2858.9, -3.765e-08
2860.9, -3.292e-08
2862.9, -3.893e-08
2864.9, -3.891e-08
2866.9, -3.611e-08
2868.9, -3.8e-08
2870.9, -3.864e-08
2872.9, -3.674e-08
2874.9, -4.304e-08
2876.9, -3.491e-08
2878.9, -3.805e-08
2880.9, -3.367e-08
2882.9, -3.775e-08
2884.9, -3.698e-08
2886.9, -3.883e-08
2888.9, -3.75e-08
2890.9, -3.465e-08
2892.9, -3.515e-08
2894.9, -3.413e-08
2896.9, -3.227e-08
2898.9, -2.869e-08
2900.9, -3.215e-08
2902.9, -3.242e-08
2904.9, -3.63e-08
2906.9, -3.497e-08
2908.9, -3.426e-08
2910.9, -3.346e-08
2912.9, -3.354e-08
2914.9, -3.436e-08
2916.9, -3.247e-08
2918.9, -3.361e-08
2920.9, -3.675e-08
2922.9, -3.544e-08
2924.9, -3.407e-08
2926.9, -3.257e-08
2928.9, -3.463e-08
2930.9, -3.356e-08
2932.9, -3.366e-08
2934.9, -3.097e-08
2936.9, -3.312e-08
2938.9, -3.209e-08
2940.9, -3.2e-08
2942.9, -3.347e-08
2944.9, -3.722e-08
2946.9, -3.411e-08
2948.9, -3.51e-08
2950.9, -3.281e-08
2952.9, -3.408e-08
2955.0, -3.774e-08
2957.0, -3.757e-08
2959.0, -3.739e-08
2961.0, -3.402e-08
2963.0, -3.256e-08
2965.0, -3.541e-08
2967.0, -3.436e-08
2969.0, -3.59e-08
2971.0, -3.162e-08
2973.0, -3.35e-08
2975.0, -3.58e-08
2977.0, -3.227e-08
2979.0, -3.653e-08
2981.0, -3.588e-08
2983.0, -3.398e-08
2985.0, -3.254e-08
2987.0, -3.54e-08
2989.0, -3.513e-08
2991.0, -3.678e-08
2993.0, -3.417e-08
2995.0, -3.803e-08
2997.0, -3.535e-08
2999.0, -3.584e-08
3001.0, -3.535e-08
3003.0, -3.634e-08
3005.0, -3.947e-08
3007.0, -3.779e-08
3009.0, -3.451e-08
3011.0, -3.108e-08
3013.0, -3.653e-08
3015.0, -3.732e-08
3017.0, -3.415e-08
3019.0, -2.85e-08
3021.0, -3.223e-08
3023.0, -3.383e-08
3025.0, -3.382e-08
3027.0, -3.502e-08
3029.0, -3.53e-08
3031.0, -3.666e-08
3033.0, -3.019e-08
3035.0, -3.69e-08
3037.0, -3.487e-08
3039.0, -3.447e-08
3041.0, -3.718e-08
3043.0, -3.66e-08
3045.0, -3.489e-08
3047.0, -3.314e-08
3049.0, -3.542e-08
3051.0, -3.227e-08
3053.0, -3.689e-08
3055.1, -3.686e-08
3057.1, -3.773e-08
3059.1, -3.448e-08
3061.1, -3.147e-08
3063.1, -3.161e-08
3065.1, -3.581e-08
3067.1, -3.348e-08
3069.1, -3.695e-08
3071.1, -3.365e-08
3073.1, -3.468e-08
3075.1, -3.243e-08
3077.1, -3.354e-08
3079.1, -3.287e-08
3081.1, -3.47e-08
3083.1, 6.7374e-07
3085.1, 6.7483e-07
3087.1, 6.1918e-07
3089.1, 6.5323e-07
3091.1, 6.1292e-07
3093.1, 6.2384e-07
3095.1, 6.8749e-07
3097.1, 6.8043e-07
3099.1, 6.4374e-07
3101.1, 6.6064e-07
3103.1, 6.517e-07
3105.1, 6.1385e-07
3107.1, 6.8867e-07
3109.1, 6.619e-07
3111.1, 5.9594e-07
3113.1, 6.0361e-07
3115.1, 6.4844e-07
3117.1, 6.2652e-07
3119.1, 6.6474e-07
3121.1, 6.8637e-07
3123.1, 6.7135e-07
3125.1, 6.6606e-07
3127.1, 7.3258e-07
3129.1, 6.5232e-07
3131.1, 5.989e-07
3133.1, 7.03e-07
3135.1, 6.5308e-07
3137.1, 7.4491e-07
3139.1, 6.6722e-07
3141.1, 6.1395e-07
3143.1, 5.9402e-07
3145.1, 6.7946e-07
3147.1, 6.1808e-07
3149.1, 6.6483e-07
3151.1, 6.641e-07
3153.1, 7.0398e-07
3155.2, 6.7824e-07
3157.2, 6.5645e-07
3159.2, 7.0287e-07
3161.2, 6.3716e-07
3163.2, 6.835e-07
3165.2, 6.641e-07
3167.2, 6.6702e-07
3169.2, 6.7441e-07
3171.2, 5.9947e-07
3173.2, 6.913e-07
3175.2, 7.0025e-07
3177.2, 6.8601e-07
3179.2, 7.5999e-07
3181.2, 7.3587e-07
3183.2, 6.9922e-07
3185.2, 6.6169e-07
3187.2, 6.5068e-07
3189.2, 6.7566e-07
3191.2, 6.7081e-07
3193.2, 7.2196e-07
3195.2, 7.7233e-07
3197.2, 6.1644e-07
3199.2, 6.8836e-07
3201.2, 6.8034e-07
3203.2, 6.7744e-07
3205.2, 7.7121e-07
3207.2, 8.1581e-07
3209.2, 6.7409e-07
3211.2, 7.1007e-07
3213.2, 7.1199e-07
3215.2, 6.6474e-07
3217.2, 6.9755e-07
3219.2, 6.3949e-07
3221.2, 7.3455e-07
3223.2, 6.7469e-07
3225.2, 6.6307e-07
3227.2, 6.4362e-07
3229.2, 7.2492e-07
3231.2, 7.1075e-07
3233.2, 6.6672e-07
3235.2, 6.9045e-07
3237.2, 6.908e-07
3239.2, 7.1315e-07
3241.2, 7.079e-07
3243.2, 7.4693e-07
3245.2, 7.0702e-07
3247.2, 7.9198e-07
3249.2, 6.8476e-07
3251.2, 7.3325e-07
3253.2, 6.141e-07
3255.3, 6.8438e-07
3257.3, 7.3416e-07
3259.3, 7.2403e-07
3261.3, 7.0769e-07
3263.3, 7.0649e-07
3265.3, 6.6064e-07
3267.3, 7.108e-07
3269.3, 7.3449e-07
3271.3, 7.1294e-07
3273.3, 7.0159e-07
3275.3, 7.1776e-07
3277.3, 6.4283e-07
3279.3, 7.4552e-07
3281.3, 7.6651e-07
3283.3, 7.3402e-07
3285.3, 7.5294e-07
3287.3, 6.8652e-07
3289.3, 7.6203e-07
3291.3, 7.5831e-07
3293.3, 7.076e-07
3295.3, 7.4105e-07
3297.3, 7.4173e-07
3299.3, 6.9984e-07
3301.3, 6.6874e-07
3303.3, 7.96e-07
3305.3, 6.9572e-07
3307.3, 8.0631e-07
3309.3, 7.3687e-07
3311.3, 8.0001e-07
3313.3, 7.298e-07
3315.3, 6.8726e-07
3317.3, 6.7858e-07
3319.3, 7.8439e-07
3321.3, 7.349e-07
3323.3, 7.13e-07
3325.3, 7.027e-07
3327.3, 7.0385e-07
3329.3, 6.6988e-07
3331.3, 7.2456e-07
3333.3, 7.5693e-07
3335.3, 7.6192e-07
3337.3, 7.141e-07
3339.3, 6.6855e-07
3341.3, 7.057e-07
3343.3, 7.1616e-07
3345.3, 6.5244e-07
3347.3, 7.1539e-07
3349.3, 6.5884e-07
3351.3, 7.3698e-07
3353.3, 7.8046e-07
3355.4, 7.8358e-07
3357.4, 6.5692e-07
3359.4, 7.6783e-07
3361.4, 8.0114e-07
3363.4, 6.6132e-07
3365.4, 7.0796e-07
3367.4, 6.966e-07
3369.4, 6.2296e-07
3371.4, 7.9924e-07
3373.4, 7.1854e-07
3375.4, 7.2705e-07
3377.4, 6.8756e-07
3379.4, 8.1626e-07
3381.4, 6.6154e-07
3383.4, 7.5785e-07
3385.4, 7.0379e-07
3387.4, 7.4921e-07
3389.4, 6.3102e-07
3391.4, 6.8647e-07
3393.4, 7.1214e-07
3395.4, 8.0725e-07
3397.4, 6.8439e-07
3399.4, 7.2941e-07
3401.4, 7.8617e-07
3403.4, 7.145e-07
3405.4, 7.9605e-07
3407.4, 6.7677e-07
3409.4, 7.2469e-07
3411.4, 7.6659e-07
3413.4, 7.1824e-07
3415.4, 6.8372e-07
3417.4, 7.8342e-07
3419.4, 7.1075e-07
3421.4, 7.3563e-07
3423.4, 6.9759e-07
3425.4, 6.4995e-07
3427.4, 7.4454e-07
3429.4, 7.0714e-07
3431.4, 6.9457e-07
3433.4, 7.0565e-07
3435.4, 8.0802e-07
3437.4, 7.0298e-07
3439.4, 7.1558e-07
3441.4, 7.074e-07
3443.4, 7.0171e-07
3445.4, 7.5001e-07
3447.4, 7.5328e-07
3449.4, 7.6758e-07
3451.4, 7.2572e-07
3453.4, 7.2597e-07
3455.5, 7.3717e-07
3457.5, 7.1313e-07
3459.5, 7.5996e-07
3461.5, 7.5814e-07
3463.5, 8.3864e-07
3465.5, 7.1622e-07
3467.5, 7.9135e-07
3469.5, 7.8223e-07
3471.5, 7.7078e-07
3473.5, 7.2253e-07
3475.5, 6.6245e-07
3477.5, 6.4582e-07
3479.5, 6.758e-07
3481.5, 7.5948e-07
3483.5, 7.7867e-07
3485.5, 7.635e-07
3487.5, 7.5944e-07
3489.5, 6.4067e-07
3491.5, 8.1775e-07
3493.5, 7.198e-07
3495.5, 7.624e-07
3497.5, 6.819e-07
3499.5, 7.751e-07
3501.5, 6.8878e-07
3503.5, 7.4889e-07
3505.5, 7.4138e-07
3507.5, 6.7473e-07
3509.5, 8.3657e-07
3511.5, 7.6186e-07
3513.5, 7.7849e-07
3515.5, 7.2208e-07
3517.5, 7.7273e-07
3519.5, 7.1274e-07
3521.5, 7.6316e-07
3523.5, 6.7922e-07
3525.5, 7.9567e-07
3527.5, 7.804e-07
3529.5, 8.0599e-07
3531.5, 7.9616e-07
3533.5, 7.9295e-07
3535.5, 6.7695e-07
3537.5, 7.9013e-07
3539.5, 7.4496e-07
3541.5, 7.6639e-07
3543.5, 7.2911e-07
3545.5, 7.8879e-07
3547.5, 7.6029e-07
3549.5, 7.5367e-07
3551.5, 6.7908e-07
3553.5, 8.0228e-07
3555.6, 7.3793e-07
3557.6, 7.7338e-07
3559.6, 8.2046e-07
3561.6, 7.1743e-07
3563.6, 7.1652e-07
3565.6, 7.7088e-07
3567.6, 7.1781e-07
3569.6, 7.7785e-07
3571.6, 7.6328e-07
3573.6, 6.9254e-07
3575.6, 7.7958e-07
3577.6, 7.8482e-07
3579.6, 7.2895e-07
3581.6, 7.0483e-07
3583.6, 7.4636e-07
3585.6, 7.9508e-07
3587.6, 7.2537e-07
3589.6, 6.7437e-07
3591.6, 7.8842e-07
3593.6, 7.3757e-07
3595.6, 8.6883e-07
3597.6, 6.7195e-07
3599.6, 7.1034e-07
3601.6, 7.3759e-07
3603.6, 7.5646e-07
3605.6, 7.5206e-07
3607.6, 6.8657e-07
3609.6, 7.3879e-07
3611.6, 7.2666e-07
3613.6, 7.5872e-07
3615.6, 7.9619e-07
3617.6, 6.8443e-07
3619.6, 6.8323e-07
3621.6, 7.7577e-07
3623.6, 7.0381e-07
3625.6, 7.7787e-07
3627.6, 7.147e-07
3629.6, 6.7867e-07
3631.6, 8.0558e-07
3633.6, 8.5294e-07
3635.6, 7.4163e-07
3637.6, 7.5585e-07
3639.6, 7.6263e-07
3641.6, 7.1419e-07
3643.6, 7.7734e-07
3645.6, 7.2958e-07
3647.6, 7.3265e-07
3649.6, 7.6305e-07
3651.6, 6.8336e-07
3653.6, 7.3915e-07
3655.7, 6.9386e-07
3657.7, 8.8736e-07
3659.7, 7.7276e-07
3661.7, 7.0264e-07
3663.7, 8.5008e-07
3665.7, 7.2118e-07
3667.7, 7.2509e-07
3669.7, 7.6653e-07
3671.7, 7.34e-07
3673.7, 7.5489e-07
3675.7, 7.2061e-07
3677.7, 7.8303e-07
3679.7, 7.4272e-07
3681.7, 7.6702e-07
3683.7, 7.9447e-07
3685.7, 7.867e-07
3687.7, 7.4282e-07
3689.7, 7.7012e-07
3691.7, 7.5424e-07
3693.7, 7.8127e-07
3695.7, 7.4206e-07
3697.7, 7.3283e-07
3699.7, 7.1602e-07
3701.7, 7.2337e-07
3703.7, 7.5695e-07
3705.7, 8.7569e-07
3707.7, 8.3964e-07
3709.7, 6.8007e-07
3711.7, 7.6059e-07
3713.7, 8.6717e-07
3715.7, 7.7632e-07
3717.7, 8.2828e-07
3719.7, 7.9373e-07
3721.7, 8.4256e-07
3723.7, 7.6023e-07
3725.7, 7.3811e-07
3727.7, 7.6136e-07
3729.7, 8.1009e-07
3731.7, 7.5409e-07
3733.7, 8.0338e-07
3735.7, 7.6003e-07
3737.7, 7.3729e-07
3739.7, 7.2801e-07
3741.7, 7.6243e-07
3743.7, 7.0859e-07
3745.7, 8.2098e-07
3747.7, 7.5882e-07
3749.7, 8.028e-07
3751.7, 8.3732e-07
3753.7, 7.502e-07
3755.8, 7.1491e-07
3757.8, 7.143e-07
3759.8, 6.6944e-07
3761.8, 7.5778e-07
3763.8, 7.4916e-07
3765.8, 7.4501e-07
3767.8, 7.5203e-07
3769.8, 7.7852e-07
3771.8, 6.9247e-07
3773.8, 7.9539e-07
3775.8, 7.7251e-07
3777.8, 7.1836e-07
3779.8, 7.421e-07
3781.8, 7.1428e-07
3783.8, 7.2172e-07
3785.8, 7.4267e-07
3787.8, 6.8223e-07
3789.8, 8.1073e-07
3791.8, 7.6577e-07
3793.8, 7.7674e-07
3795.8, 7.4449e-07
3797.8, 7.5221e-07
3799.8, 7.6295e-07
3801.8, 8.0668e-07
3803.8, 7.7893e-07
3805.8, 7.7649e-07
3807.8, 8.1556e-07
3809.8, 7.1124e-07
3811.8, 7.9299e-07
3813.8, 7.6596e-07
3815.8, 8.447e-07
3817.8, 7.8759e-07
3819.8, 8.06e-07
3821.8, 7.3937e-07
3823.8, 7.1071e-07
3825.8, 8.0172e-07
3827.8, 7.8041e-07
3829.8, 7.3052e-07
3831.8, 7.4621e-07
3833.8, 8.1494e-07
3835.8, 6.7211e-07
3837.8, 8.013e-07
3839.8, 7.5624e-07
3841.8, 7.4685e-07
3843.8, 8.3117e-07
3845.8, 8.539e-07
3847.8, 7.7602e-07
3849.8, 8.2954e-07
3851.8, 7.3812e-07
3853.8, 7.3165e-07
3855.9, 8.6652e-07
3857.9, 7.0589e-07
3859.9, 7.772e-07
3861.9, 7.5976e-07
3863.9, 8.5994e-07
3865.9, 7.8286e-07
3867.9, 7.9478e-07
3869.9, 7.8471e-07
3871.9, 8.0915e-07
3873.9, 8.2104e-07
3875.9, 6.9591e-07
3877.9, 8.4135e-07
3879.9, 7.9489e-07
3881.9, 6.6167e-07
3883.9, 6.7944e-07
3885.9, 7.636e-07
3887.9, 7.6394e-07
3889.9, 7.797e-07
3891.9, 7.0801e-07
3893.9, 7.4525e-07
3895.9, 7.8894e-07
3897.9, 7.3e-07
3899.9, 8.1375e-07
3901.9, 7.8258e-07
3903.9, 7.4187e-07
3905.9, 7.9911e-07
3907.9, 7.1639e-07
3909.9, 7.1784e-07
3911.9, 8.4176e-07
3913.9, 7.3138e-07
3915.9, 7.8643e-07
3917.9, 7.9309e-07
3919.9, 7.2744e-07
3921.9, 6.9982e-07
3923.9, 7.531e-07
3925.9, 8.463e-07
3927.9, 7.6338e-07
3929.9, 7.5852e-07
3931.9, 8.2385e-07
3933.9, 7.4636e-07
3935.9, 7.497e-07
3937.9, 7.3195e-07
3939.9, 7.1937e-07
3941.9, 8.2663e-07
3943.9, 7.8018e-07
3945.9, 7.7409e-07
3947.9, 7.6689e-07
3949.9, 7.6131e-07
3951.9, 6.7968e-07
3953.9, 7.7613e-07
3956.0, 7.4664e-07
3958.0, 7.7588e-07
3960.0, 8.2137e-07
3962.0, 7.2283e-07
3964.0, 7.6049e-07
3966.0, 7.4178e-07
3968.0, 7.6067e-07
3970.0, 7.6374e-07
3972.0, 7.3716e-07
3974.0, 7.7923e-07
3976.0, 8.4768e-07
3978.0, 7.525e-07
3980.0, 7.3651e-07
3982.0, 8.1207e-07
3984.0, 7.7969e-07
3986.0, 8.4942e-07
3988.0, 7.8834e-07
3990.0, 7.5426e-07
3992.0, 7.9686e-07
3994.0, 7.9746e-07
3996.0, 8.502e-07
3998.0, 6.9972e-07
4000.0, 7.4851e-07
4002.0, 7.6925e-07
4004.0, 7.148e-07
4006.0, 7.5527e-07
4008.0, 7.8122e-07
4010.0, 7.6737e-07
4012.0, 7.1084e-07
4014.0, 8.0483e-07
4016.0, 7.5041e-07
4018.0, 7.834e-07
4020.0, 8.3978e-07
4022.0, 7.2254e-07
4024.0, 7.252e-07
4026.0, 7.4037e-07
4028.0, 7.7574e-07
4030.0, 6.9951e-07
4032.0, 7.3455e-07
4034.0, 7.0712e-07
4036.0, 8.7593e-07
4038.0, 8.1456e-07
4040.0, 7.1721e-07
4042.0, 7.1067e-07
4044.0, 7.4984e-07
4046.0, 8.6904e-07
4048.0, 7.6819e-07
4050.0, 7.796e-07
4052.0, 7.7252e-07
4054.0, 7.4275e-07
4056.1, 7.1728e-07
4058.1, 8.1827e-07
4060.1, 8.4144e-07
4062.1, 7.4803e-07
4064.1, 7.7149e-07
4066.1, 7.0713e-07
4068.1, 7.6993e-07
4070.1, 7.6982e-07
4072.1, 7.6605e-07
4074.1, 7.6316e-07
4076.1, 7.2137e-07
4078.1, 7.7227e-07
4080.1, 7.8659e-07
4082.1, 7.6751e-07
4084.1, -2.681e-08
4086.1, -3.472e-08
4088.1, -3.584e-08
4090.1, -3.428e-08
4092.1, -3.347e-08
4094.1, -3.087e-08
4096.1, -3.42e-08
4098.1, -3.25e-08
4100.1, -3.189e-08
4102.1, -3.177e-08
4104.1, -3.373e-08
4106.1, -3.655e-08
4108.1, -3.5e-08
4110.1, -3.463e-08
4112.1, -3.444e-08
4114.1, -3.487e-08
4116.1, -3.52e-08
4118.1, -3.04e-08
4120.1, -3.398e-08
4122.1, -3.515e-08
4124.1, -3.066e-08
4126.1, -3.121e-08
4128.1, -2.895e-08
4130.1, -3.196e-08
4132.1, -2.952e-08
4134.1, -3.118e-08
4136.1, -3.442e-08
4138.1, -2.946e-08
4140.1, -3.489e-08
4142.1, -3.203e-08
4144.1, -3.468e-08
4146.1, -3.399e-08
4148.1, -3.134e-08
4150.1, -3.238e-08
4152.1, -3.1e-08
4154.1, -3.474e-08
4156.2, -3.258e-08
4158.2, -2.981e-08
4160.2, -3.253e-08
4162.2, -3.042e-08
4164.2, -3.224e-08
4166.2, -3.143e-08
4168.2, -3.761e-08
4170.2, -3.139e-08
4172.2, -2.982e-08
4174.2, -3.225e-08
4176.2, -3.581e-08
4178.2, -3.136e-08
4180.2, -2.86e-08
4182.2, -3.178e-08
4184.2, -3.554e-08
4186.2, -3.442e-08
4188.2, -3.637e-08
4190.2, -3.508e-08
4192.2, -3.107e-08
4194.2, -3.259e-08
4196.2, -3.132e-08
4198.2, -3.28e-08
4200.2, -3.429e-08
4202.2, -3.331e-08
4204.2, -3.223e-08
4206.2, -3.44e-08
4208.2, -3.145e-08
4210.2, -3.248e-08
4212.2, -3.27e-08
4214.2, -3.316e-08
4216.2, -3.513e-08
4218.2, -2.988e-08
4220.2, -3e-08
4222.2, -3.373e-08
4224.2, -3.791e-08
4226.2, -3.467e-08
4228.2, -3.723e-08
4230.2, -3.88e-08
4232.2, -3.543e-08
4234.2, -3.905e-08
4236.2, -3.59e-08
4238.2, -3.311e-08
4240.2, -3.375e-08
4242.2, -3.41e-08
4244.2, -3.08e-08
4246.2, -3.277e-08
4248.2, -3.581e-08
4250.2, -3.232e-08
4252.2, -3.289e-08
4254.2, -3.264e-08
4256.3, -3.197e-08
4258.3, -3.52e-08
4260.3, -3.227e-08
4262.3, -3.606e-08
4264.3, -4.02e-08
4266.3, -3.405e-08
4268.3, -3.43e-08
4270.3, -3.571e-08
4272.3, -3.638e-08
4274.3, -3.32e-08
4276.3, -3.224e-08
4278.3, -3.118e-08
4280.3, -3.289e-08
4282.3, -3.38e-08
4284.3, -3.375e-08
4286.3, -3.1e-08
4288.3, -3.149e-08
4290.3, -3.425e-08
4292.3, -3.356e-08
4294.3, -3.296e-08
4296.3, -3.232e-08
4298.3, -3.51e-08
4300.3, -3.08e-08
4302.3, -3.236e-08
4304.3, -3.292e-08
4306.3, -3.077e-08
4308.3, -3.497e-08
4310.3, -3.613e-08
4312.3, -2.955e-08
4314.3, -3.315e-08
4316.3, -3.131e-08
4318.3, -3.105e-08
4320.3, -2.898e-08
4322.3, -3.309e-08
4324.3, -3.551e-08
4326.3, -3.252e-08
4328.3, -3.229e-08
4330.3, -3.253e-08
4332.3, -3.145e-08
4334.3, -3.222e-08
4336.3, -3.502e-08
4338.3, -3.042e-08
4340.3, -3.627e-08
4342.3, -3.635e-08
4344.3, -3.611e-08
4346.3, -3.342e-08
4348.3, -3.617e-08
4350.3, -3.244e-08
4352.3, -3.347e-08
4354.3, -3.229e-08
4356.4, -3.586e-08
4358.4, -3.229e-08
4360.4, -3.244e-08
4362.4, -3.3e-08
4364.4, -3.578e-08
4366.4, -3.372e-08
4368.4, -3.114e-08
4370.4, -3.32e-08
4372.4, -3.435e-08
4374.4, -3.569e-08
4376.4, -3.423e-08
4378.4, -3.504e-08
4380.4, -3.559e-08
4382.4, -3.684e-08
4384.4, -3.62e-08
4386.4, -3.676e-08
4388.4, -3.614e-08
4390.4, -3.126e-08
4392.4, -3.288e-08
4394.4, -3.484e-08
4396.4, -3.468e-08
4398.4, -3.435e-08
4400.4, -3.483e-08
4402.4, -3.74e-08
4404.4, -3.41e-08
4406.4, -3.197e-08
4408.4, -3.669e-08
4410.4, -3.533e-08
4412.4, -3.734e-08
4414.4, -3.714e-08
4416.4, -3.541e-08
4418.4, -3.593e-08
4420.4, -3.361e-08
4422.4, -3.293e-08
4424.4, -3.512e-08
4426.4, -3.363e-08
4428.4, -3.181e-08
4430.4, -3.555e-08
4432.4, -3.41e-08
4434.4, -3.186e-08
4436.4, -3.246e-08
4438.4, -3.145e-08
4440.4, -3.531e-08
4442.4, -3.161e-08
4444.4, -3.258e-08
4446.4, -3.37e-08
4448.4, -3.252e-08
4450.4, -3.484e-08
4452.4, -3.443e-08
4454.4, -3.662e-08
4456.5, -3.277e-08
4458.5, -3.101e-08
4460.5, -3.018e-08
4462.5, -3.776e-08
4464.5, -3.869e-08
4466.5, -3.737e-08
4468.5, -3.664e-08
4470.5, -4.003e-08
4472.5, -3.58e-08
4474.5, -3.935e-08
4476.5, -3.759e-08
4478.5, -3.826e-08
4480.5, -3.572e-08
4482.5, -3.129e-08
4484.5, -3.409e-08
4486.5, -3.283e-08
4488.5, -3.495e-08
4490.5, -3.26e-08
4492.5, -3.366e-08
4494.5, -3.118e-08
4496.5, -3.278e-08
4498.5, -3.211e-08
4500.5, -3.432e-08
4502.5, -3.197e-08
4504.5, -3.147e-08
4506.5, -3.495e-08
4508.5, -3.264e-08
4510.5, -3.248e-08
4512.5, -3.272e-08
4514.5, -3.314e-08
4516.5, -3.459e-08
4518.5, -3.29e-08
4520.5, -3.599e-08
4522.5, -3.327e-08
4524.5, -3.718e-08
4526.5, -3.38e-08
4528.5, -3.332e-08
4530.5, -3.18e-08
4532.5, -3.281e-08
4534.5, -3.555e-08
4536.5, -3.566e-08
4538.5, -3.423e-08
4540.5, -2.926e-08
4542.5, -3.294e-08
4544.5, -3.094e-08
4546.5, -2.962e-08
4548.5, -3.224e-08
4550.5, -3.009e-08
4552.5, -3.157e-08
4554.5, -3.444e-08
4556.6, -3.213e-08
4558.6, -2.931e-08
4560.6, -3.509e-08
4562.6, -3.425e-08
4564.6, -3.406e-08
4566.6, -3.273e-08
4568.6, -3.132e-08
4570.6, -3.417e-08
4572.6, -3.433e-08
4574.6, -3.628e-08
4576.6, -3.67e-08
4578.6, -3.191e-08
4580.6, -3.349e-08
4582.6, -3.535e-08
4584.6, -3.569e-08
4586.6, -3.009e-08
4588.6, -3.229e-08
4590.6, -2.791e-08
4592.6, -3.523e-08
4594.6, -3.272e-08
4596.6, -4.054e-08
4598.6, -3.672e-08
4600.6, -3.357e-08
4602.6, -3.588e-08
4604.6, -3.551e-08
4606.6, -3.458e-08
4608.6, -3.593e-08
4610.6, -3.445e-08
4612.6, -3.596e-08
4614.6, -3.656e-08
4616.6, -3.679e-08
4618.6, -3.7e-08
4620.6, -3.408e-08
4622.6, -3.638e-08
4624.6, -3.299e-08
4626.6, -3.457e-08
4628.6, -3.423e-08
4630.6, -3.68e-08
4632.6, -3.91e-08
4634.6, -3.548e-08
4636.6, -3.205e-08
4638.6, -3.421e-08
4640.6, -3.276e-08
4642.6, -3.386e-08
4644.6, -3.575e-08
4646.6, -3.657e-08
4648.6, -4.004e-08
4650.6, -3.672e-08
4652.6, -3.393e-08
4654.6, -3.114e-08
4656.7, -3.533e-08
4658.7, -3.647e-08
4660.7, -3.584e-08
4662.7, -3.883e-08
4664.7, -3.394e-08
4666.7, -3.646e-08
4668.7, -3.452e-08
4670.7, -3.448e-08
4672.7, -3.026e-08
4674.7, -3.345e-08
4676.7, -3.249e-08
4678.7, -3.584e-08
4680.7, -3.632e-08
4682.7, -3.676e-08
4684.7, -3.896e-08
4686.7, -3.312e-08
4688.7, -3.692e-08
4690.7, -3.412e-08
4692.7, -3.711e-08
4694.7, -3.712e-08
4696.7, -3.419e-08
4698.7, -3.528e-08
4700.7, -3.489e-08
4702.7, -3.179e-08
4704.7, -3.45e-08
4706.7, -3.236e-08
4708.7, -3.078e-08
4710.7, -3.111e-08
4712.7, -3.755e-08
4714.7, -3.238e-08
4716.7, -3.138e-08
4718.7, -3.288e-08
4720.7, -3.388e-08
4722.7, -3.198e-08
4724.7, -3.463e-08
4726.7, -3.147e-08
4728.7, -3.162e-08
4730.7, -3.616e-08
4732.7, -3.209e-08
4734.7, -3.511e-08
4736.7, -3.535e-08
4738.7, -3.483e-08
4740.7, -3.363e-08
4742.7, -3.508e-08
4744.7, -3.527e-08
4746.7, -3.498e-08
4748.7, -3.161e-08
4750.7, -3.361e-08
4752.7, -3.595e-08
4754.7, -3.29e-08
4756.8, -3.409e-08
4758.8, -3.208e-08
4760.8, -3.266e-08
4762.8, -3.432e-08
4764.8, -3.265e-08
4766.8, -3.123e-08
4768.8, -3.326e-08
4770.8, -3.443e-08
4772.8, -3.234e-08
4774.8, -3.516e-08
4776.8, -3.352e-08
4778.8, -3.686e-08
4780.8, -3.632e-08
4782.8, -3.652e-08
4784.8, -3.847e-08
4786.8, -3.831e-08
4788.8, -3.627e-08
4790.8, -3.675e-08
4792.8, -3.347e-08
4794.8, -3.693e-08
4796.8, -3.337e-08
4798.8, -3.267e-08
4800.8, -3.409e-08
4802.8, -3.644e-08
4804.8, -3.333e-08
4806.8, -3.179e-08
4808.8, -3.438e-08
4810.8, -3.535e-08
4812.8, -3.611e-08
4814.8, -3.651e-08
4816.8, -3.22e-08
4818.8, -3.258e-08
4820.8, -3.221e-08
4822.8, -3.202e-08
4824.8, -3.215e-08
4826.8, -2.949e-08
4828.8, -3.038e-08
4830.8, -3.276e-08
4832.8, -3.157e-08
4834.8, -3.04e-08
4836.8, -3.135e-08
4838.8, -3.292e-08
4840.8, -3.138e-08
4842.8, -3.185e-08
4844.8, -2.752e-08
4846.8, -2.588e-08
4848.8, -2.703e-08
4850.8, -3.172e-08
4852.8, -3.24e-08
4854.8, -3.057e-08
4856.9, -3.026e-08
4858.9, -3.275e-08
4860.9, -3.534e-08
4862.9, -3.263e-08
4864.9, -3.503e-08
4866.9, -3.488e-08
4868.9, -3.385e-08
4870.9, -3.348e-08
4872.9, -3.289e-08
4874.9, -3.293e-08
4876.9, -3.35e-08
4878.9, -3.256e-08
4880.9, -3.294e-08
4882.9, -3.533e-08
4884.9, -3.227e-08
4886.9, -3.065e-08
4888.9, -3.464e-08
4890.9, -3.144e-08
4892.9, -3.15e-08
4894.9, -3.145e-08
4896.9, -3.035e-08
4898.9, -2.815e-08
4900.9, -2.922e-08
4902.9, -2.667e-08
4904.9, -3.037e-08
4906.9, -3.099e-08
4908.9, -3.236e-08
4910.9, -3.532e-08
4912.9, -3.594e-08
4914.9, -3.401e-08
4916.9, -3.274e-08
4918.9, -3.134e-08
4920.9, -3.612e-08
4922.9, -3.606e-08
4924.9, -3.21e-08
4926.9, -3.268e-08
4928.9, -3.616e-08
4930.9, -3.701e-08
4932.9, -3.659e-08
4934.9, -3.457e-08
4936.9, -3.317e-08
4938.9, -3.364e-08
4940.9, -3.152e-08
4942.9, -3.644e-08
4944.9, -3.589e-08
4946.9, -3.108e-08
4948.9, -3.192e-08
4950.9, -3.461e-08
4952.9, -3.431e-08
4954.9, -3.708e-08
4957.0, -3.423e-08
4959.0, -3.142e-08
4961.0, -3.11e-08
4963.0, -3.389e-08
4965.0, -3.469e-08
4967.0, -3.533e-08
4969.0, -3.585e-08
4971.0, -3.207e-08
4973.0, -3.452e-08
4975.0, -3.308e-08
4977.0, -3.48e-08
4979.0, -3.107e-08
4981.0, -2.935e-08
4983.0, -3.17e-08
4985.0, -2.962e-08
4987.0, -3.349e-08
4989.0, -3.111e-08
4991.0, -2.966e-08
4993.0, -2.81e-08
4995.0, -3.221e-08
4997.0, -2.934e-08
4999.0, -3.291e-08
5001.0, -3.113e-08
5003.0, -3.179e-08
5005.0, -3.497e-08
5007.0, -3.09e-08
5009.0, -2.983e-08
5011.0, -3.228e-08
5013.0, -2.854e-08
5015.0, -3.049e-08
5017.0, -3.366e-08
5019.0, -3.505e-08
5021.0, -3.461e-08
5023.0, -3.281e-08
5025.0, -3.056e-08
5027.0, -3.27e-08
5029.0, -2.749e-08
5031.0, -2.923e-08
5033.0, -3.273e-08
5035.0, -3.385e-08
5037.0, -3.545e-08
5039.0, -3.556e-08
5041.0, -3.421e-08
5043.0, -3.474e-08
5045.0, -3.143e-08
5047.0, -3.311e-08
5049.0, -3.152e-08
5051.0, -3.28e-08
5053.0, -3.572e-08
5055.0, -3.494e-08
5057.1, -3.457e-08
5059.1, -2.996e-08
5061.1, -3.118e-08
5063.1, -3.034e-08
5065.1, -3.489e-08
5067.1, -3.651e-08
5069.1, -3.355e-08
5071.1, -3.171e-08
5073.1, -3.344e-08
5075.1, -3.37e-08
5077.1, -3.149e-08
5079.1, -3.379e-08
5081.1, -3.062e-08
5083.1, -3.316e-08
5085.1, -3.404e-08
5087.1, -3.12e-08
5089.1, -2.972e-08
5091.1, -2.905e-08
5093.1, -3.106e-08
5095.1, -2.902e-08
5097.1, -3.284e-08
5099.1, -3.371e-08
5101.1, -3.607e-08
5103.1, -3.415e-08
5105.1, -3.274e-08
5107.1, -2.998e-08
5109.1, -3.119e-08
5111.1, -2.622e-08
5113.1, -3.016e-08
5115.1, 6.3619e-07
5117.1, 6.462e-07
5119.1, 6.6619e-07
5121.1, 7.1812e-07
5123.1, 8.0743e-07
5125.1, 6.0648e-07
5127.1, 7.3498e-07
5129.1, 6.2084e-07
5131.1, 7.0504e-07
5133.1, 5.8944e-07
5135.1, 6.3958e-07
5137.1, 6.9946e-07
5139.1, 5.8588e-07
5141.1, 6.8272e-07
5143.1, 6.3353e-07
5145.1, 6.6157e-07
5147.1, 6.3714e-07
5149.1, 7.4322e-07
5151.1, 6.8157e-07
5153.1, 7.167e-07
5155.1, 6.5907e-07
5157.2, 7.3397e-07
5159.2, 7.7064e-07
5161.2, 7.1245e-07
5163.2, 6.2961e-07
5165.2, 6.4225e-07
5167.2, 6.4656e-07
5169.2, 7.0977e-07
5171.2, 5.8921e-07
5173.2, 6.6496e-07
5175.2, 7.3923e-07
5177.2, 6.6986e-07
5179.2, 6.1918e-07
5181.2, 6.6329e-07
5183.2, 6.5492e-07
5185.2, 6.9538e-07
5187.2, 7.5961e-07
5189.2, 7.1011e-07
5191.2, 5.9849e-07
5193.2, 6.4457e-07
5195.2, 6.1787e-07
5197.2, 6.8986e-07
5199.2, 6.0188e-07
5201.2, 6.7622e-07
5203.2, 6.0487e-07
5205.2, 7.158e-07
5207.2, 6.5557e-07
5209.2, 6.8256e-07
5211.2, 6.5174e-07
5213.2, 6.0832e-07
5215.2, 6.7409e-07
5217.2, 7.6493e-07
5219.2, 6.6378e-07
5221.2, 7.0433e-07
5223.2, 6.3966e-07
5225.2, 6.5124e-07
5227.2, 6.2957e-07
5229.2, 6.256e-07
5231.2, 6.8016e-07
5233.2, 7.0307e-07
5235.2, 6.6491e-07
5237.2, 5.8136e-07
5239.2, 6.6308e-07
5241.2, 6.3657e-07
5243.2, 7.4075e-07
5245.2, 7.3793e-07
5247.2, 7.6665e-07
5249.2, 7.113e-07
5251.2, 6.6776e-07
5253.2, 6.3835e-07
5255.2, 7.4761e-07
5257.3, 7.9358e-07
5259.3, 6.3943e-07
5261.3, 7.4966e-07
5263.3, 8.5496e-07
5265.3, 6.9641e-07
5267.3, 7.145e-07
5269.3, 6.2677e-07
5271.3, 7.2621e-07
5273.3, 7.5992e-07
5275.3, 7.822e-07
5277.3, 7.6842e-07
5279.3, 7.0868e-07
5281.3, 6.8041e-07
5283.3, 7.8497e-07
5285.3, 7.6871e-07
5287.3, 7.3451e-07
5289.3, 6.9188e-07
5291.3, 6.6893e-07
5293.3, 7.3635e-07
5295.3, 7.5706e-07
5297.3, 7.6156e-07
5299.3, 7.2637e-07
5301.3, 7.436e-07
5303.3, 7.661e-07
5305.3, 7.0587e-07
5307.3, 6.8173e-07
5309.3, 6.8558e-07
5311.3, 7.7899e-07
5313.3, 7.2091e-07
5315.3, 7.5105e-07
5317.3, 6.8074e-07
5319.3, 7.7438e-07
5321.3, 7.7384e-07
5323.3, 7.8212e-07
5325.3, 7.9191e-07
5327.3, 7.2634e-07
5329.3, 7.4452e-07
5331.3, 7.7042e-07
5333.3, 7.3774e-07
5335.3, 6.8999e-07
5337.3, 7.2992e-07
5339.3, 7.7229e-07
5341.3, 7.1104e-07
5343.3, 7.196e-07
5345.3, 7.8269e-07
5347.3, 6.8968e-07
5349.3, 7.4709e-07
5351.3, 6.8329e-07
5353.3, 7.8488e-07
5355.3, 7.2279e-07
5357.4, 7.2944e-07
5359.4, 7.4746e-07
5361.4, 6.9442e-07
5363.4, 7.0491e-07
5365.4, 7.3921e-07
5367.4, 8.0331e-07
5369.4, 6.5825e-07
5371.4, 7.4796e-07
5373.4, 7.52e-07
5375.4, 6.6103e-07
5377.4, 7.3366e-07
5379.4, 6.9751e-07
5381.4, 6.9993e-07
5383.4, 7.0946e-07
5385.4, 7.4768e-07
5387.4, 6.8246e-07
5389.4, 7.3058e-07
5391.4, 7.2608e-07
5393.4, 7.6123e-07
5395.4, 7.2799e-07
5397.4, 7.2545e-07
5399.4, 7.3376e-07
5401.4, 7.2377e-07
5403.4, 5.8759e-07
5405.4, 7.4533e-07
5407.4, 7.6166e-07
5409.4, 8.1309e-07
5411.4, 7.5004e-07
5413.4, 6.6378e-07
5415.4, 7.5161e-07
5417.4, 7.5824e-07
5419.4, 6.9379e-07
5421.4, 6.956e-07
5423.4, 7.9203e-07
5425.4, 7.2734e-07
5427.4, 7.6538e-07
5429.4, 7.9073e-07
5431.4, 6.7567e-07
5433.4, 7.3469e-07
5435.4, 7.4322e-07
5437.4, 8.0989e-07
5439.4, 6.1148e-07
5441.4, 7.413e-07
5443.4, 7.6823e-07
5445.4, 7.4568e-07
5447.4, 7.8713e-07
5449.4, 7.5737e-07
5451.4, 8.1895e-07
5453.4, 7.6027e-07
5455.4, 7.657e-07
5457.5, 8.136e-07
5459.5, 7.9648e-07
5461.5, 7.0184e-07
5463.5, 6.7078e-07
5465.5, 8.0957e-07
5467.5, 6.232e-07
5469.5, 7.6915e-07
5471.5, 6.6506e-07
5473.5, 7.1291e-07
5475.5, 6.7135e-07
5477.5, 7.8157e-07
5479.5, 8.2555e-07
5481.5, 7.3819e-07
5483.5, 6.6757e-07
5485.5, 7.6024e-07
5487.5, 7.3817e-07
5489.5, 6.9681e-07
5491.5, 6.9819e-07
5493.5, 7.2779e-07
5495.5, 7.002e-07
5497.5, 7.5991e-07
5499.5, 7.464e-07
5501.5, 7.774e-07
5503.5, 7.5849e-07
5505.5, 7.3781e-07
5507.5, 7.4678e-07
5509.5, 7.2963e-07
5511.5, 7.1501e-07
5513.5, 7.6197e-07
5515.5, 6.902e-07
5517.5, 7.393e-07
5519.5, 7.1796e-07
5521.5, 8.6325e-07
5523.5, 7.5768e-07
5525.5, 7.0142e-07
5527.5, 6.8361e-07
5529.5, 7.7567e-07
5531.5, 8.5894e-07
5533.5, 7.7241e-07
5535.5, 7.8007e-07
5537.5, 8.5967e-07
5539.5, 8.9665e-07
5541.5, 7.558e-07
5543.5, 7.6046e-07
5545.5, 7.013e-07
5547.5, 8.2384e-07
5549.5, 7.9233e-07
5551.5, 7.474e-07
5553.5, 6.9643e-07
5555.5, 7.7883e-07
5557.6, 8.6648e-07
5559.6, 7.3768e-07
5561.6, 7.3907e-07
5563.6, 7.2753e-07
5565.6, 6.9776e-07
5567.6, 7.0127e-07
5569.6, 8.2148e-07
5571.6, 7.487e-07
5573.6, 7.0521e-07
5575.6, 7.2711e-07
5577.6, 7.5209e-07
5579.6, 7.4067e-07
5581.6, 7.9642e-07
5583.6, 7.9154e-07
5585.6, 7.6248e-07
5587.6, 7.0874e-07
5589.6, 7.4936e-07
5591.6, 7.443e-07
5593.6, 7.8564e-07
5595.6, 7.4862e-07
5597.6, 7.735e-07
5599.6, 7.7371e-07
5601.6, 7.6061e-07
5603.6, 6.9483e-07
5605.6, 7.1463e-07
5607.6, 7.0642e-07
5609.6, 7.0534e-07
5611.6, 7.4787e-07
5613.6, 6.6932e-07
5615.6, 7.569e-07
5617.6, 7.8753e-07
5619.6, 8.0257e-07
5621.6, 6.8253e-07
5623.6, 7.3374e-07
5625.6, 6.8513e-07
5627.6, 8.1554e-07
5629.6, 7.7969e-07
5631.6, 7.5947e-07
5633.6, 7.5022e-07
5635.6, 7.7297e-07
5637.6, 6.9631e-07
5639.6, 8.2505e-07
5641.6, 7.2391e-07
5643.6, 7.4582e-07
5645.6, 7.8109e-07
5647.6, 7.5663e-07
5649.6, 6.5588e-07
5651.6, 7.7285e-07
5653.6, 7.4767e-07
5655.6, 7.5225e-07
5657.7, 8.4029e-07
5659.7, 7.5289e-07
5661.7, 8.9337e-07
5663.7, 8.0358e-07
5665.7, 8.1867e-07
5667.7, 7.9914e-07
5669.7, 7.4916e-07
5671.7, 8.1864e-07
5673.7, 7.9145e-07
5675.7, 7.4952e-07
5677.7, 7.6015e-07
5679.7, 7.327e-07
5681.7, 6.7674e-07
5683.7, 7.2013e-07
5685.7, 7.6032e-07
5687.7, 8.3784e-07
5689.7, 7.6481e-07
5691.7, 8.0775e-07
5693.7, 7.8004e-07
5695.7, 7.4976e-07
5697.7, 7.0309e-07
5699.7, 7.3307e-07
5701.7, 6.5842e-07
5703.7, 7.1528e-07
5705.7, 7.6932e-07
5707.7, 7.4115e-07
5709.7, 7.2884e-07
5711.7, 7.7228e-07
5713.7, 8.0056e-07
5715.7, 7.4154e-07
5717.7, 7.742e-07
5719.7, 7.0219e-07
5721.7, 7.0191e-07
5723.7, 7.188e-07
5725.7, 8.1843e-07
5727.7, 6.5015e-07
5729.7, 7.0994e-07
5731.7, 7.5542e-07
5733.7, 7.7279e-07
5735.7, 7.2345e-07
5737.7, 7.992e-07
5739.7, 7.3695e-07
5741.7, 7.6183e-07
5743.7, 7.314e-07
5745.7, 6.7084e-07
5747.7, 7.2176e-07
5749.7, 8.0011e-07
5751.7, 7.153e-07
5753.7, 8.321e-07
5755.7, 7.4138e-07
5757.8, 6.7534e-07
5759.8, 7.1749e-07
5761.8, 6.1936e-07
5763.8, 8.3277e-07
5765.8, 7.0814e-07
5767.8, 7.324e-07
5769.8, 7.7496e-07
5771.8, 7.493e-07
5773.8, 7.4181e-07
5775.8, 7.8779e-07
5777.8, 7.6541e-07
5779.8, 7.533e-07
5781.8, 7.6807e-07
5783.8, 7.8535e-07
5785.8, 6.568e-07
5787.8, 7.3466e-07
5789.8, 7.7241e-07
5791.8, 7.972e-07
5793.8, 8.171e-07
5795.8, 7.6029e-07
5797.8, 6.9929e-07
5799.8, 7.674e-07
5801.8, 7.8549e-07
5803.8, 7.6602e-07
5805.8, 7.6735e-07
5807.8, 8.8847e-07
5809.8, 7.1721e-07
5811.8, 7.9508e-07
5813.8, 8.423e-07
5815.8, 7.0727e-07
5817.8, 8.2281e-07
5819.8, 6.7887e-07
5821.8, 6.8831e-07
5823.8, 7.8571e-07
5825.8, 7.9844e-07
5827.8, 7.3894e-07
5829.8, 8.0115e-07
5831.8, 6.3511e-07
5833.8, 7.3194e-07
5835.8, 7.7136e-07
5837.8, 7.0252e-07
5839.8, 8.453e-07
5841.8, 8.2964e-07
5843.8, 7.7754e-07
5845.8, 7.7457e-07
5847.8, 7.5884e-07
5849.8, 7.8232e-07
5851.8, 7.2442e-07
5853.8, 7.5533e-07
5855.8, 7.5523e-07
5857.9, 7.4822e-07
5859.9, 7.7129e-07
5861.9, 7.3512e-07
5863.9, 7.7139e-07
5865.9, 6.955e-07
5867.9, 7.6999e-07
5869.9, 6.4886e-07
5871.9, 7.6543e-07
5873.9, 7.7275e-07
5875.9, 7.9167e-07
5877.9, 7.9207e-07
5879.9, 7.1436e-07
5881.9, 7.1827e-07
5883.9, 7.7269e-07
5885.9, 8.7688e-07
5887.9, 7.4531e-07
5889.9, 7.5281e-07
5891.9, 7.7228e-07
5893.9, 7.3713e-07
5895.9, 7.403e-07
5897.9, 6.9311e-07
5899.9, 7.7274e-07
5901.9, 7.1474e-07
5903.9, 7.2806e-07
5905.9, 7.5704e-07
5907.9, 7.836e-07
5909.9, 7.6042e-07
5911.9, 8.0323e-07
5913.9, 7.5701e-07
5915.9, 7.5952e-07
5917.9, 8.4195e-07
5919.9, 8.7926e-07
5921.9, 7.9404e-07
5923.9, 8.0003e-07
5925.9, 7.7888e-07
5927.9, 7.8722e-07
5929.9, 7.1464e-07
5931.9, 7.277e-07
5933.9, 7.5968e-07
5935.9, 6.6815e-07
5937.9, 7.7725e-07
5939.9, 8.5536e-07
5941.9, 8.0528e-07
5943.9, 6.9847e-07
5945.9, 7.6527e-07
5947.9, 7.6854e-07
5949.9, 7.0325e-07
5951.9, 7.0516e-07
5953.9, 8.3801e-07
5955.9, 7.7806e-07
5958.0, 6.8617e-07
5960.0, 7.2074e-07
5962.0, 7.8617e-07
5964.0, 7.3589e-07
5966.0, 7.462e-07
5968.0, 8.2337e-07
5970.0, 7.6822e-07
5972.0, 6.7358e-07
5974.0, 7.7505e-07
5976.0, 8.9225e-07
5978.0, 7.0823e-07
5980.0, 6.7323e-07
5982.0, 7.2463e-07
5984.0, 7.5546e-07
5986.0, 7.2941e-07
5988.0, 7.5874e-07
5990.0, 7.0768e-07
5992.0, 7.5586e-07
5994.0, 7.9995e-07
5996.0, 6.9687e-07
5998.0, 7.2285e-07
6000.0, 7.5111e-07
6002.0, 8.1983e-07
6004.0, 6.871e-07
6006.0, 7.4681e-07
6008.0, 7.8588e-07
6010.0, 7.935e-07
6012.0, 7.6762e-07
6014.0, 6.7275e-07
6016.0, 7.306e-07
6018.0, 7.3043e-07
6020.0, 7.0961e-07
6022.0, 7.8985e-07
6024.0, 7.3773e-07
6026.0, 8.3561e-07
6028.0, 8.035e-07
6030.0, 7.2673e-07
6032.0, 7.4762e-07
6034.0, 7.0823e-07
6036.0, 8.0388e-07
6038.0, 7.7793e-07
6040.0, 7.8556e-07
6042.0, 8.259e-07
6044.0, 7.6016e-07
6046.0, 6.9159e-07
6048.0, 7.4596e-07
6050.0, 7.8587e-07
6052.0, 7.5595e-07
6054.0, 7.4578e-07
6056.0, 7.9821e-07
6058.1, 6.8635e-07
6060.1, 6.8741e-07
6062.1, 7.6658e-07
6064.1, 7.7986e-07
6066.1, 7.1495e-07
6068.1, 7.3423e-07
6070.1, 7.7476e-07
6072.1, 7.4421e-07
6074.1, 7.1589e-07
6076.1, 8.0071e-07
6078.1, 7.0113e-07
6080.1, 7.6893e-07
6082.1, 8.3678e-07
6084.1, 7.4056e-07
6086.1, 7.0029e-07
6088.1, 7.7036e-07
6090.1, 7.6645e-07
6092.1, 7.7977e-07
6094.1, 7.2879e-07
6096.1, 7.5866e-07
6098.1, 8.159e-07
6100.1, 8.1094e-07
6102.1, 7.7783e-07
6104.1, 7.0456e-07
6106.1, 7.1788e-07
6108.1, 7.8942e-07
6110.1, 6.7868e-07
6112.1, 7.7759e-07
6114.1, 7.9775e-07
6116.1, -3.253e-08
6118.1, -3.488e-08
6120.1, -3.287e-08
6122.1, -3.768e-08
6124.1, -3.59e-08
6126.1, -3.415e-08
6128.1, -3.76e-08
6130.1, -3.725e-08
6132.1, -4.033e-08
6134.1, -4.083e-08
6136.1, -4.106e-08
6138.1, -4.036e-08
6140.1, -3.812e-08
6142.1, -3.68e-08
6144.1, -3.636e-08
6146.1, -3.638e-08
6148.1, -3.824e-08
6150.1, -3.583e-08
6152.1, -3.867e-08
6154.1, -4.002e-08
6156.1, -4.018e-08
6158.2, -3.752e-08
6160.2, -3.764e-08
6162.2, -3.586e-08
6164.2, -3.786e-08
6166.2, -3.941e-08
6168.2, -3.961e-08
6170.2, -3.782e-08
6172.2, -3.364e-08
6174.2, -3.764e-08
6176.2, -3.606e-08
6178.2, -3.937e-08
6180.2, -3.546e-08
6182.2, -3.76e-08
6184.2, -3.544e-08
6186.2, -3.539e-08
6188.2, -3.476e-08
6190.2, -3.574e-08
6192.2, -4.041e-08
6194.2, -3.799e-08
6196.2, -3.743e-08
6198.2, -3.587e-08
6200.2, -3.448e-08
6202.2, -3.761e-08
6204.2, -3.602e-08
6206.2, -3.601e-08
6208.2, -3.687e-08
6210.2, -3.92e-08
6212.2, -3.616e-08
6214.2, -3.45e-08
6216.2, -3.786e-08
6218.2, -3.482e-08
6220.2, -3.506e-08
6222.2, -3.868e-08
6224.2, -3.381e-08
6226.2, -3.693e-08
6228.2, -3.813e-08
6230.2, -3.882e-08
6232.2, -3.616e-08
6234.2, -3.59e-08
6236.2, -3.559e-08
6238.2, -3.649e-08
6240.2, -3.667e-08
6242.2, -3.771e-08
6244.2, -3.774e-08
6246.2, -3.71e-08
6248.2, -3.797e-08
6250.2, -3.637e-08
6252.2, -3.918e-08
6254.2, -3.712e-08
6256.2, -4.065e-08
6258.3, -3.684e-08
6260.3, -3.259e-08
6262.3, -3.663e-08
6264.3, -3.488e-08
6266.3, -3.333e-08
6268.3, -3.684e-08
6270.3, -3.473e-08
6272.3, -3.647e-08
6274.3, -3.58e-08
6276.3, -3.674e-08
6278.3, -3.373e-08
6280.3, -3.539e-08
6282.3, -3.63e-08
6284.3, -3.776e-08
6286.3, -3.854e-08
6288.3, -3.797e-08
6290.3, -3.611e-08
6292.3, -3.692e-08
6294.3, -3.748e-08
6296.3, -3.495e-08
6298.3, -3.891e-08
6300.3, -3.603e-08
6302.3, -3.721e-08
6304.3, -3.912e-08
6306.3, -4.225e-08
6308.3, -3.678e-08
6310.3, -4.023e-08
6312.3, -3.989e-08
6314.3, -3.891e-08
6316.3, -3.994e-08
6318.3, -3.618e-08
6320.3, -3.672e-08
6322.3, -3.382e-08
6324.3, -3.803e-08
6326.3, -3.939e-08
6328.3, -3.943e-08
6330.3, -3.807e-08
6332.3, -3.943e-08
6334.3, -4.082e-08
6336.3, -4.054e-08
6338.3, -4.275e-08
6340.3, -3.742e-08
6342.3, -3.933e-08
6344.3, -3.987e-08
6346.3, -4.214e-08
6348.3, -4.233e-08
6350.3, -4.279e-08
6352.3, -3.742e-08
6354.3, -3.938e-08
6356.3, -3.894e-08
6358.4, -3.994e-08
6360.4, -3.988e-08
6362.4, -3.823e-08
6364.4, -3.921e-08
6366.4, -4.255e-08
6368.4, -3.931e-08
6370.4, -3.477e-08
6372.4, -3.489e-08
6374.4, -3.742e-08
6376.4, -3.778e-08
6378.4, -3.827e-08
6380.4, -3.657e-08
6382.4, -3.824e-08
6384.4, -3.984e-08
6386.4, -3.958e-08
6388.4, -4.117e-08
6390.4, -3.767e-08
6392.4, -4.067e-08
6394.4, -4.014e-08
6396.4, -3.903e-08
6398.4, -3.991e-08
6400.4, -3.783e-08
6402.4, -3.898e-08
6404.4, -3.815e-08
6406.4, -3.77e-08
6408.4, -3.808e-08
6410.4, -4.108e-08
6412.4, -3.703e-08
6414.4, -3.927e-08
6416.4, -3.799e-08
6418.4, -3.969e-08
6420.4, -3.567e-08
6422.4, -4.016e-08
6424.4, -4.018e-08
6426.4, -3.809e-08
6428.4, -3.751e-08
6430.4, -3.867e-08
6432.4, -4.248e-08
6434.4, -4.341e-08
6436.4, -4.278e-08
6438.4, -4.598e-08
6440.4, -4.254e-08
6442.4, -4.117e-08
6444.4, -3.907e-08
6446.4, -4.281e-08
6448.4, -3.893e-08
6450.4, -3.856e-08
6452.4, -3.939e-08
6454.4, -4.192e-08
6456.4, -3.982e-08
6458.5, -3.964e-08
6460.5, -3.983e-08
6462.5, -3.673e-08
6464.5, -3.842e-08
6466.5, -4.112e-08
6468.5, -3.736e-08
6470.5, -3.559e-08
6472.5, -3.733e-08
6474.5, -4.098e-08
6476.5, -3.693e-08
6478.5, -3.423e-08
6480.5, -3.72e-08
6482.5, -3.549e-08
6484.5, -3.836e-08
6486.5, -3.978e-08
6488.5, -3.914e-08
6490.5, -3.732e-08
6492.5, -3.817e-08
6494.5, -3.522e-08
6496.5, -3.964e-08
6498.5, -3.68e-08
6500.5, -4.212e-08
6502.5, -3.867e-08
6504.5, -3.951e-08
6506.5, -3.908e-08
6508.5, -3.922e-08
6510.5, -4.236e-08
6512.5, -3.618e-08
6514.5, -3.831e-08
6516.5, -3.831e-08
6518.5, -3.994e-08
6520.5, -4.2e-08
6522.5, -3.851e-08
6524.5, -3.818e-08
6526.5, -4.128e-08
6528.5, -3.788e-08
6530.5, -4.112e-08
6532.5, -4.269e-08
6534.5, -4.004e-08
6536.5, -3.981e-08
6538.5, -4.13e-08
6540.5, -4.162e-08
6542.5, -3.738e-08
6544.5, -3.982e-08
6546.5, -3.742e-08
6548.5, -3.873e-08
6550.5, -3.777e-08
6552.5, -4.147e-08
6554.5, -3.936e-08
6556.5, -4.109e-08
6558.6, -3.933e-08
6560.6, -3.592e-08
6562.6, -3.506e-08
6564.6, -3.918e-08
6566.6, -4.254e-08
6568.6, -3.673e-08
6570.6, -3.594e-08
6572.6, -3.849e-08
6574.6, -3.861e-08
6576.6, -3.821e-08
6578.6, -4.238e-08
6580.6, -4.317e-08
6582.6, -4.084e-08
6584.6, -4.119e-08
6586.6, -3.947e-08
6588.6, -4.065e-08
6590.6, -3.855e-08
6592.6, -4.041e-08
6594.6, -3.83e-08
6596.6, -3.877e-08
6598.6, -3.9e-08
6600.6, -3.893e-08
6602.6, -3.815e-08
6604.6, -3.565e-08
6606.6, -3.773e-08
6608.6, -3.592e-08
6610.6, -3.665e-08
6612.6, -3.792e-08
6614.6, -3.861e-08
6616.6, -4.044e-08
6618.6, -4.081e-08
6620.6, -3.973e-08
6622.6, -4.005e-08
6624.6, -3.713e-08
6626.6, -3.941e-08
6628.6, -3.881e-08
6630.6, -3.857e-08
6632.6, -3.794e-08
6634.6, -4.014e-08
6636.6, -3.694e-08
6638.6, -3.57e-08
6640.6, -3.456e-08
6642.6, -3.853e-08
6644.6, -3.928e-08
6646.6, -3.758e-08
6648.6, -4.2e-08
6650.6, -3.855e-08
6652.6, -3.771e-08
6654.6, -3.678e-08
6656.6, -4.31e-08
6658.7, -4.124e-08
6660.7, -3.689e-08
6662.7, -4.037e-08
6664.7, -3.789e-08
6666.7, -3.838e-08
6668.7, -4.013e-08
6670.7, -3.605e-08
6672.7, -3.681e-08
6674.7, -3.707e-08
6676.7, -4.154e-08
6678.7, -3.469e-08
6680.7, -3.458e-08
6682.7, -3.527e-08
6684.7, -3.696e-08
6686.7, -3.944e-08
6688.7, -3.578e-08
6690.7, -3.717e-08
6692.7, -3.956e-08
6694.7, -4.042e-08
6696.7, -3.97e-08
6698.7, -3.78e-08
6700.7, -3.566e-08
6702.7, -4.181e-08
6704.7, -4.04e-08
6706.7, -3.988e-08
6708.7, -4.076e-08
6710.7, -4.167e-08
6712.7, -4.008e-08
6714.7, -3.844e-08
6716.7, -3.829e-08
6718.7, -3.881e-08
6720.7, -4.02e-08
6722.7, -4.072e-08
6724.7, -4.362e-08
6726.7, -4.276e-08
6728.7, -3.791e-08
6730.7, -3.887e-08
6732.7, -3.614e-08
6734.7, -3.706e-08
6736.7, -3.867e-08
6738.7, -3.478e-08
6740.7, -3.496e-08
6742.7, -3.713e-08
6744.7, -3.688e-08
6746.7, -4.173e-08
6748.7, -3.298e-08
6750.7, -3.574e-08
6752.7, -3.56e-08
6754.7, -3.771e-08
6756.7, -3.878e-08
6758.8, -3.522e-08
6760.8, -3.246e-08
6762.8, -3.737e-08
6764.8, -3.46e-08
6766.8, -3.839e-08
6768.8, -3.573e-08
6770.8, -3.712e-08
6772.8, -3.442e-08
6774.8, -3.759e-08
6776.8, -3.339e-08
6778.8, -3.474e-08
6780.8, -3.594e-08
6782.8, -3.502e-08
6784.8, -3.403e-08
6786.8, -3.221e-08
6788.8, -3.352e-08
6790.8, -3.403e-08
6792.8, -3.483e-08
6794.8, -3.605e-08
6796.8, -3.907e-08
6798.8, -3.519e-08
6800.8, -3.48e-08
6802.8, -3.415e-08
6804.8, -3.395e-08
6806.8, -3.38e-08
6808.8, -3.737e-08
6810.8, -3.581e-08
6812.8, -3.836e-08
6814.8, -3.66e-08
6816.8, -3.873e-08
6818.8, -3.879e-08
6820.8, -3.847e-08
6822.8, -3.542e-08
6824.8, -3.9e-08
6826.8, -3.709e-08
6828.8, -3.273e-08
6830.8, -3.632e-08
6832.8, -3.842e-08
6834.8, -3.736e-08
6836.8, -3.559e-08
6838.8, -3.215e-08
6840.8, -3.165e-08
6842.8, -3.146e-08
6844.8, -3.101e-08
6846.8, -3.43e-08
6848.8, -3.375e-08
6850.8, -3.152e-08
6852.8, -3.523e-08
6854.8, -3.096e-08
6856.8, -3.388e-08
6858.9, -3.046e-08
6860.9, -3.459e-08
6862.9, -2.85e-08
6864.9, -3.057e-08
6866.9, -3.164e-08
6868.9, -3.278e-08
6870.9, -3.11e-08
6872.9, -3.574e-08
6874.9, -3.655e-08
6876.9, -3.419e-08
6878.9, -3.528e-08
6880.9, -3.348e-08
6882.9, -3.55e-08
6884.9, -3.516e-08
6886.9, -3.344e-08
6888.9, -3.642e-08
6890.9, -3.829e-08
6892.9, -3.598e-08
6894.9, -3.685e-08
6896.9, -3.697e-08
6898.9, -3.111e-08
6900.9, -3.549e-08
6902.9, -3.382e-08
6904.9, -3.616e-08
6906.9, -3.425e-08
6908.9, -3.333e-08
6910.9, -3.34e-08
6912.9, -3.65e-08
6914.9, -3.611e-08
6916.9, -3.662e-08
6918.9, -3.511e-08
6920.9, -3.749e-08
6922.9, -3.723e-08
6924.9, -3.532e-08
6926.9, -3.614e-08
6928.9, -3.576e-08
6930.9, -3.742e-08
6932.9, -4.064e-08
6934.9, -3.791e-08
6936.9, -3.761e-08
6938.9, -3.756e-08
6940.9, -3.889e-08
6942.9, -3.988e-08
6944.9, -3.975e-08
6946.9, -3.999e-08
6948.9, -3.866e-08
6950.9, -3.597e-08
6952.9, -3.53e-08
6954.9, -3.561e-08
6956.9, -3.721e-08
6959.0, -3.905e-08
6961.0, -3.9e-08
6963.0, -3.822e-08
6965.0, -3.755e-08
6967.0, -3.669e-08
6969.0, -3.618e-08
6971.0, -3.885e-08
6973.0, -3.652e-08
6975.0, -3.684e-08
6977.0, -3.853e-08
6979.0, -3.889e-08
6981.0, -3.607e-08
6983.0, -3.749e-08
6985.0, -3.701e-08
6987.0, -3.867e-08
6989.0, -4.135e-08
6991.0, -3.785e-08
6993.0, -4.283e-08
6995.0, -3.809e-08
6997.0, -4.015e-08
6999.0, -4.168e-08
7001.0, -3.865e-08
7003.0, -3.961e-08
7005.0, -3.768e-08
7007.0, -3.979e-08
7009.0, -3.871e-08
7011.0, -3.497e-08
7013.0, -4.047e-08
7015.0, -3.544e-08
7017.0, -3.516e-08
7019.0, -3.417e-08
7021.0, -3.584e-08
7023.0, -3.419e-08
7025.0, -3.394e-08
7027.0, -3.449e-08
7029.0, -3.509e-08
7031.0, -3.912e-08
7033.0, -3.46e-08
7035.0, -3.312e-08
7037.0, -3.81e-08
7039.0, -3.631e-08
7041.0, -3.395e-08
7043.0, -3.509e-08
7045.0, -3.416e-08
7047.0, -3.525e-08
7049.0, -3.657e-08
7051.0, -3.569e-08
7053.0, -3.883e-08
7055.0, -3.801e-08
7057.0, -3.84e-08
7059.1, -4.072e-08
7061.1, -3.231e-08
7063.1, -3.696e-08
7065.1, -3.843e-08
7067.1, -3.842e-08
7069.1, -3.353e-08
7071.1, -3.606e-08
7073.1, -3.608e-08
7075.1, -3.527e-08
7077.1, -3.611e-08
7079.1, -3.629e-08
7081.1, -3.345e-08
7083.1, -3.782e-08
7085.1, -3.724e-08
7087.1, -4.079e-08
7089.1, -3.481e-08
7091.1, -3.866e-08
7093.1, -3.638e-08
7095.1, -3.443e-08
7097.1, -3.693e-08
7099.1, -3.925e-08
7101.1, -3.877e-08
7103.1, -3.784e-08
7105.1, -3.791e-08
7107.1, -3.864e-08
7109.1, -3.725e-08
7111.1, -3.837e-08
7113.1, -3.603e-08
7115.1, -3.764e-08
7117.1, -3.998e-08
7119.1, -3.65e-08
7121.1, -3.594e-08
7123.1, -3.824e-08
7125.1, -3.815e-08
7127.1, -3.946e-08
7129.1, -3.66e-08
7131.1, -4.067e-08
7133.1, -3.534e-08
7135.1, -3.856e-08
7137.1, -3.744e-08
7139.1, -3.704e-08
7141.1, -3.446e-08
7143.1, -3.7e-08
7145.1, -3.813e-08
7147.1, -3.606e-08
7149.1, -3.285e-08
7151.1, -3.433e-08
7153.1, -3.715e-08
7155.1, -3.608e-08
7157.1, -3.692e-08
7159.2, -3.695e-08
7161.2, -3.666e-08
7163.2, -3.636e-08
7165.2, -3.655e-08
7167.2, -3.38e-08
7169.2, -3.546e-08
7171.2, -3.619e-08
7173.2, -3.765e-08
7175.2, -3.533e-08
7177.2, -3.651e-08
7179.2, -3.844e-08
7181.2, -3.489e-08
7183.2, -3.713e-08
7185.2, -3.599e-08
7187.2, -3.898e-08
7189.2, -3.702e-08
7191.2, -3.825e-08
7193.2, -3.705e-08
7195.2, -3.554e-08
7197.2, -3.574e-08
7199.2, -3.553e-08
7201.2, -3.425e-08
7203.2, -3.879e-08
7205.2, -3.522e-08
7207.2, -3.716e-08
7209.2, -3.494e-08
7211.2, -3.767e-08
7213.2, -3.667e-08
7215.2, -3.816e-08
7217.2, -3.729e-08
7219.2, -3.889e-08
7221.2, -3.405e-08
7223.2, -3.692e-08
7225.2, -3.48e-08
7227.2, -3.576e-08
7229.2, -3.643e-08
7231.2, -3.474e-08
7233.2, -3.658e-08
7235.2, -3.463e-08
7237.2, -3.706e-08
7239.2, -3.354e-08
7241.2, -3.334e-08
7243.2, -3.375e-08
7245.2, 1.6986e-07
7247.2, 6.3148e-07
7249.2, 6.1009e-07
7251.2, 7.0793e-07
7253.2, 6.274e-07
7255.2, 6.535e-07
7257.2, 6.3792e-07
7259.3, 6.0792e-07
7261.3, 5.5904e-07
7263.3, 5.5128e-07
7265.3, 6.2804e-07
7267.3, 6.1549e-07
7269.3, 5.4735e-07
7271.3, 5.5795e-07
7273.3, 7.1142e-07
7275.3, 6.3401e-07
7277.3, 6.2709e-07
7279.3, 6.0036e-07
7281.3, 6.71e-07
7283.3, 6.2243e-07
7285.3, 6.1583e-07
7287.3, 6.7662e-07
7289.3, 6.3738e-07
7291.3, 7.0707e-07
7293.3, 6.2352e-07
7295.3, 6.4352e-07
7297.3, 6.8329e-07
7299.3, 6.1937e-07
7301.3, 6.4501e-07
7303.3, 6.3912e-07
7305.3, 6.6414e-07
7307.3, 5.8281e-07
7309.3, 6.4922e-07
7311.3, 6.3426e-07
7313.3, 6.2625e-07
7315.3, 6.1547e-07
7317.3, 6.0269e-07
7319.3, 6.3838e-07
7321.3, 6.7369e-07
7323.3, 6.9579e-07
7325.3, 5.9255e-07
7327.3, 6.0387e-07
7329.3, 6.074e-07
7331.3, 6.1182e-07
7333.3, 6.7941e-07
7335.3, 6.4974e-07
7337.3, 6.2801e-07
7339.3, 6.103e-07
7341.3, 6.2225e-07
7343.3, 6.5008e-07
7345.3, 6.8192e-07
7347.3, 6.3013e-07
7349.3, 6.8428e-07
7351.3, 6.9696e-07
7353.3, 6.4743e-07
7355.3, 6.7477e-07
7357.3, 6.7935e-07
7359.4, 6.0752e-07
7361.4, 6.602e-07
7363.4, 6.9159e-07
7365.4, 6.9619e-07
7367.4, 6.5089e-07
7369.4, 6.5644e-07
7371.4, 7.3537e-07
7373.4, 6.4839e-07
7375.4, 6.4168e-07
7377.4, 7.054e-07
7379.4, 6.4703e-07
7381.4, 6.6895e-07
7383.4, 7.0416e-07
7385.4, 6.9627e-07
7387.4, 6.7622e-07
7389.4, 6.4719e-07
7391.4, 6.9545e-07
7393.4, 6.7258e-07
7395.4, 6.7078e-07
7397.4, 7.875e-07
7399.4, 6.6929e-07
7401.4, 7.0442e-07
7403.4, 7.6737e-07
7405.4, 6.4672e-07
7407.4, 7.1615e-07
7409.4, 6.9684e-07
7411.4, 6.1336e-07
7413.4, 7.1106e-07
7415.4, 6.8209e-07
7417.4, 7.2946e-07
7419.4, 6.8189e-07
7421.4, 7.3762e-07
7423.4, 7.3703e-07
7425.4, 7.3422e-07
7427.4, 6.7525e-07
7429.4, 6.9891e-07
7431.4, 6.9712e-07
7433.4, 6.9077e-07
7435.4, 6.9457e-07
7437.4, 6.2984e-07
7439.4, 6.2497e-07
7441.4, 6.4257e-07
7443.4, 6.6058e-07
7445.4, 6.6261e-07
7447.4, 6.4097e-07
7449.4, 7.2987e-07
7451.4, 6.8072e-07
7453.4, 7.2013e-07
7455.4, 8.0577e-07
7457.4, 6.0884e-07
7459.5, 7.0868e-07
7461.5, 7.023e-07
7463.5, 6.7561e-07
7465.5, 7.0433e-07
7467.5, 6.8417e-07
7469.5, 7.784e-07
7471.5, 6.6284e-07
7473.5, 7.4562e-07
7475.5, 7.2899e-07
7477.5, 7.5312e-07
7479.5, 7.226e-07
7481.5, 6.8476e-07
7483.5, 6.3999e-07
7485.5, 6.5697e-07
7487.5, 7.0984e-07
7489.5, 6.1842e-07
7491.5, 6.6235e-07
7493.5, 6.6498e-07
7495.5, 7.0987e-07
7497.5, 6.37e-07
7499.5, 6.6921e-07
7501.5, 6.803e-07
7503.5, 7.5732e-07
7505.5, 7.1621e-07
7507.5, 6.2372e-07
7509.5, 6.6823e-07
7511.5, 6.7887e-07
7513.5, 6.4506e-07
7515.5, 6.2861e-07
7517.5, 7.7265e-07
7519.5, 6.8071e-07
7521.5, 7.7612e-07
7523.5, 6.6914e-07
7525.5, 6.9749e-07
7527.5, 7.28e-07
7529.5, 7.1409e-07
7531.5, 6.7513e-07
7533.5, 6.6943e-07
7535.5, 7.7703e-07
7537.5, 6.6148e-07
7539.5, 6.7694e-07
7541.5, 6.5615e-07
7543.5, 7.6652e-07
7545.5, 6.8377e-07
7547.5, 7.039e-07
7549.5, 7.4214e-07
7551.5, 7.4941e-07
7553.5, 7.1084e-07
7555.5, 6.6095e-07
7557.5, 6.7066e-07
7559.6, 6.9496e-07
7561.6, 7.1799e-07
7563.6, 7.4025e-07
7565.6, 6.8153e-07
7567.6, 7.031e-07
7569.6, 6.5709e-07
7571.6, 6.6885e-07
7573.6, 6.8407e-07
7575.6, 7.6361e-07
7577.6, 7.2038e-07
7579.6, 7.6551e-07
7581.6, 7.0336e-07
7583.6, 6.9526e-07
7585.6, 7.2578e-07
7587.6, 7.4808e-07
7589.6, 7.0114e-07
7591.6, 8.0541e-07
7593.6, 7.5669e-07
7595.6, 7.1938e-07
7597.6, 6.7275e-07
7599.6, 7.0245e-07
7601.6, 6.8636e-07
7603.6, 6.9464e-07
7605.6, 7.5265e-07
7607.6, 6.9571e-07
7609.6, 6.667e-07
7611.6, 6.8179e-07
7613.6, 7.0269e-07
7615.6, 6.6154e-07
7617.6, 7.8389e-07
7619.6, 7.3559e-07
7621.6, 7.7598e-07
7623.6, 6.8982e-07
7625.6, 7.5092e-07
7627.6, 7.5642e-07
7629.6, 7.7326e-07
7631.6, 7.0022e-07
7633.6, 7.4678e-07
7635.6, 8.0359e-07
7637.6, 7.1951e-07
7639.6, 6.2958e-07
7641.6, 6.8888e-07
7643.6, 7.4372e-07
7645.6, 6.9147e-07
7647.6, 7.3429e-07
7649.6, 7.52e-07
7651.6, 7.1389e-07
7653.6, 7.2039e-07
7655.6, 7.4931e-07
7657.6, 6.8322e-07
7659.7, 6.858e-07
7661.7, 7.2334e-07
7663.7, 7.3208e-07
7665.7, 7.6031e-07
7667.7, 6.8707e-07
7669.7, 7.5769e-07
7671.7, 7.3559e-07
7673.7, 7.1382e-07
7675.7, 6.8689e-07
7677.7, 6.7353e-07
7679.7, 7.6921e-07
7681.7, 6.8719e-07
7683.7, 7.3399e-07
7685.7, 7.0927e-07
7687.7, 6.4895e-07
7689.7, 7.4507e-07
7691.7, 6.9956e-07
7693.7, 6.9111e-07
7695.7, 6.2047e-07
7697.7, 6.6448e-07
7699.7, 6.6108e-07
7701.7, 8.0552e-07
7703.7, 7.1396e-07
7705.7, 7.0675e-07
7707.7, 7.648e-07
7709.7, 7.4198e-07
7711.7, 6.94e-07
7713.7, 7.8993e-07
7715.7, 7.5789e-07
7717.7, 6.9541e-07
7719.7, 7.9211e-07
7721.7, 6.3817e-07
7723.7, 6.5972e-07
7725.7, 7.0194e-07
7727.7, 6.9878e-07
7729.7, 6.3245e-07
7731.7, 7.13e-07
7733.7, 7.2835e-07
7735.7, 7.1695e-07
7737.7, 8.3507e-07
7739.7, 7.517e-07
7741.7, 7.6529e-07
7743.7, 7.7361e-07
7745.7, 7.2795e-07
7747.7, 6.903e-07
7749.7, 6.7147e-07
7751.7, 6.5816e-07
7753.7, 6.9023e-07
7755.7, 7.088e-07
7757.7, 7.2225e-07
7759.8, 7.0611e-07
7761.8, 6.9542e-07
7763.8, 7.6509e-07
7765.8, 6.5289e-07
7767.8, 7.0457e-07
7769.8, 7.8129e-07
7771.8, 7.0096e-07
7773.8, 7.1214e-07
7775.8, 7.1879e-07
7777.8, 7.4582e-07
7779.8, 7.4059e-07
7781.8, 7.5941e-07
7783.8, 7.6333e-07
7785.8, 7.3745e-07
7787.8, 7.555e-07
7789.8, 8.5248e-07
7791.8, 7.137e-07
7793.8, 6.7108e-07
7795.8, 7.2939e-07
7797.8, 7.8479e-07
7799.8, 7.3069e-07
7801.8, 7.6377e-07
7803.8, 7.053e-07
7805.8, 6.6268e-07
7807.8, 7.1244e-07
7809.8, 6.9622e-07
7811.8, 6.7811e-07
7813.8, 7.1343e-07
7815.8, 6.9734e-07
7817.8, 6.5735e-07
7819.8, 7.463e-07
7821.8, 6.69e-07
7823.8, 7.1698e-07
7825.8, 7.1644e-07
7827.8, 7.5014e-07
7829.8, 7.2711e-07
7831.8, 7.1168e-07
7833.8, 7.7302e-07
7835.8, 7.6975e-07
7837.8, 7.7742e-07
7839.8, 7.7798e-07
7841.8, 6.7623e-07
7843.8, 7.3062e-07
7845.8, 7.3815e-07
7847.8, 6.7864e-07
7849.8, 7.5634e-07
7851.8, 7.0222e-07
7853.8, 7.1458e-07
7855.8, 7.2162e-07
7857.8, 8.0164e-07
7859.9, 7.8597e-07
7861.9, 8.4157e-07
7863.9, 7.9883e-07
7865.9, 7.1281e-07
7867.9, 6.8861e-07
7869.9, 6.7715e-07
7871.9, 7.173e-07
7873.9, 6.9852e-07
7875.9, 8.0408e-07
7877.9, 7.2058e-07
7879.9, 6.8124e-07
7881.9, 6.6329e-07
7883.9, 7.3472e-07
7885.9, 7.4665e-07
7887.9, 7.2311e-07
7889.9, 7.2388e-07
7891.9, 7.1649e-07
7893.9, 7.311e-07
7895.9, 7.6858e-07
7897.9, 6.8394e-07
7899.9, 7.7157e-07
7901.9, 6.6249e-07
7903.9, 7.2105e-07
7905.9, 7.3076e-07
7907.9, 6.8604e-07
7909.9, 7.5815e-07
7911.9, 7.3064e-07
7913.9, 7.9249e-07
7915.9, 6.9138e-07
7917.9, 7.5551e-07
7919.9, 7.3882e-07
7921.9, 7.2361e-07
7923.9, 7.8872e-07
7925.9, 7.9134e-07
7927.9, 7.0989e-07
7929.9, 7.5318e-07
7931.9, 8.0793e-07
7933.9, 7.8651e-07
7935.9, 7.1501e-07
7937.9, 7.4003e-07
7939.9, 6.9187e-07
7941.9, 7.5489e-07
7943.9, 7.4114e-07
7945.9, 6.4443e-07
7947.9, 7.233e-07
7949.9, 7.0186e-07
7951.9, 7.2151e-07
7953.9, 7.8477e-07
7955.9, 6.7661e-07
7957.9, 6.5455e-07
7960.0, 7.2827e-07
7962.0, 7.2221e-07
7964.0, 8.1359e-07
7966.0, 6.9138e-07
7968.0, 6.8811e-07
7970.0, 7.2245e-07
7972.0, 7.4601e-07
7974.0, 6.8607e-07
7976.0, 6.6411e-07
7978.0, 6.5707e-07
7980.0, 6.9214e-07
7982.0, 7.1846e-07
7984.0, 6.8299e-07
7986.0, 6.5493e-07
7988.0, 7.3759e-07
7990.0, 6.9177e-07
7992.0, 6.8109e-07
7994.0, 7.2176e-07
7996.0, 6.6383e-07
7998.0, 7.4287e-07
8000.0, 6.797e-07
8002.0, 7.5032e-07
8004.0, 7.3752e-07
8006.0, 6.345e-07
8008.0, 7.4406e-07
8010.0, 7.215e-07
8012.0, 7.7296e-07
8014.0, 7.5672e-07
8016.0, 7.1217e-07
8018.0, 6.5731e-07
8020.0, 7.5591e-07
8022.0, 6.5099e-07
8024.0, 7.633e-07
8026.0, 7.1382e-07
8028.0, 6.8101e-07
8030.0, 7.4047e-07
8032.0, 7.6266e-07
8034.0, 8.305e-07
8036.0, 6.89e-07
8038.0, 8.0387e-07
8040.0, 7.0787e-07
8042.0, 7.4413e-07
8044.0, 7.3474e-07
8046.0, 7.3674e-07
8048.0, 7.1594e-07
8050.0, 7.6642e-07
8052.0, 7.0597e-07
8054.0, 6.8243e-07
8056.0, 7.2564e-07
8058.0, 7.1434e-07
8060.1, 7.107e-07
8062.1, 7.1108e-07
8064.1, 7.0623e-07
8066.1, 8.0044e-07
8068.1, 7.0451e-07
8070.1, 7.2227e-07
8072.1, 7.4747e-07
8074.1, 7.0568e-07
8076.1, 6.9715e-07
8078.1, 6.7751e-07
8080.1, 6.9431e-07
8082.1, 7.3881e-07
8084.1, 7.4555e-07
8086.1, 7.1343e-07
8088.1, 7.5146e-07
8090.1, 7.8142e-07
8092.1, 7.8472e-07
8094.1, 7.6146e-07
8096.1, 6.8138e-07
8098.1, 6.385e-07
8100.1, 8.0063e-07
8102.1, 7.9496e-07
8104.1, 7.6277e-07
8106.1, 7.7801e-07
8108.1, 6.8988e-07
8110.1, 6.6616e-07
8112.1, 6.8923e-07
8114.1, 7.732e-07
8116.1, 7.8645e-07
8118.1, 7.2865e-07
8120.1, 7.2357e-07
8122.1, 7.4887e-07
8124.1, 8.0276e-07
8126.1, 6.8699e-07
8128.1, 7.7948e-07
8130.1, 6.4893e-07
8132.1, 7.0358e-07
8134.1, 7.565e-07
8136.1, 7.4788e-07
8138.1, 7.0205e-07
8140.1, 6.9525e-07
8142.1, 8.3363e-07
8144.1, 9.0449e-07
8146.1, 7.4893e-07
8148.1, 7.3722e-07
8150.1, 6.8784e-07
8152.1, 8.0231e-07
8154.1, 7.7562e-07
8156.1, 6.7825e-07
8158.1, 6.7749e-07
8160.2, 7.3997e-07
8162.2, 7.0197e-07
8164.2, 7.256e-07
8166.2, 7.6522e-07
8168.2, 7.1559e-07
8170.2, 6.4967e-07
8172.2, 7.7331e-07
8174.2, 7.7608e-07
8176.2, 7.0623e-07
8178.2, 7.527e-07
8180.2, 7.6574e-07
8182.2, 7.0711e-07
8184.2, 6.9408e-07
8186.2, 7.5695e-07
8188.2, 7.7809e-07
8190.2, 7.6302e-07
8192.2, 7.3281e-07
8194.2, 7.8363e-07
8196.2, 7.485e-07
8198.2, 6.935e-07
8200.2, 6.9314e-07
8202.2, 7.1428e-07
8204.2, 7.7699e-07
8206.2, 7.6943e-07
8208.2, 7.4973e-07
8210.2, 7.1105e-07
8212.2, 7.9547e-07
8214.2, 7.4991e-07
8216.2, 6.736e-07
8218.2, 7.4449e-07
8220.2, 6.8019e-07
8222.2, 7.168e-07
8224.2, 7.5763e-07
8226.2, 6.5685e-07
8228.2, 7.2612e-07
8230.2, 7.793e-07
8232.2, 6.8627e-07
8234.2, 6.751e-07
8236.2, 8.1487e-07
8238.2, 6.6728e-07
8240.2, 7.2525e-07
8242.2, 7.3677e-07
8244.2, 6.991e-07
8246.2, 3.3753e-07
8248.2, -3.286e-08
8250.2, -3.24e-08
8252.2, -3.277e-08
8254.2, -3.348e-08
8256.2, -3.334e-08
8258.2, -3.417e-08
8260.3, -2.972e-08
8262.3, -3.022e-08
8264.3, -3.234e-08
8266.3, -3.107e-08
8268.3, -3.511e-08
8270.3, -3.287e-08
8272.3, -3.343e-08
8274.3, -3.525e-08
8276.3, -3.116e-08
8278.3, -3.507e-08
8280.3, -3.675e-08
8282.3, -3.414e-08
8284.3, -3.254e-08
8286.3, -3.614e-08
8288.3, -3.232e-08
8290.3, -2.976e-08
8292.3, -3.23e-08
8294.3, -3.115e-08
8296.3, -3.201e-08
8298.3, -3.452e-08
8300.3, -3.316e-08
8302.3, -3.459e-08
8304.3, -3.627e-08
8306.3, -3.547e-08
8308.3, -3.569e-08
8310.3, -3.461e-08
8312.3, -3.34e-08
8314.3, -3.255e-08
8316.3, -3.437e-08
8318.3, -3.293e-08
8320.3, -3.428e-08
8322.3, -3.097e-08
8324.3, -3.54e-08
8326.3, -3.322e-08
8328.3, -3.828e-08
8330.3, -3.822e-08
8332.3, -3.762e-08
8334.3, -3.436e-08
8336.3, -3.329e-08
8338.3, -3.738e-08
8340.3, -3.557e-08
8342.3, -3.489e-08
8344.3, -3.157e-08
8346.3, -3.334e-08
8348.3, -3.468e-08
8350.3, -3.481e-08
8352.3, -3.051e-08
8354.3, -3.44e-08
8356.3, -3.478e-08
8358.3, -3.741e-08
8360.4, -3.586e-08
8362.4, -3.252e-08
8364.4, -3.17e-08
8366.4, -2.895e-08
8368.4, -3.164e-08
8370.4, -3.33e-08
8372.4, -3.197e-08
8374.4, -3.102e-08
8376.4, -3.342e-08
8378.4, -3.126e-08
8380.4, -3.13e-08
8382.4, -3.121e-08
8384.4, -3.397e-08
8386.4, -3.095e-08
8388.4, -3.031e-08
8390.4, -3.016e-08
8392.4, -3.477e-08
8394.4, -3.395e-08
8396.4, -3.258e-08
8398.4, -3.307e-08
8400.4, -3.144e-08
8402.4, -3.094e-08
8404.4, -3.153e-08
8406.4, -3.315e-08
8408.4, -3.011e-08
8410.4, -3.202e-08
8412.4, -3.181e-08
8414.4, -3.312e-08
8416.4, -2.994e-08
8418.4, -3.003e-08
8420.4, -3.115e-08
8422.4, -3.354e-08
8424.4, -3.027e-08
8426.4, -3.148e-08
8428.4, -3.242e-08
8430.4, -2.989e-08
8432.4, -3.222e-08
8434.4, -2.963e-08
8436.4, -3.329e-08
8438.4, -3.033e-08
8440.4, -3.32e-08
8442.4, -2.731e-08
8444.4, -2.959e-08
8446.4, -2.755e-08
8448.4, -3.05e-08
8450.4, -3.1e-08
8452.4, -2.671e-08
8454.4, -3.139e-08
8456.4, -3.122e-08
8458.4, -3.341e-08
8460.5, -3.364e-08
8462.5, -3.079e-08
8464.5, -3.077e-08
8466.5, -3.185e-08
8468.5, -2.947e-08
8470.5, -2.895e-08
8472.5, -2.927e-08
8474.5, -3.296e-08
8476.5, -3.319e-08
8478.5, -3.316e-08
8480.5, -3.056e-08
8482.5, -3.04e-08
8484.5, -3.398e-08
8486.5, -3.838e-08
8488.5, -3.489e-08
8490.5, -2.772e-08
8492.5, -3.221e-08
8494.5, -3.391e-08
8496.5, -3.074e-08
8498.5, -3.287e-08
8500.5, -3.196e-08
8502.5, -3.387e-08
8504.5, -3.669e-08
8506.5, -3.44e-08
8508.5, -3.173e-08
8510.5, -3.356e-08
8512.5, -3.304e-08
8514.5, -3.662e-08
8516.5, -3.542e-08
8518.5, -3.194e-08
8520.5, -3.297e-08
8522.5, -3.724e-08
8524.5, -3.391e-08
8526.5, -3.35e-08
8528.5, -3.362e-08
8530.5, -3.238e-08
8532.5, -3.668e-08
8534.5, -3.258e-08
8536.5, -3.361e-08
8538.5, -3.341e-08
8540.5, -3.155e-08
8542.5, -3.255e-08
8544.5, -3.031e-08
8546.5, -3.068e-08
8548.5, -3.004e-08
8550.5, -3.121e-08
8552.5, -2.969e-08
8554.5, -3.194e-08
8556.5, -3.168e-08
8558.5, -3.135e-08
8560.6, -3.291e-08
8562.6, -3.524e-08
8564.6, -3.268e-08
8566.6, -2.634e-08
8568.6, -2.929e-08
8570.6, -2.981e-08
8572.6, -3.287e-08
8574.6, -3.091e-08
8576.6, -3.454e-08
8578.6, -3.21e-08
8580.6, -3.464e-08
8582.6, -2.804e-08
8584.6, -3.315e-08
8586.6, -3.28e-08
8588.6, -2.981e-08
8590.6, -3.485e-08
8592.6, -3.465e-08
8594.6, -3.396e-08
8596.6, -3.315e-08
8598.6, -3.308e-08
8600.6, -3.337e-08
8602.6, -3.37e-08
8604.6, -2.967e-08
8606.6, -3.296e-08
8608.6, -3.115e-08
8610.6, -3.054e-08
8612.6, -3.424e-08
8614.6, -3.183e-08
8616.6, -3.386e-08
8618.6, -3.337e-08
8620.6, -3.022e-08
8622.6, -3.302e-08
8624.6, -3.287e-08
8626.6, -3.099e-08
8628.6, -3.158e-08
8630.6, -3.373e-08
8632.6, -2.784e-08
8634.6, -3.124e-08
8636.6, -3.525e-08
8638.6, -3.043e-08
8640.6, -3.357e-08
8642.6, -3.427e-08
8644.6, -3.095e-08
8646.6, -3.121e-08
8648.6, -3.539e-08
8650.6, -3.461e-08
8652.6, -3.183e-08
8654.6, -3.401e-08
8656.6, -3.269e-08
8658.6, -3.089e-08
8660.7, -3.045e-08
8662.7, -2.963e-08
8664.7, -3.404e-08
8666.7, -3.282e-08
8668.7, -3.314e-08
8670.7, -3.193e-08
8672.7, -3.38e-08
8674.7, -3.299e-08
8676.7, -3.328e-08
8678.7, -3.198e-08
8680.7, -3.194e-08
8682.7, -3.291e-08
8684.7, -3.403e-08
8686.7, -3.304e-08
8688.7, -3.034e-08
8690.7, -3.169e-08
8692.7, -3.089e-08
8694.7, -3.294e-08
8696.7, -3.407e-08
8698.7, -3.15e-08
8700.7, -3.192e-08
8702.7, -3e-08
8704.7, -2.869e-08
8706.7, -2.758e-08
8708.7, -2.459e-08
8710.7, -2.791e-08
8712.7, -2.778e-08
8714.7, -3.06e-08
8716.7, -3.182e-08
8718.7, -3.194e-08
8720.7, -2.797e-08
8722.7, -2.894e-08
8724.7, -2.815e-08
8726.7, -2.835e-08
8728.7, -2.582e-08
8730.7, -2.531e-08
8732.7, -2.599e-08
8734.7, -2.658e-08
8736.7, -2.865e-08
8738.7, -3.097e-08
8740.7, -3.044e-08
8742.7, -2.949e-08
8744.7, -3.301e-08
8746.7, -3.209e-08
8748.7, -3.062e-08
8750.7, -3.224e-08
8752.7, -3.134e-08
8754.7, -3.204e-08
8756.7, -3.356e-08
8758.7, -3.145e-08
8760.8, -2.798e-08
8762.8, -3.185e-08
8764.8, -3.017e-08
8766.8, -3.228e-08
8768.8, -3.238e-08
8770.8, -3.283e-08
8772.8, -3.042e-08
8774.8, -3.395e-08
8776.8, -3.143e-08
8778.8, -3.298e-08
8780.8, -3.169e-08
8782.8, -2.868e-08
8784.8, -2.943e-08
8786.8, -3.252e-08
8788.8, -3.086e-08
8790.8, -3.361e-08
8792.8, -3.212e-08
8794.8, -3.241e-08
8796.8, -3.269e-08
8798.8, -3.225e-08
8800.8, -3.434e-08
8802.8, -3.31e-08
8804.8, -3.117e-08
8806.8, -3.332e-08
8808.8, -3.286e-08
8810.8, -3.448e-08
8812.8, -2.995e-08
8814.8, -3.541e-08
8816.8, -3.192e-08
8818.8, -3.058e-08
8820.8, -3.204e-08
8822.8, -3.021e-08
8824.8, -3.46e-08
8826.8, -3.141e-08
8828.8, -3.149e-08
8830.8, -3.257e-08
8832.8, -3.302e-08
8834.8, -3.152e-08
8836.8, -2.984e-08
8838.8, -3.278e-08
8840.8, -3.454e-08
8842.8, -3.094e-08
8844.8, -3.23e-08
8846.8, -2.689e-08
8848.8, -3.35e-08
8850.8, -3.097e-08
8852.8, -3.426e-08
8854.8, -3.193e-08
8856.8, -2.947e-08
8858.8, -2.85e-08
8860.9, -3.013e-08
8862.9, -3.025e-08
8864.9, -3.11e-08
8866.9, -3.292e-08
8868.9, -2.95e-08
8870.9, -3.019e-08
8872.9, -3.131e-08
8874.9, -3.307e-08
8876.9, -3.19e-08
8878.9, -3.139e-08
8880.9, -2.972e-08
8882.9, -2.856e-08
8884.9, -3.263e-08
8886.9, -3.24e-08
8888.9, -2.995e-08
8890.9, -2.982e-08
8892.9, -3.18e-08
8894.9, -3.377e-08
8896.9, -3.447e-08
8898.9, -3.495e-08
8900.9, -2.907e-08
8902.9, -2.931e-08
8904.9, -3.006e-08
8906.9, -3.191e-08
8908.9, -3.21e-08
8910.9, -3.058e-08
8912.9, -3.412e-08
8914.9, -3.134e-08
8916.9, -2.976e-08
8918.9, -2.952e-08
8920.9, -3.045e-08
8922.9, -2.786e-08
8924.9, -2.907e-08
8926.9, -2.97e-08
8928.9, -3.263e-08
8930.9, -2.783e-08
8932.9, -2.755e-08
8934.9, -3.175e-08
8936.9, -2.855e-08
8938.9, -2.787e-08
8940.9, -2.891e-08
8942.9, -2.771e-08
8944.9, -3.066e-08
8946.9, -3.233e-08
8948.9, -2.926e-08
8950.9, -2.743e-08
8952.9, -3.184e-08
8954.9, -3.159e-08
8956.9, -3.473e-08
8958.9, -3.469e-08
8961.0, -3.87e-08
8963.0, -3.572e-08
8965.0, -3.179e-08
8967.0, -3.218e-08
8969.0, -3.064e-08
8971.0, -3.413e-08
8973.0, -3.195e-08
8975.0, -3.257e-08
8977.0, -3.107e-08
8979.0, -3.336e-08
8981.0, -3.107e-08
8983.0, -3.504e-08
8985.0, -3.397e-08
8987.0, -3.228e-08
8989.0, -3.196e-08
8991.0, -3.207e-08
8993.0, -3.133e-08
8995.0, -3.289e-08
8997.0, -3.278e-08
8999.0, -2.721e-08
9001.0, -2.686e-08
9003.0, -2.755e-08
9005.0, -2.674e-08
9007.0, -2.691e-08
9009.0, -3.012e-08
9011.0, -2.982e-08
9013.0, -2.914e-08
9015.0, -2.9e-08
9017.0, -2.96e-08
9019.0, -2.815e-08
9021.0, -2.833e-08
9023.0, -3.256e-08
9025.0, -3.109e-08
9027.0, -3.356e-08
9029.0, -3.184e-08
9031.0, -3.334e-08
9033.0, -3.117e-08
9035.0, -3.51e-08
9037.0, -3.086e-08
9039.0, -2.892e-08
9041.0, -3.117e-08
9043.0, -3.152e-08
9045.0, -3.096e-08
9047.0, -3.074e-08
9049.0, -3.077e-08
9051.0, -2.869e-08
9053.0, -2.8e-08
9055.0, -2.764e-08
9057.0, -2.668e-08
9059.0, -2.749e-08
9061.1, -2.885e-08
9063.1, -2.991e-08
9065.1, -2.875e-08
9067.1, -3.163e-08
9069.1, -3.003e-08
9071.1, -3.253e-08
9073.1, -2.632e-08
9075.1, -2.749e-08
9077.1, -2.984e-08
9079.1, -3.157e-08
9081.1, -3.046e-08
9083.1, -3.14e-08
9085.1, -3.051e-08
9087.1, -3.374e-08
9089.1, -3.229e-08
9091.1, -3.064e-08
9093.1, -3.668e-08
9095.1, -3.515e-08
9097.1, -3.285e-08
9099.1, -3.204e-08
9101.1, -3.022e-08
9103.1, -3.154e-08
9105.1, -3.383e-08
9107.1, -3.092e-08
9109.1, -2.703e-08
9111.1, -3.014e-08
9113.1, -3.075e-08
9115.1, -3.429e-08
9117.1, -3.461e-08
9119.1, -3.53e-08
9121.1, -2.805e-08
9123.1, -3.3e-08
9125.1, -3.227e-08
9127.1, -3.026e-08
9129.1, -3.013e-08
9131.1, -3.145e-08
9133.1, -2.773e-08
9135.1, -3.034e-08
9137.1, -3.099e-08
9139.1, -3.586e-08
9141.1, -3.305e-08
9143.1, -3.2e-08
9145.1, -3.259e-08
9147.1, -2.809e-08
9149.1, -2.789e-08
9151.1, -2.895e-08
9153.1, -3.046e-08
9155.1, -3.015e-08
9157.1, -3.018e-08
9159.1, -3.251e-08
9161.2, -2.678e-08
9163.2, -3.249e-08
9165.2, -3.279e-08
9167.2, -3.463e-08
9169.2, -3.561e-08
9171.2, -3.395e-08
9173.2, -3.398e-08
9175.2, -3.061e-08
9177.2, -3.204e-08
9179.2, -3.208e-08
9181.2, -3.248e-08
9183.2, -2.892e-08
9185.2, -3.059e-08
9187.2, -3.266e-08
9189.2, -3.016e-08
9191.2, -3.071e-08
9193.2, -3.147e-08
9195.2, -2.934e-08
9197.2, -3.049e-08
9199.2, -3e-08
9201.2, -3.018e-08
9203.2, -2.922e-08
9205.2, -2.672e-08
9207.2, -2.588e-08
9209.2, -2.595e-08
9211.2, -2.764e-08
9213.2, -3.026e-08
9215.2, -2.734e-08
9217.2, -2.944e-08
9219.2, -2.729e-08
9221.2, -3.054e-08
9223.2, -2.894e-08
9225.2, -3.018e-08
9227.2, -3.113e-08
9229.2, -3.101e-08
9231.2, -3.26e-08
9233.2, -3.187e-08
9235.2, -3.002e-08
9237.2, -3.187e-08
9239.2, -3.382e-08
9241.2, -3.116e-08
9243.2, -2.896e-08
9245.2, -2.78e-08
9247.2, -2.852e-08
9249.2, -2.856e-08
9251.2, -2.678e-08
9253.2, -2.841e-08
9255.2, -3.081e-08
9257.2, -3.285e-08
9259.2, -3.437e-08
9261.3, -3.275e-08
9263.3, -3.365e-08
9265.3, -3.108e-08
9267.3, -3.155e-08
9269.3, -3.111e-08
9271.3, -3.268e-08
9273.3, -3.46e-08
9275.3, -3.393e-08
9277.3, -3.086e-08
9279.3, -3.465e-08
9281.3, -3.315e-08
9283.3, -3.799e-08
9285.3, 6.9014e-07
9287.3, 5.7199e-07
9289.3, 6.3805e-07
9291.3, 5.9325e-07
9293.3, 6.7486e-07
9295.3, 6.1529e-07
9297.3, 7.1227e-07
9299.3, 5.9363e-07
9301.3, 5.6764e-07
9303.3, 7.1944e-07
9305.3, 6.3553e-07
9307.3, 6.4833e-07
9309.3, 6.4703e-07
9311.3, 6.7972e-07
9313.3, 6.2845e-07
9315.3, 6.7698e-07
9317.3, 5.9133e-07
9319.3, 6.4891e-07
9321.3, 6.6903e-07
9323.3, 6.3688e-07
9325.3, 6.6547e-07
9327.3, 6.5348e-07
9329.3, 6.3473e-07
9331.3, 6.4389e-07
9333.3, 6.5529e-07
9335.3, 6.3339e-07
9337.3, 6.4372e-07
9339.3, 7.5768e-07
9341.3, 6.2038e-07
9343.3, 5.9749e-07
9345.3, 7.5053e-07
9347.3, 6.6108e-07
9349.3, 6.2404e-07
9351.3, 5.5313e-07
9353.3, 6.8305e-07
9355.3, 6.8195e-07
9357.3, 6.813e-07
9359.3, 6.3149e-07
9361.4, 7.1394e-07
9363.4, 7.1377e-07
9365.4, 6.8884e-07
9367.4, 6.8119e-07
9369.4, 7.12e-07
9371.4, 6.3275e-07
9373.4, 6.1905e-07
9375.4, 7.0419e-07
9377.4, 6.5109e-07
9379.4, 6.1832e-07
9381.4, 6.0668e-07
9383.4, 6.0303e-07
9385.4, 7.4678e-07
9387.4, 6.6862e-07
9389.4, 7.2498e-07
9391.4, 7.0184e-07
9393.4, 6.6475e-07
9395.4, 6.2743e-07
9397.4, 6.5907e-07
9399.4, 6.8402e-07
9401.4, 7.4422e-07
9403.4, 6.093e-07
9405.4, 6.2589e-07
9407.4, 6.1451e-07
9409.4, 7.0579e-07
9411.4, 5.9901e-07
9413.4, 7.2753e-07
9415.4, 6.3621e-07
9417.4, 6.1652e-07
9419.4, 7.922e-07
9421.4, 7.1547e-07
9423.4, 6.427e-07
9425.4, 6.453e-07
9427.4, 7.6893e-07
9429.4, 7.041e-07
9431.4, 7.2895e-07
9433.4, 6.6e-07
9435.4, 6.6146e-07
9437.4, 7.0835e-07
9439.4, 6.7488e-07
9441.4, 7.0749e-07
9443.4, 6.5561e-07
9445.4, 7.5474e-07
9447.4, 7.4338e-07
9449.4, 6.6513e-07
9451.4, 7.3978e-07
9453.4, 6.3812e-07
9455.4, 7.4647e-07
9457.4, 6.98e-07
9459.4, 6.8316e-07
9461.5, 6.603e-07
9463.5, 7.7687e-07
9465.5, 6.4384e-07
9467.5, 7.6622e-07
9469.5, 6.1886e-07
9471.5, 7.05e-07
9473.5, 7.5327e-07
9475.5, 6.1173e-07
9477.5, 7.5155e-07
9479.5, 7.3076e-07
9481.5, 6.3808e-07
9483.5, 7.1346e-07
9485.5, 6.6819e-07
9487.5, 7.8249e-07
9489.5, 7.0308e-07
9491.5, 6.3195e-07
9493.5, 7.4602e-07
9495.5, 6.5361e-07
9497.5, 7.5734e-07
9499.5, 6.6439e-07
9501.5, 6.5539e-07
9503.5, 7.3579e-07
9505.5, 6.7779e-07
9507.5, 6.4056e-07
9509.5, 7.2805e-07
9511.5, 7.3801e-07
9513.5, 7.6583e-07
9515.5, 7.9267e-07
9517.5, 6.4875e-07
9519.5, 6.5998e-07
9521.5, 6.5209e-07
9523.5, 6.237e-07
9525.5, 7.5787e-07
9527.5, 7.5388e-07
9529.5, 7.0895e-07
9531.5, 7.4946e-07
9533.5, 8.1387e-07
9535.5, 7.2851e-07
9537.5, 7.2715e-07
9539.5, 7.4094e-07
9541.5, 6.9067e-07
9543.5, 8.2163e-07
9545.5, 7.636e-07
9547.5, 6.9219e-07
9549.5, 7.9741e-07
9551.5, 7.4215e-07
9553.5, 8.3854e-07
9555.5, 7.6904e-07
9557.5, 8.0696e-07
9559.5, 6.6651e-07
9561.6, 7.0207e-07
9563.6, 6.7994e-07
9565.6, 7.8924e-07
9567.6, 6.8822e-07
9569.6, 7.0975e-07
9571.6, 7.2615e-07
9573.6, 6.8125e-07
9575.6, 6.9501e-07
9577.6, 7.1571e-07
9579.6, 6.7707e-07
9581.6, 7.01e-07
9583.6, 7.3775e-07
9585.6, 6.821e-07
9587.6, 7.6283e-07
9589.6, 6.5465e-07
9591.6, 6.5939e-07
9593.6, 6.7874e-07
9595.6, 8.2059e-07
9597.6, 7.6569e-07
9599.6, 7.3722e-07
9601.6, 6.7477e-07
9603.6, 6.079e-07
9605.6, 6.793e-07
9607.6, 8.0637e-07
9609.6, 6.6528e-07
9611.6, 7.3448e-07
9613.6, 7.2047e-07
9615.6, 7.4168e-07
9617.6, 7.4389e-07
9619.6, 7.5871e-07
9621.6, 7.6973e-07
9623.6, 7.6616e-07
9625.6, 7.5096e-07
9627.6, 7.0886e-07
9629.6, 7.3324e-07
9631.6, 7.7897e-07
9633.6, 6.7256e-07
9635.6, 7.0913e-07
9637.6, 6.1963e-07
9639.6, 7.5456e-07
9641.6, 6.8198e-07
9643.6, 7.1258e-07
9645.6, 7.6565e-07
9647.6, 7.7484e-07
9649.6, 6.8965e-07
9651.6, 7.136e-07
9653.6, 7.1231e-07
9655.6, 7.9015e-07
9657.6, 6.8137e-07
9659.6, 6.7772e-07
9661.7, 8.0619e-07
9663.7, 7.2882e-07
9665.7, 7.2937e-07
9667.7, 6.2208e-07
9669.7, 6.7447e-07
9671.7, 7.4135e-07
9673.7, 7.8855e-07
9675.7, 7.0426e-07
9677.7, 7.8351e-07
9679.7, 7.3419e-07
9681.7, 7.3083e-07
9683.7, 7.6756e-07
9685.7, 7.4844e-07
9687.7, 7.1682e-07
9689.7, 6.9586e-07
9691.7, 6.9934e-07
9693.7, 7.5417e-07
9695.7, 6.659e-07
9697.7, 7.2458e-07
9699.7, 6.734e-07
9701.7, 6.8195e-07
9703.7, 7.8014e-07
9705.7, 7.0687e-07
9707.7, 6.7073e-07
9709.7, 7.7563e-07
9711.7, 7.9067e-07
9713.7, 7.7763e-07
9715.7, 8.3359e-07
9717.7, 7.084e-07
9719.7, 5.7989e-07
9721.7, 7.4857e-07
9723.7, 6.8925e-07
9725.7, 6.582e-07
9727.7, 7.3524e-07
9729.7, 6.7746e-07
9731.7, 7.5843e-07
9733.7, 8.0252e-07
9735.7, 6.989e-07
9737.7, 7.6173e-07
9739.7, 7.28e-07
9741.7, 6.9111e-07
9743.7, 8.0288e-07
9745.7, 7.4121e-07
9747.7, 7.205e-07
9749.7, 6.3898e-07
9751.7, 6.6599e-07
9753.7, 7.3184e-07
9755.7, 7.7588e-07
9757.7, 6.5075e-07
9759.7, 5.7684e-07
9761.8, 5.9749e-07
9763.8, 7.8756e-07
9765.8, 7.37e-07
9767.8, 6.523e-07
9769.8, 7.029e-07
9771.8, 7.3696e-07
9773.8, 7.0909e-07
9775.8, 7.34e-07
9777.8, 7.8434e-07
9779.8, 6.9417e-07
9781.8, 6.8534e-07
9783.8, 7.6935e-07
9785.8, 7.1083e-07
9787.8, 7.3732e-07
9789.8, 7.7896e-07
9791.8, 7.5651e-07
9793.8, 7.6393e-07
9795.8, 7.2593e-07
9797.8, 7.5546e-07
9799.8, 7.7583e-07
9801.8, 6.8944e-07
9803.8, 7.8277e-07
9805.8, 7.9346e-07
9807.8, 7.4641e-07
9809.8, 9.3868e-07
9811.8, 7.6663e-07
9813.8, 6.7679e-07
9815.8, 7.6473e-07
9817.8, 7.1051e-07
9819.8, 7.7144e-07
9821.8, 5.7842e-07
9823.8, 6.343e-07
9825.8, 7.8574e-07
9827.8, 8.0966e-07
9829.8, 6.733e-07
9831.8, 6.7971e-07
9833.8, 7.6236e-07
9835.8, 7.609e-07
9837.8, 7.3671e-07
9839.8, 6.5379e-07
9841.8, 6.9568e-07
9843.8, 6.4398e-07
9845.8, 6.1022e-07
9847.8, 7.2736e-07
9849.8, 7.8762e-07
9851.8, 7.7196e-07
9853.8, 7.1835e-07
9855.8, 7.0089e-07
9857.8, 8.5445e-07
9859.8, 5.7885e-07
9861.9, 7.762e-07
9863.9, 7.8073e-07
9865.9, 7.5205e-07
9867.9, 7.2628e-07
9869.9, 6.8185e-07
9871.9, 7.7804e-07
9873.9, 7.4468e-07
9875.9, 7.1191e-07
9877.9, 6.8288e-07
9879.9, 7.419e-07
9881.9, 6.3733e-07
9883.9, 7.6482e-07
9885.9, 8.1159e-07
9887.9, 7.4859e-07
9889.9, 7.2862e-07
9891.9, 7.5701e-07
9893.9, 6.5723e-07
9895.9, 7.9724e-07
9897.9, 8.1747e-07
9899.9, 6.4712e-07
9901.9, 7.7801e-07
9903.9, 6.9735e-07
9905.9, 7.4647e-07
9907.9, 7.3197e-07
9909.9, 7.0715e-07
9911.9, 7.4557e-07
9913.9, 7.8379e-07
9915.9, 6.5865e-07
9917.9, 7.4593e-07
9919.9, 7.0478e-07
9921.9, 8.1096e-07
9923.9, 6.5751e-07
9925.9, 7.0669e-07
9927.9, 7.2508e-07
9929.9, 7.7028e-07
9931.9, 6.1779e-07
9933.9, 7.5917e-07
9935.9, 6.2008e-07
9937.9, 7.1239e-07
9939.9, 7.3949e-07
9941.9, 7.7092e-07
9943.9, 7.7462e-07
9945.9, 7.7858e-07
9947.9, 6.8909e-07
9949.9, 6.8613e-07
9951.9, 7.3071e-07
9953.9, 7.541e-07
9955.9, 7.4747e-07
9957.9, 7.2816e-07
9959.9, 7.4358e-07
9962.0, 6.9851e-07
9964.0, 7.9282e-07
9966.0, 8.0061e-07
9968.0, 6.1205e-07
9970.0, 8.1969e-07
9972.0, 7.3419e-07
9974.0, 7.8462e-07
9976.0, 7.1006e-07
9978.0, 6.8387e-07
9980.0, 7.1705e-07
9982.0, 6.9324e-07
9984.0, 7.8662e-07
9986.0, 7.1459e-07
9988.0, 6.8385e-07
9990.0, 6.3533e-07
9992.0, 8.0079e-07
9994.0, 7.9746e-07
9996.0, 7.1953e-07
9998.0, 7.6278e-07
10000.0, 7.021e-07
10002.0, 7.8998e-07
10004.0, 6.8127e-07
10006.0, 7.8222e-07
10008.0, 7.2223e-07
10010.0, 6.9209e-07
10012.0, 6.7811e-07
10014.0, 8.1455e-07
10016.0, 7.7904e-07
10018.0, 7.1727e-07
10020.0, 6.6476e-07
10022.0, 7.794e-07
10024.0, 6.8547e-07
10026.0, 7.5136e-07
10028.0, 8.3641e-07
10030.0, 7.5965e-07
10032.0, 7.8825e-07
10034.0, 7.0343e-07
10036.0, 7.3865e-07
10038.0, 7.4511e-07
10040.0, 6.7613e-07
10042.0, 6.9816e-07
10044.0, 6.6649e-07
10046.0, 7.4215e-07
10048.0, 8.0928e-07
10050.0, 7.5827e-07
10052.0, 6.1908e-07
10054.0, 7.8911e-07
10056.0, 6.6489e-07
10058.0, 8.4392e-07
10060.0, 7.6045e-07
10062.0, 7.9804e-07
10064.0, 7.2385e-07
10066.0, 7.6946e-07
10068.0, 7.4043e-07
10070.0, 7.0337e-07
10072.0, 7.505e-07
10074.0, 7.0096e-07
10076.0, 6.9662e-07
10078.0, 7.8451e-07
10080.0, 6.3764e-07
10082.0, 7.2644e-07
10084.0, 6.7338e-07
10086.0, 7.9939e-07
10088.0, 6.9668e-07
10090.0, 7.5033e-07
10092.0, 7.4152e-07
10094.0, 7.3309e-07
10096.0, 7.4741e-07
10098.0, 6.7109e-07
10100.0, 8.0852e-07
10102.0, 6.954e-07
10104.0, 7.674e-07
10106.0, 7.7076e-07
10108.0, 6.8316e-07
10110.0, 7.6556e-07
10112.0, 6.7131e-07
10114.0, 8.0803e-07
10116.0, 7.5295e-07
10118.0, 7.616e-07
10120.0, 7.0379e-07
10122.0, 8.0043e-07
10124.0, 7.5636e-07
10126.0, 6.6214e-07
10128.0, 6.4214e-07
10130.0, 6.7214e-07
10132.0, 7.7656e-07
10134.0, 7.803e-07
10136.0, 6.6615e-07
10138.0, 7.178e-07
10140.0, 7.4035e-07
10142.0, 6.8834e-07
10144.0, 7.9788e-07
10146.0, 6.9754e-07
10148.0, 6.9433e-07
10150.0, 7.0893e-07
10152.0, 7.9991e-07
10154.0, 7.562e-07
10156.0, 6.9354e-07
10158.0, 8.0413e-07
10160.0, 7.5717e-07
10162.0, 7.4573e-07
10164.0, 7.3358e-07
10166.0, 7.3904e-07
10168.0, 7.0326e-07
10170.0, 7.1804e-07
10172.0, 7.2538e-07
10174.0, 6.5927e-07
10176.0, 7.9874e-07
10178.0, 8.4094e-07
10180.0, 7.654e-07
10182.0, 7.598e-07
10184.0, 6.9258e-07
10186.0, 7.7148e-07
10188.0, 6.5683e-07
10190.0, 6.8953e-07
10192.0, 6.5483e-07
10194.0, 7.2355e-07
10196.0, 7.5833e-07
10198.0, 7.3236e-07
10200.0, 7.5346e-07
10202.0, 7.8406e-07
10204.0, 7.562e-07
10206.0, 6.8266e-07
10208.0, 8.0607e-07
10210.0, 7.6571e-07
10212.0, 7.7168e-07
10214.0, 6.3264e-07
10216.0, 7.7883e-07
10218.0, 7.8513e-07
10220.0, 7.2548e-07
10222.0, 6.6955e-07
10224.0, 7.4835e-07
10226.0, 7.2836e-07
10228.0, 8.2041e-07
10230.0, 8.9468e-07
10232.0, 7.2718e-07
10234.0, 6.8355e-07
10236.0, 7.1007e-07
10238.0, 7.252e-07
10240.0, 6.7342e-07
10242.0, 8.0064e-07
10244.0, 7.8758e-07
10246.0, 8.1966e-07
10248.0, 7.4736e-07
10250.0, 7.3849e-07
10252.0, 6.5701e-07
10254.0, 7.9046e-07
10256.0, 7.3514e-07
10258.0, 8.1583e-07
10260.0, 7.8909e-07
10262.0, 8.2626e-07
10264.0, 8.0044e-07
10266.0, 7.2842e-07
10268.0, 7.1038e-07
10270.0, 7.3992e-07
10272.0, 7.1733e-07
10274.0, 7.8031e-07
10276.0, 6.4216e-07
10278.0, 7.4082e-07
10280.0, 7.2862e-07
10282.0, 7.1738e-07
10284.0, 7.5356e-07
10286.0, -3.64e-08
10288.0, -2.946e-08
10290.0, -2.736e-08
10292.0, -2.822e-08
10294.0, -2.915e-08
10296.0, -3.172e-08
10298.0, -3.141e-08
10300.0, -2.897e-08
10302.0, -3.092e-08
10304.0, -2.966e-08
10306.0, -3.128e-08
10308.0, -2.945e-08
10310.0, -3.119e-08
10312.0, -2.862e-08
10314.0, -2.97e-08
10316.0, -2.632e-08
10318.0, -2.776e-08
10320.0, -2.718e-08
10322.0, -2.59e-08
10324.0, -2.935e-08
10326.0, -3.371e-08
10328.0, -3.163e-08
10330.0, -2.883e-08
10332.0, -3.164e-08
10334.0, -2.966e-08
10336.0, -3.142e-08
10338.0, -3.267e-08
10340.0, -3.11e-08
10342.0, -3.405e-08
10344.0, -3.214e-08
10346.0, -3.17e-08
10348.0, -3.056e-08
10350.0, -3.007e-08
10352.0, -3.163e-08
10354.0, -3.117e-08
10356.0, -3.014e-08
10358.0, -3.558e-08
10360.0, -3.237e-08
10362.0, -3.237e-08
10364.0, -3.429e-08
10366.0, -3.222e-08
10368.0, -3.374e-08
10370.0, -3.087e-08
10372.0, -3.107e-08
10374.0, -3.185e-08
10376.0, -3.129e-08
10378.0, -3.586e-08
10380.0, -3.019e-08
10382.0, -3.01e-08
10384.0, -3.262e-08
10386.0, -3.12e-08
10388.0, -3.201e-08
10390.0, -3.222e-08
10392.0, -3.121e-08
10394.0, -3.229e-08
10396.0, -3.383e-08
10398.0, -3.243e-08
10400.0, -3.177e-08
10402.0, -3.014e-08
10404.0, -3.438e-08
10406.0, -3.274e-08
10408.0, -3.223e-08
10410.0, -3.094e-08
10412.0, -3.3e-08
10414.0, -3.432e-08
10416.0, -2.906e-08
10418.0, -3.15e-08
10420.0, -2.784e-08
10422.0, -2.849e-08
10424.0, -2.563e-08
10426.0, -2.858e-08
10428.0, -2.781e-08
10430.0, -2.709e-08
10432.0, -2.609e-08
10434.0, -3.067e-08
10436.0, -2.965e-08
10438.0, -2.802e-08
10440.0, -3.271e-08
10442.0, -3.246e-08
10444.0, -3.17e-08
10446.0, -3.093e-08
10448.0, -3.262e-08
10450.0, -2.982e-08
10452.0, -3.213e-08
10454.0, -3.366e-08
10456.0, -2.856e-08
10458.0, -3.256e-08
10460.0, -3.212e-08
10462.0, -3.165e-08
10464.0, -3.016e-08
10466.0, -2.597e-08
10468.0, -2.84e-08
10470.0, -2.562e-08
10472.0, -2.832e-08
10474.0, -2.767e-08
10476.0, -3.151e-08
10478.0, -3.174e-08
10480.0, -3.048e-08
10482.0, -3.027e-08
10484.0, -2.914e-08
10486.0, -3.086e-08
10488.0, -3.221e-08
10490.0, -3.41e-08
10492.0, -3.273e-08
10494.0, -2.963e-08
10496.0, -3.054e-08
10498.0, -2.864e-08
10500.0, -2.95e-08
10502.0, -2.629e-08
10504.0, -2.585e-08
10506.0, -2.666e-08
10508.0, -3.046e-08
10510.0, -2.65e-08
10513.0, -2.977e-08
10515.0, -2.778e-08
10517.0, -2.599e-08
10519.0, -3.032e-08
10521.0, -2.929e-08
10523.0, -2.894e-08
10525.0, -2.649e-08
10527.0, -2.865e-08
10529.0, -2.898e-08
10531.0, -3.022e-08
10533.0, -3.438e-08
10535.0, -3.33e-08
10537.0, -3.299e-08
10539.0, -3.075e-08
10541.0, -3.148e-08
10543.0, -2.985e-08
10545.0, -2.753e-08
10547.0, -3.175e-08
10549.0, -2.877e-08
10551.0, -2.977e-08
10553.0, -3.02e-08
10555.0, -3.174e-08
10557.0, -3.002e-08
10559.0, -3.405e-08
10561.0, -3.192e-08
10563.0, -3.382e-08
10565.0, -3.224e-08
10567.0, -3.413e-08
10569.0, -3.264e-08
10571.0, -3.299e-08
10573.0, -3.278e-08
10575.0, -3.283e-08
10577.0, -2.837e-08
10579.0, -2.825e-08
10581.0, -3.074e-08
10583.0, -2.843e-08
10585.0, -3.222e-08
10587.0, -3.07e-08
10589.0, -3.1e-08
10591.0, -3.125e-08
10593.0, -3.259e-08
10595.0, -2.849e-08
10597.0, -2.926e-08
10599.0, -2.618e-08
10601.0, -2.803e-08
10603.0, -2.765e-08
10605.0, -2.709e-08
10607.0, -2.772e-08
10609.0, -2.625e-08
10611.0, -2.615e-08
10613.0, -2.779e-08
10615.0, -2.969e-08
10617.0, -2.898e-08
10619.0, -2.941e-08
10621.0, -2.971e-08
10623.0, -2.646e-08
10625.0, -2.465e-08
10627.0, -2.799e-08
10629.0, -2.858e-08
10631.0, -3.062e-08
10633.0, -2.851e-08
10635.0, -2.939e-08
10637.0, -2.577e-08
10639.0, -2.635e-08
10641.0, -2.819e-08
10643.0, -2.584e-08
10645.0, -2.703e-08
10647.0, -2.91e-08
10649.0, -2.659e-08
10651.0, -2.688e-08
10653.0, -2.913e-08
10655.0, -2.697e-08
10657.0, -3.225e-08
10659.0, -3.099e-08
10661.0, -3.249e-08
10663.0, -3.11e-08
10665.0, -2.866e-08
10667.0, -3.21e-08
10669.0, -3.398e-08
10671.0, -3.122e-08
10673.0, -3.122e-08
10675.0, -2.773e-08
10677.0, -3.086e-08
10679.0, -3.09e-08
10681.0, -3.048e-08
10683.0, -3.283e-08
10685.0, -3.119e-08
10687.0, -2.952e-08
10689.0, -2.855e-08
10691.0, -2.958e-08
10693.0, -3.16e-08
10695.0, -2.939e-08
10697.0, -2.73e-08
10699.0, -2.708e-08
10701.0, -3.081e-08
10703.0, -2.765e-08
10705.0, -2.706e-08
10707.0, -2.681e-08
10709.0, -3.06e-08
10711.0, -3.051e-08
10713.0, -2.975e-08
10715.0, -3.032e-08
10717.0, -2.591e-08
10719.0, -2.79e-08
10721.0, -2.891e-08
10723.0, -2.881e-08
10725.0, -3.027e-08
10727.0, -3.288e-08
10729.0, -3.215e-08
10731.0, -2.852e-08
10733.0, -2.692e-08
10735.0, -3.11e-08
10737.0, -2.876e-08
10739.0, -3.005e-08
10741.0, -2.776e-08
10743.0, -3.106e-08
10745.0, -2.983e-08
10747.0, -3.248e-08
10749.0, -2.968e-08
10751.0, -3.195e-08
10753.0, -2.973e-08
10755.0, -2.664e-08
10757.0, -2.781e-08
10759.0, -2.996e-08
10761.0, -2.811e-08
10763.0, -3.303e-08
10765.0, -3.029e-08
10767.0, -2.962e-08
10769.0, -3.051e-08
10771.0, -3.116e-08
10773.0, -3.027e-08
10775.0, -3.158e-08
10777.0, -2.937e-08
10779.0, -3.467e-08
10781.0, -3.239e-08
10783.0, -2.739e-08
10785.0, -2.814e-08
10787.0, -3.357e-08
10789.0, -3.006e-08
10791.0, -2.931e-08
10793.0, -2.745e-08
10795.0, -2.609e-08
10797.0, -2.77e-08
10799.0, -2.899e-08
10801.0, -3.068e-08
10803.0, -2.993e-08
10805.0, -2.879e-08
10807.0, -3.032e-08
10809.0, -2.909e-08
10811.0, -2.875e-08
10813.0, -2.978e-08
10815.0, -2.797e-08
10817.0, -2.925e-08
10819.0, -3.199e-08
10821.0, -3.063e-08
10823.0, -2.923e-08
10825.0, -3.058e-08
10827.0, -3.147e-08
10829.0, -3.223e-08
10831.0, -3.372e-08
10833.0, -3.123e-08
10835.0, -3.467e-08
10837.0, -3.446e-08
10839.0, -3.237e-08
10841.0, -2.928e-08
10843.0, -3.13e-08
10845.0, -2.597e-08
10847.0, -2.905e-08
10849.0, -3.174e-08
10851.0, -3.028e-08
10853.0, -3.345e-08
10855.0, -2.98e-08
10857.0, -3.351e-08
10859.0, -3.167e-08
10861.0, -3.419e-08
10863.0, -2.913e-08
10865.0, -2.782e-08
10867.0, -3.26e-08
10869.0, -2.723e-08
10871.0, -3.11e-08
10873.0, -2.89e-08
10875.0, -2.702e-08
10877.0, -2.714e-08
10879.0, -2.865e-08
10881.0, -2.822e-08
10883.0, -2.795e-08
10885.0, -2.681e-08
10887.0, -3.037e-08
10889.0, -2.942e-08
10891.0, -3.029e-08
10893.0, -2.871e-08
10895.0, -2.589e-08
10897.0, -2.944e-08
10899.0, -3.191e-08
10901.0, -2.946e-08
10903.0, -2.49e-08
10905.0, -2.559e-08
10907.0, -3.147e-08
10909.0, -2.651e-08
10911.0, -2.662e-08
10913.0, -2.884e-08
10915.0, -2.667e-08
10917.0, -2.618e-08
10919.0, -2.778e-08
10921.0, -2.674e-08
10923.0, -2.618e-08
10925.0, -2.875e-08
10927.0, -3.101e-08
10929.0, -3.431e-08
10931.0, -3.133e-08
10933.0, -3.151e-08
10935.0, -3.304e-08
10937.0, -3.089e-08
10939.0, -3.199e-08
10941.0, -3.032e-08
10943.0, -3.338e-08
10945.0, -3.244e-08
10947.0, -2.977e-08
10949.0, -2.56e-08
10951.0, -3.508e-08
10953.0, -3.055e-08
10955.0, -2.802e-08
10957.0, -3.103e-08
10959.0, -2.988e-08
10961.0, -3.032e-08
10963.0, -3.412e-08
10965.0, -3.67e-08
10967.0, -3.173e-08
10969.0, -3.483e-08
10971.0, -3.33e-08
10973.0, -3.329e-08
10975.0, -3.136e-08
10977.0, -3.271e-08
10979.0, -3.467e-08
10981.0, -3.549e-08
10983.0, -3.189e-08
10985.0, -3.122e-08
10987.0, -3.703e-08
10989.0, -3.812e-08
10991.0, -3.306e-08
10993.0, -3.232e-08
10995.0, -3.191e-08
10997.0, -3.576e-08
10999.0, -3.412e-08
11001.0, -3.253e-08
11003.0, -3.023e-08
11005.0, -2.829e-08
11007.0, -3.138e-08
11009.0, -2.802e-08
